File:              	C:\Qtrac\Data\CKMC01021H.QZD
Name:              	RHS05
Protocol:          	MSCAN-R2
Date:              	21/10/20
Start time:        	13:58:34
Age:               	44
Sex:               	F
Temperature:       	37.8
S/R sites:         	RPer FH-AT
NC/disease:        	NC
Operator:          	CK
Comments:          	CG
M-SCAN DATA (9.1-1.7m)
Scanpts: 86, 99, 763, 782
Stim. (mA)     	Amp. (mV)
MS.1           	21             	5.141
MS.2           	21             	5.132
MS.3           	21             	5.135
MS.4           	21             	5.135
MS.5           	21             	5.123
MS.6           	21             	5.101
MS.7           	21             	5.096
MS.8           	21             	5.096
MS.9           	21             	5.106
MS.10          	21             	5.103
MS.11          	21             	5.108
MS.12          	21             	5.092
MS.13          	21             	5.1
MS.14          	21             	5.108
MS.15          	21             	5.099
MS.16          	21             	5.104
MS.17          	21             	5.106
MS.18          	21             	5.13
MS.19          	21             	5.11
MS.20          	21             	5.099
MS.21          	21             	5.109
MS.22          	21             	5.107
MS.23          	21             	5.106
MS.24          	20.915         	5.115
MS.25          	20.875         	5.116
MS.26          	20.835         	5.089
MS.27          	20.79          	5.098
MS.28          	20.75          	5.112
MS.29          	20.71          	5.105
MS.30          	20.665         	5.092
MS.31          	20.625         	5.088
MS.32          	20.585         	5.109
MS.33          	20.545         	5.106
MS.34          	20.5           	5.092
MS.35          	20.46          	5.09
MS.36          	20.42          	5.104
MS.37          	20.38          	5.089
MS.38          	20.34          	5.103
MS.39          	20.3           	5.097
MS.40          	20.255         	5.07
MS.41          	20.215         	5.06
MS.42          	20.175         	5.071
MS.43          	20.135         	5.067
MS.44          	20.095         	5.059
MS.45          	20.055         	5.075
MS.46          	20.015         	5.074
MS.47          	19.975         	5.087
MS.48          	19.935         	5.079
MS.49          	19.895         	5.078
MS.50          	19.855         	5.074
MS.51          	19.815         	5.09
MS.52          	19.775         	5.079
MS.53          	19.735         	5.078
MS.54          	19.7           	5.041
MS.55          	19.66          	5.037
MS.56          	19.62          	5.06
MS.57          	19.58          	5.073
MS.58          	19.54          	5.075
MS.59          	19.5           	5.083
MS.60          	19.465         	5.087
MS.61          	19.425         	5.087
MS.62          	19.385         	5.078
MS.63          	19.345         	5.087
MS.64          	19.31          	5.078
MS.65          	19.27          	5.092
MS.66          	19.23          	5.068
MS.67          	19.19          	5.062
MS.68          	19.155         	5.063
MS.69          	19.115         	5.071
MS.70          	19.08          	4.995
MS.71          	19.04          	5.066
MS.72          	19             	5.069
MS.73          	18.965         	5.087
MS.74          	18.925         	5.073
MS.75          	18.89          	5.083
MS.76          	18.85          	5.084
MS.77          	18.81          	5.059
MS.78          	18.775         	5.075
MS.79          	18.735         	5.074
MS.80          	18.7           	5.085
MS.81          	18.665         	5.087
MS.82          	18.625         	5.086
MS.83          	18.59          	5.052
MS.84          	18.55          	5.092
MS.85          	18.515         	5.075
MS.86          	18.475         	5.089
MS.87          	18.44          	5.073
MS.88          	18.405         	5.084
MS.89          	18.365         	5.081
MS.90          	18.33          	5.074
MS.91          	18.295         	5.042
MS.92          	18.255         	5.079
MS.93          	18.22          	5.077
MS.94          	18.185         	5.065
MS.95          	18.145         	5.077
MS.96          	18.11          	5.054
MS.97          	18.075         	5.054
MS.98          	18.04          	5.056
MS.99          	18.005         	5.059
MS.100         	17.965         	5.067
MS.101         	17.93          	5.066
MS.102         	17.895         	5.043
MS.103         	17.86          	5.056
MS.104         	17.825         	5.081
MS.105         	17.79          	5.028
MS.106         	17.75          	5.065
MS.107         	17.715         	5.051
MS.108         	17.68          	5.046
MS.109         	17.645         	5.035
MS.110         	17.61          	5.052
MS.111         	17.575         	5.051
MS.112         	17.54          	5.05
MS.113         	17.505         	5.07
MS.114         	17.47          	5.026
MS.115         	17.435         	5.071
MS.116         	17.4           	5.057
MS.117         	17.365         	5.053
MS.118         	17.33          	5.025
MS.119         	17.295         	5.056
MS.120         	17.26          	5.039
MS.121         	17.23          	5.039
MS.122         	17.195         	5.048
MS.123         	17.16          	5.046
MS.124         	17.125         	4.987
MS.125         	17.09          	5.012
MS.126         	17.055         	5.028
MS.127         	17.02          	4.982
MS.128         	16.99          	5.031
MS.129         	16.955         	5.013
MS.130         	16.92          	4.993
MS.131         	16.885         	5.037
MS.132         	16.855         	5.007
MS.133         	16.82          	4.999
MS.134         	16.785         	5.016
MS.135         	16.75          	4.998
MS.136         	16.72          	5.005
MS.137         	16.685         	4.997
MS.138         	16.65          	4.964
MS.139         	16.62          	5.007
MS.140         	16.585         	4.989
MS.141         	16.55          	4.977
MS.142         	16.52          	4.99
MS.143         	16.485         	4.98
MS.144         	16.455         	4.979
MS.145         	16.42          	4.982
MS.146         	16.385         	4.966
MS.147         	16.355         	4.982
MS.148         	16.32          	4.98
MS.149         	16.29          	4.966
MS.150         	16.255         	4.948
MS.151         	16.225         	4.976
MS.152         	16.19          	4.984
MS.153         	16.16          	4.958
MS.154         	16.125         	4.956
MS.155         	16.095         	4.96
MS.156         	16.065         	4.952
MS.157         	16.03          	4.947
MS.158         	16             	4.972
MS.159         	15.965         	4.951
MS.160         	15.935         	4.958
MS.161         	15.905         	4.937
MS.162         	15.87          	4.939
MS.163         	15.84          	4.928
MS.164         	15.81          	4.92
MS.165         	15.775         	4.943
MS.166         	15.745         	4.925
MS.167         	15.715         	4.905
MS.168         	15.68          	4.935
MS.169         	15.65          	4.913
MS.170         	15.62          	4.911
MS.171         	15.59          	4.89
MS.172         	15.555         	4.881
MS.173         	15.525         	4.878
MS.174         	15.495         	4.884
MS.175         	15.465         	4.884
MS.176         	15.435         	4.908
MS.177         	15.4           	4.888
MS.178         	15.37          	4.924
MS.179         	15.34          	4.907
MS.180         	15.31          	4.88
MS.181         	15.28          	4.869
MS.182         	15.25          	4.854
MS.183         	15.22          	4.866
MS.184         	15.19          	4.821
MS.185         	15.16          	4.886
MS.186         	15.13          	4.864
MS.187         	15.095         	4.846
MS.188         	15.065         	4.839
MS.189         	15.035         	4.844
MS.190         	15.005         	4.802
MS.191         	14.975         	4.806
MS.192         	14.945         	4.838
MS.193         	14.915         	4.821
MS.194         	14.885         	4.784
MS.195         	14.86          	4.769
MS.196         	14.83          	4.769
MS.197         	14.8           	4.799
MS.198         	14.77          	4.775
MS.199         	14.74          	4.789
MS.200         	14.71          	4.752
MS.201         	14.68          	4.795
MS.202         	14.65          	4.783
MS.203         	14.62          	4.757
MS.204         	14.595         	4.782
MS.205         	14.565         	4.738
MS.206         	14.535         	4.756
MS.207         	14.505         	4.766
MS.208         	14.475         	4.725
MS.209         	14.445         	4.762
MS.210         	14.42          	4.711
MS.211         	14.39          	4.702
MS.212         	14.36          	4.713
MS.213         	14.33          	4.683
MS.214         	14.305         	4.723
MS.215         	14.275         	4.685
MS.216         	14.245         	4.696
MS.217         	14.22          	4.718
MS.218         	14.19          	4.728
MS.219         	14.16          	4.659
MS.220         	14.135         	4.695
MS.221         	14.105         	4.675
MS.222         	14.075         	4.701
MS.223         	14.05          	4.662
MS.224         	14.02          	4.658
MS.225         	13.99          	4.642
MS.226         	13.965         	4.675
MS.227         	13.935         	4.672
MS.228         	13.91          	4.66
MS.229         	13.88          	4.615
MS.230         	13.855         	4.63
MS.231         	13.825         	4.626
MS.232         	13.8           	4.643
MS.233         	13.77          	4.643
MS.234         	13.745         	4.595
MS.235         	13.715         	4.539
MS.236         	13.69          	4.626
MS.237         	13.66          	4.575
MS.238         	13.635         	4.604
MS.239         	13.605         	4.578
MS.240         	13.58          	4.576
MS.241         	13.55          	4.571
MS.242         	13.525         	4.559
MS.243         	13.5           	4.531
MS.244         	13.47          	4.522
MS.245         	13.445         	4.51
MS.246         	13.415         	4.502
MS.247         	13.39          	4.542
MS.248         	13.365         	4.526
MS.249         	13.335         	4.498
MS.250         	13.31          	4.462
MS.251         	13.285         	4.446
MS.252         	13.255         	4.421
MS.253         	13.23          	4.443
MS.254         	13.205         	4.418
MS.255         	13.18          	4.437
MS.256         	13.15          	4.445
MS.257         	13.125         	4.434
MS.258         	13.1           	4.407
MS.259         	13.075         	4.464
MS.260         	13.045         	4.407
MS.261         	13.02          	4.37
MS.262         	12.995         	4.388
MS.263         	12.97          	4.345
MS.264         	12.945         	4.329
MS.265         	12.915         	4.368
MS.266         	12.89          	4.358
MS.267         	12.865         	4.301
MS.268         	12.84          	4.362
MS.269         	12.815         	4.358
MS.270         	12.79          	4.313
MS.271         	12.765         	4.315
MS.272         	12.735         	4.342
MS.273         	12.71          	4.32
MS.274         	12.685         	4.316
MS.275         	12.66          	4.311
MS.276         	12.635         	4.299
MS.277         	12.61          	4.281
MS.278         	12.585         	4.285
MS.279         	12.56          	4.291
MS.280         	12.535         	4.282
MS.281         	12.51          	4.282
MS.282         	12.485         	4.302
MS.283         	12.46          	4.271
MS.284         	12.435         	4.257
MS.285         	12.41          	4.188
MS.286         	12.385         	4.26
MS.287         	12.36          	4.275
MS.288         	12.335         	4.164
MS.289         	12.31          	4.154
MS.290         	12.285         	4.129
MS.291         	12.26          	4.185
MS.292         	12.24          	4.115
MS.293         	12.215         	4.124
MS.294         	12.19          	4.156
MS.295         	12.165         	4.163
MS.296         	12.14          	4.073
MS.297         	12.115         	4.088
MS.298         	12.09          	4.083
MS.299         	12.07          	4.078
MS.300         	12.045         	4.041
MS.301         	12.02          	4.105
MS.302         	11.995         	3.975
MS.303         	11.97          	3.996
MS.304         	11.945         	4.082
MS.305         	11.925         	3.928
MS.306         	11.9           	3.998
MS.307         	11.875         	3.949
MS.308         	11.85          	3.947
MS.309         	11.83          	3.884
MS.310         	11.805         	3.917
MS.311         	11.78          	3.872
MS.312         	11.76          	3.879
MS.313         	11.735         	3.922
MS.314         	11.71          	3.881
MS.315         	11.685         	3.876
MS.316         	11.665         	3.895
MS.317         	11.64          	3.84
MS.318         	11.62          	3.853
MS.319         	11.595         	3.758
MS.320         	11.57          	3.711
MS.321         	11.55          	3.733
MS.322         	11.525         	3.728
MS.323         	11.5           	3.727
MS.324         	11.48          	3.729
MS.325         	11.455         	3.79
MS.326         	11.435         	3.755
MS.327         	11.41          	3.702
MS.328         	11.39          	3.715
MS.329         	11.365         	3.774
MS.330         	11.34          	3.69
MS.331         	11.32          	3.638
MS.332         	11.295         	3.701
MS.333         	11.275         	3.669
MS.334         	11.25          	3.629
MS.335         	11.23          	3.577
MS.336         	11.205         	3.593
MS.337         	11.185         	3.544
MS.338         	11.16          	3.563
MS.339         	11.14          	3.539
MS.340         	11.115         	3.493
MS.341         	11.095         	3.53
MS.342         	11.075         	3.63
MS.343         	11.05          	3.505
MS.344         	11.03          	3.455
MS.345         	11.005         	3.511
MS.346         	10.985         	3.381
MS.347         	10.965         	3.428
MS.348         	10.94          	3.448
MS.349         	10.92          	3.47
MS.350         	10.895         	3.354
MS.351         	10.875         	3.383
MS.352         	10.855         	3.341
MS.353         	10.83          	3.364
MS.354         	10.81          	3.293
MS.355         	10.79          	3.226
MS.356         	10.765         	3.156
MS.357         	10.745         	3.171
MS.358         	10.725         	3.136
MS.359         	10.705         	3.227
MS.360         	10.68          	3.098
MS.361         	10.66          	3.193
MS.362         	10.64          	2.928
MS.363         	10.62          	3.092
MS.364         	10.595         	3.04
MS.365         	10.575         	3.025
MS.366         	10.555         	3.019
MS.367         	10.535         	2.877
MS.368         	10.51          	2.849
MS.369         	10.49          	2.787
MS.370         	10.47          	2.894
MS.371         	10.45          	2.714
MS.372         	10.43          	2.902
MS.373         	10.405         	2.774
MS.374         	10.385         	2.759
MS.375         	10.365         	2.697
MS.376         	10.345         	2.772
MS.377         	10.325         	2.669
MS.378         	10.305         	2.682
MS.379         	10.285         	2.66
MS.380         	10.265         	2.651
MS.381         	10.24          	2.635
MS.382         	10.22          	2.654
MS.383         	10.2           	2.63
MS.384         	10.18          	2.628
MS.385         	10.16          	2.625
MS.386         	10.14          	2.626
MS.387         	10.12          	2.564
MS.388         	10.1           	2.609
MS.389         	10.08          	2.581
MS.390         	10.06          	2.453
MS.391         	10.04          	2.559
MS.392         	10.02          	2.552
MS.393         	10             	2.494
MS.394         	9.98           	2.38
MS.395         	9.96           	2.457
MS.396         	9.94           	2.45
MS.397         	9.92           	2.44
MS.398         	9.9            	2.23
MS.399         	9.88           	2.344
MS.400         	9.86           	2.273
MS.401         	9.84           	2.216
MS.402         	9.82           	2.242
MS.403         	9.8            	2.313
MS.404         	9.78           	2.2
MS.405         	9.76           	2.049
MS.406         	9.745          	2.09
MS.407         	9.725          	2.241
MS.408         	9.705          	2.028
MS.409         	9.685          	2.238
MS.410         	9.665          	2.186
MS.411         	9.645          	2.082
MS.412         	9.625          	2.034
MS.413         	9.605          	2.12
MS.414         	9.59           	1.992
MS.415         	9.57           	2.075
MS.416         	9.55           	2
MS.417         	9.53           	1.849
MS.418         	9.51           	1.83
MS.419         	9.495          	1.957
MS.420         	9.475          	1.913
MS.421         	9.455          	1.821
MS.422         	9.435          	1.848
MS.423         	9.415          	1.926
MS.424         	9.4            	1.775
MS.425         	9.38           	1.761
MS.426         	9.36           	1.671
MS.427         	9.34           	1.788
MS.428         	9.325          	1.724
MS.429         	9.305          	1.646
MS.430         	9.285          	1.648
MS.431         	9.27           	1.582
MS.432         	9.25           	1.68
MS.433         	9.23           	1.707
MS.434         	9.21           	1.561
MS.435         	9.195          	1.562
MS.436         	9.175          	1.74
MS.437         	9.155          	1.535
MS.438         	9.14           	1.569
MS.439         	9.12           	1.554
MS.440         	9.1            	1.438
MS.441         	9.085          	1.481
MS.442         	9.065          	1.419
MS.443         	9.05           	1.508
MS.444         	9.03           	1.544
MS.445         	9.01           	1.498
MS.446         	8.995          	1.531
MS.447         	8.975          	1.411
MS.448         	8.96           	1.361
MS.449         	8.94           	1.388
MS.450         	8.92           	1.437
MS.451         	8.905          	1.493
MS.452         	8.885          	1.387
MS.453         	8.87           	1.27
MS.454         	8.85           	1.382
MS.455         	8.835          	1.41
MS.456         	8.815          	1.243
MS.457         	8.8            	1.364
MS.458         	8.78           	1.404
MS.459         	8.765          	1.342
MS.460         	8.745          	1.3
MS.461         	8.73           	1.372
MS.462         	8.71           	1.241
MS.463         	8.695          	1.42
MS.464         	8.675          	1.215
MS.465         	8.66           	1.203
MS.466         	8.64           	1.412
MS.467         	8.625          	1.289
MS.468         	8.605          	1.292
MS.469         	8.59           	1.179
MS.470         	8.57           	1.259
MS.471         	8.555          	1.213
MS.472         	8.54           	1.228
MS.473         	8.52           	1.194
MS.474         	8.505          	1.135
MS.475         	8.485          	1.271
MS.476         	8.47           	1.098
MS.477         	8.455          	1.157
MS.478         	8.435          	1.115
MS.479         	8.42           	1.065
MS.480         	8.4            	1.118
MS.481         	8.385          	1.136
MS.482         	8.37           	1.035
MS.483         	8.35           	1.089
MS.484         	8.335          	1.011
MS.485         	8.32           	1.174
MS.486         	8.3            	1.039
MS.487         	8.285          	1.053
MS.488         	8.27           	1.06
MS.489         	8.255          	1.011
MS.490         	8.235          	0.904
MS.491         	8.22           	1.089
MS.492         	8.205          	1.154
MS.493         	8.185          	0.905
MS.494         	8.17           	0.933
MS.495         	8.155          	1.077
MS.496         	8.14           	0.917
MS.497         	8.12           	1.069
MS.498         	8.105          	1.004
MS.499         	8.09           	0.961
MS.500         	8.075          	0.887
MS.501         	8.055          	0.884
MS.502         	8.04           	0.791
MS.503         	8.025          	0.853
