File:              	C:\Qtrac\Data\CKMC01105C.QZD
Name:              	RHS04
Protocol:          	MSCAN-R2
Date:              	5/11/20
Start time:        	10:33:53
Age:               	63
Sex:               	F
Temperature:       	35.0
S/R sites:         	RPer FH-AT
NC/disease:        	NC
Operator:          	CK
Comments:          	MScanFit2
M-SCAN DATA (8.5-1.5m)
Scanpts: 1, 11, 724, 744
Stim. (mA)     	Amp. (mV)
MS.1           	61             	5.101
MS.2           	61             	5.052
MS.3           	61             	5.026
MS.4           	61             	5.055
MS.5           	61             	5.078
MS.6           	61             	5.12
MS.7           	61             	5.05
MS.8           	61             	5.087
MS.9           	61             	5.059
MS.10          	61             	5.073
MS.11          	61             	5.048
MS.12          	61             	4.996
MS.13          	61             	5.018
MS.14          	61             	4.992
MS.15          	61             	5.028
MS.16          	61             	5
MS.17          	61             	4.939
MS.18          	61             	4.978
MS.19          	61             	4.947
MS.20          	61             	4.957
MS.21          	61             	4.952
MS.22          	61             	4.952
MS.23          	61             	4.989
MS.24          	60.755         	4.941
MS.25          	60.635         	4.959
MS.26          	60.515         	4.918
MS.27          	60.395         	4.935
MS.28          	60.27          	4.932
MS.29          	60.15          	4.975
MS.30          	60.03          	4.915
MS.31          	59.91          	4.921
MS.32          	59.79          	4.881
MS.33          	59.67          	4.908
MS.34          	59.555         	4.931
MS.35          	59.435         	4.88
MS.36          	59.315         	4.843
MS.37          	59.195         	4.874
MS.38          	59.08          	4.839
MS.39          	58.96          	4.841
MS.40          	58.845         	4.83
MS.41          	58.725         	4.832
MS.42          	58.61          	4.894
MS.43          	58.49          	4.818
MS.44          	58.375         	4.75
MS.45          	58.255         	4.813
MS.46          	58.14          	4.799
MS.47          	58.025         	4.747
MS.48          	57.91          	4.772
MS.49          	57.795         	4.717
MS.50          	57.68          	4.728
MS.51          	57.56          	4.692
MS.52          	57.445         	4.725
MS.53          	57.335         	4.722
MS.54          	57.22          	4.728
MS.55          	57.105         	4.702
MS.56          	56.99          	4.702
MS.57          	56.875         	4.697
MS.58          	56.76          	4.708
MS.59          	56.65          	4.648
MS.60          	56.535         	4.647
MS.61          	56.425         	4.706
MS.62          	56.31          	4.683
MS.63          	56.195         	4.743
MS.64          	56.085         	4.775
MS.65          	55.975         	4.755
MS.66          	55.86          	4.801
MS.67          	55.75          	4.732
MS.68          	55.64          	4.827
MS.69          	55.525         	4.798
MS.70          	55.415         	4.815
MS.71          	55.305         	4.754
MS.72          	55.195         	4.796
MS.73          	55.085         	4.79
MS.74          	54.975         	4.755
MS.75          	54.865         	4.821
MS.76          	54.755         	4.763
MS.77          	54.645         	4.734
MS.78          	54.535         	4.76
MS.79          	54.43          	4.716
MS.80          	54.32          	4.754
MS.81          	54.21          	4.726
MS.82          	54.1           	4.71
MS.83          	53.995         	4.721
MS.84          	53.885         	4.686
MS.85          	53.78          	4.724
MS.86          	53.67          	4.699
MS.87          	53.565         	4.736
MS.88          	53.455         	4.687
MS.89          	53.35          	4.713
MS.90          	53.245         	4.684
MS.91          	53.135         	4.691
MS.92          	53.03          	4.697
MS.93          	52.925         	4.645
MS.94          	52.82          	4.601
MS.95          	52.715         	4.626
MS.96          	52.61          	4.619
MS.97          	52.505         	4.583
MS.98          	52.4           	4.601
MS.99          	52.295         	4.571
MS.100         	52.19          	4.612
MS.101         	52.085         	4.509
MS.102         	51.98          	4.533
MS.103         	51.875         	4.557
MS.104         	51.775         	4.5
MS.105         	51.67          	4.562
MS.106         	51.565         	4.517
MS.107         	51.465         	4.547
MS.108         	51.36          	4.578
MS.109         	51.26          	4.521
MS.110         	51.155         	4.571
MS.111         	51.055         	4.509
MS.112         	50.95          	4.515
MS.113         	50.85          	4.589
MS.114         	50.75          	4.587
MS.115         	50.645         	4.568
MS.116         	50.545         	4.474
MS.117         	50.445         	4.525
MS.118         	50.345         	4.485
MS.119         	50.245         	4.504
MS.120         	50.145         	4.473
MS.121         	50.04          	4.489
MS.122         	49.94          	4.485
MS.123         	49.845         	4.515
MS.124         	49.745         	4.509
MS.125         	49.645         	4.478
MS.126         	49.545         	4.448
MS.127         	49.445         	4.438
MS.128         	49.345         	4.403
MS.129         	49.25          	4.439
MS.130         	49.15          	4.425
MS.131         	49.05          	4.407
MS.132         	48.955         	4.363
MS.133         	48.855         	4.385
MS.134         	48.76          	4.415
MS.135         	48.66          	4.311
MS.136         	48.565         	4.303
MS.137         	48.465         	4.374
MS.138         	48.37          	4.367
MS.139         	48.275         	4.362
MS.140         	48.175         	4.282
MS.141         	48.08          	4.261
MS.142         	47.985         	4.283
MS.143         	47.89          	4.326
MS.144         	47.795         	4.269
MS.145         	47.695         	4.29
MS.146         	47.6           	4.29
MS.147         	47.505         	4.256
MS.148         	47.41          	4.252
MS.149         	47.315         	4.236
MS.150         	47.22          	4.238
MS.151         	47.13          	4.268
MS.152         	47.035         	4.197
MS.153         	46.94          	4.25
MS.154         	46.845         	4.222
MS.155         	46.755         	4.196
MS.156         	46.66          	4.178
MS.157         	46.565         	4.145
MS.158         	46.475         	4.2
MS.159         	46.38          	4.306
MS.160         	46.285         	4.168
MS.161         	46.195         	4.221
MS.162         	46.105         	4.175
MS.163         	46.01          	4.163
MS.164         	45.92          	4.137
MS.165         	45.825         	4.106
MS.166         	45.735         	4.066
MS.167         	45.645         	4.061
MS.168         	45.555         	4.156
MS.169         	45.46          	4.148
MS.170         	45.37          	4.059
MS.171         	45.28          	4.092
MS.172         	45.19          	4.139
MS.173         	45.1           	4.089
MS.174         	45.01          	4.185
MS.175         	44.92          	4.072
MS.176         	44.83          	4.159
MS.177         	44.74          	4.177
MS.178         	44.65          	4.197
MS.179         	44.56          	4.153
MS.180         	44.47          	4.1
MS.181         	44.385         	4.111
MS.182         	44.295         	4.078
MS.183         	44.205         	4.203
MS.184         	44.12          	4.125
MS.185         	44.03          	4.105
MS.186         	43.94          	4.113
MS.187         	43.855         	4.065
MS.188         	43.765         	4.027
MS.189         	43.68          	4.043
MS.190         	43.59          	4.319
MS.191         	43.505         	4.316
MS.192         	43.42          	4.251
MS.193         	43.33          	4.193
MS.194         	43.245         	4.147
MS.195         	43.16          	4.161
MS.196         	43.07          	4.222
MS.197         	42.985         	4.12
MS.198         	42.9           	4.096
MS.199         	42.815         	4.103
MS.200         	42.73          	4.033
MS.201         	42.645         	4.048
MS.202         	42.56          	4.148
MS.203         	42.475         	4.041
MS.204         	42.39          	4.134
MS.205         	42.305         	4.004
MS.206         	42.22          	3.912
MS.207         	42.135         	4.086
MS.208         	42.05          	3.958
MS.209         	41.965         	4.058
MS.210         	41.885         	3.998
MS.211         	41.8           	3.956
MS.212         	41.715         	4.048
MS.213         	41.63          	4.047
MS.214         	41.55          	4.014
MS.215         	41.465         	4.008
MS.216         	41.385         	4.028
MS.217         	41.3           	3.928
MS.218         	41.22          	3.984
MS.219         	41.135         	3.937
MS.220         	41.055         	4.014
MS.221         	40.97          	3.939
MS.222         	40.89          	3.89
MS.223         	40.81          	3.912
MS.224         	40.725         	3.936
MS.225         	40.645         	3.808
MS.226         	40.565         	3.821
MS.227         	40.485         	3.831
MS.228         	40.4           	3.818
MS.229         	40.32          	3.88
MS.230         	40.24          	3.763
MS.231         	40.16          	3.846
MS.232         	40.08          	3.766
MS.233         	40             	3.756
MS.234         	39.92          	3.786
MS.235         	39.84          	3.719
MS.236         	39.76          	3.669
MS.237         	39.68          	3.743
MS.238         	39.6           	3.787
MS.239         	39.52          	3.694
MS.240         	39.445         	3.771
MS.241         	39.365         	3.646
MS.242         	39.285         	3.622
MS.243         	39.21          	3.597
MS.244         	39.13          	3.55
MS.245         	39.05          	3.555
MS.246         	38.975         	3.582
MS.247         	38.895         	3.6
MS.248         	38.815         	3.576
MS.249         	38.74          	3.549
MS.250         	38.66          	3.485
MS.251         	38.585         	3.499
MS.252         	38.51          	3.435
MS.253         	38.43          	3.405
MS.254         	38.355         	3.433
MS.255         	38.28          	3.262
MS.256         	38.2           	3.348
MS.257         	38.125         	3.322
MS.258         	38.05          	3.239
MS.259         	37.975         	3.355
MS.260         	37.895         	3.283
MS.261         	37.82          	3.082
MS.262         	37.745         	3.171
MS.263         	37.67          	3.149
MS.264         	37.595         	3.115
MS.265         	37.52          	3.067
MS.266         	37.445         	3.043
MS.267         	37.37          	3.049
MS.268         	37.295         	3.033
MS.269         	37.22          	2.986
MS.270         	37.145         	3.037
MS.271         	37.07          	2.979
MS.272         	37             	2.971
MS.273         	36.925         	2.939
MS.274         	36.85          	2.892
MS.275         	36.775         	2.928
MS.276         	36.705         	2.91
MS.277         	36.63          	2.81
MS.278         	36.555         	2.798
MS.279         	36.485         	2.728
MS.280         	36.41          	2.706
MS.281         	36.34          	2.815
MS.282         	36.265         	2.779
MS.283         	36.195         	2.697
MS.284         	36.12          	2.756
MS.285         	36.05          	2.681
MS.286         	35.975         	2.586
MS.287         	35.905         	2.609
MS.288         	35.835         	2.622
MS.289         	35.76          	2.683
MS.290         	35.69          	2.678
MS.291         	35.62          	2.589
MS.292         	35.545         	2.619
MS.293         	35.475         	2.607
MS.294         	35.405         	2.523
MS.295         	35.335         	2.509
MS.296         	35.265         	2.499
MS.297         	35.195         	2.496
MS.298         	35.125         	2.374
MS.299         	35.055         	2.505
MS.300         	34.985         	2.35
MS.301         	34.915         	2.37
MS.302         	34.845         	2.247
MS.303         	34.775         	2.277
MS.304         	34.705         	2.327
MS.305         	34.635         	2.253
MS.306         	34.565         	2.217
MS.307         	34.495         	2.214
MS.308         	34.43          	2.186
MS.309         	34.36          	2.216
MS.310         	34.29          	2.197
MS.311         	34.22          	2.147
MS.312         	34.155         	2.104
MS.313         	34.085         	2.156
MS.314         	34.015         	2.046
MS.315         	33.95          	2.095
MS.316         	33.88          	2.102
MS.317         	33.815         	2.056
MS.318         	33.745         	1.989
MS.319         	33.68          	1.978
MS.320         	33.61          	1.951
MS.321         	33.545         	1.921
MS.322         	33.475         	1.851
MS.323         	33.41          	1.917
MS.324         	33.345         	1.804
MS.325         	33.275         	1.758
MS.326         	33.21          	1.833
MS.327         	33.145         	1.815
MS.328         	33.08          	1.754
MS.329         	33.01          	1.79
MS.330         	32.945         	1.77
MS.331         	32.88          	1.794
MS.332         	32.815         	1.692
MS.333         	32.75          	1.707
MS.334         	32.685         	1.683
MS.335         	32.62          	1.664
MS.336         	32.555         	1.683
MS.337         	32.49          	1.543
MS.338         	32.425         	1.593
MS.339         	32.36          	1.515
MS.340         	32.295         	1.49
MS.341         	32.23          	1.477
MS.342         	32.165         	1.555
MS.343         	32.1           	1.439
MS.344         	32.035         	1.559
MS.345         	31.97          	1.472
MS.346         	31.91          	1.5
MS.347         	31.845         	1.447
MS.348         	31.78          	1.503
MS.349         	31.72          	1.418
MS.350         	31.655         	1.387
MS.351         	31.59          	1.413
MS.352         	31.53          	1.329
MS.353         	31.465         	1.351
MS.354         	31.4           	1.261
MS.355         	31.34          	1.36
MS.356         	31.275         	1.356
MS.357         	31.215         	1.327
MS.358         	31.15          	1.28
MS.359         	31.09          	1.258
MS.360         	31.025         	1.209
MS.361         	30.965         	1.267
MS.362         	30.905         	1.246
MS.363         	30.84          	1.223
MS.364         	30.78          	1.232
MS.365         	30.72          	1.212
MS.366         	30.655         	1.175
MS.367         	30.595         	1.199
MS.368         	30.535         	1.136
MS.369         	30.475         	1.19
MS.370         	30.415         	1.143
MS.371         	30.35          	1.136
MS.372         	30.29          	1.107
MS.373         	30.23          	1.129
MS.374         	30.17          	1.151
MS.375         	30.11          	1.071
MS.376         	30.05          	1.081
MS.377         	29.99          	1.075
MS.378         	29.93          	1.027
MS.379         	29.87          	1.027
MS.380         	29.81          	1.008
MS.381         	29.75          	1.018
MS.382         	29.69          	1.002
MS.383         	29.63          	1.036
MS.384         	29.575         	0.997
MS.385         	29.515         	1.021
MS.386         	29.455         	0.953
MS.387         	29.395         	0.96
MS.388         	29.34          	0.912
MS.389         	29.28          	0.899
MS.390         	29.22          	0.944
MS.391         	29.16          	0.899
MS.392         	29.105         	0.9
MS.393         	29.045         	0.942
MS.394         	28.99          	0.924
MS.395         	28.93          	0.907
MS.396         	28.87          	0.861
MS.397         	28.815         	0.807
MS.398         	28.755         	0.843
MS.399         	28.7           	0.893
MS.400         	28.64          	0.84
MS.401         	28.585         	0.82
MS.402         	28.53          	0.788
MS.403         	28.47          	0.824
MS.404         	28.415         	0.806
MS.405         	28.355         	0.803
MS.406         	28.3           	0.793
MS.407         	28.245         	0.75
MS.408         	28.185         	0.806
MS.409         	28.13          	0.775
MS.410         	28.075         	0.715
MS.411         	28.02          	0.782
MS.412         	27.965         	0.765
MS.413         	27.905         	0.703
MS.414         	27.85          	0.731
MS.415         	27.795         	0.698
MS.416         	27.74          	0.72
MS.417         	27.685         	0.709
MS.418         	27.63          	0.675
MS.419         	27.575         	0.708
MS.420         	27.52          	0.674
MS.421         	27.465         	0.682
MS.422         	27.41          	0.681
MS.423         	27.355         	0.649
MS.424         	27.3           	0.662
MS.425         	27.245         	0.67
MS.426         	27.19          	0.64
MS.427         	27.135         	0.62
MS.428         	27.08          	0.592
MS.429         	27.03          	0.6
MS.430         	26.975         	0.595
MS.431         	26.92          	0.629
MS.432         	26.865         	0.613
MS.433         	26.815         	0.587
MS.434         	26.76          	0.556
MS.435         	26.705         	0.567
MS.436         	26.65          	0.543
MS.437         	26.6           	0.516
MS.438         	26.545         	0.529
MS.439         	26.495         	0.516
MS.440         	26.44          	0.518
MS.441         	26.385         	0.487
MS.442         	26.335         	0.507
MS.443         	26.28          	0.493
MS.444         	26.23          	0.485
MS.445         	26.175         	0.493
MS.446         	26.125         	0.45
MS.447         	26.07          	0.461
MS.448         	26.02          	0.411
MS.449         	25.97          	0.43
MS.450         	25.915         	0.461
MS.451         	25.865         	0.4
MS.452         	25.815         	0.374
MS.453         	25.76          	0.409
MS.454         	25.71          	0.398
MS.455         	25.66          	0.418
MS.456         	25.605         	0.425
MS.457         	25.555         	0.357
MS.458         	25.505         	0.349
MS.459         	25.455         	0.35
MS.460         	25.405         	0.4
MS.461         	25.35          	0.363
MS.462         	25.3           	0.334
MS.463         	25.25          	0.345
MS.464         	25.2           	0.325
MS.465         	25.15          	0.341
MS.466         	25.1           	0.308
MS.467         	25.05          	0.339
MS.468         	25             	0.332
MS.469         	24.95          	0.334
MS.470         	24.9           	0.309
MS.471         	24.85          	0.299
MS.472         	24.8           	0.292
MS.473         	24.75          	0.301
MS.474         	24.7           	0.27
MS.475         	24.65          	0.268
MS.476         	24.605         	0.249
MS.477         	24.555         	0.278
MS.478         	24.505         	0.245
MS.479         	24.455         	0.266
MS.480         	24.405         	0.245
MS.481         	24.36          	0.236
MS.482         	24.31          	0.25
MS.483         	24.26          	0.229
MS.484         	24.215         	0.244
MS.485         	24.165         	0.238
MS.486         	24.115         	0.244
MS.487         	24.07          	0.257
MS.488         	24.02          	0.239
MS.489         	23.97          	0.236
MS.490         	23.925         	0.237
MS.491         	23.875         	0.229
MS.492         	23.83          	0.223
MS.493         	23.78          	0.232
MS.494         	23.735         	0.212
MS.495         	23.685         	0.218
MS.496         	23.64          	0.212
MS.497         	23.59          	0.214
MS.498         	23.545         	0.22
MS.499         	23.495         	0.207
MS.500         	23.45          	0.215
MS.501         	23.405         	0.2
MS.502         	23.355         	0.206
MS.503         	23.31          	0.195
