File:              	C:\Qtrac\Data\CKMC01116E.QZD
Name:              	RHS10
Protocol:          	MSCAN-R2
Date:              	16/11/20
Start time:        	14:50:56
Age:               	24
Sex:               	M
Temperature:       	35.4
S/R sites:         	LPer FH-AT
NC/disease:        	NC
Operator:          	CK
Comments:          	CG
M-SCAN DATA (8.4-1.6m)
Scanpts: 119, 133, 711, 731
Stim. (mA)     	Amp. (mV)
MS.1           	27             	4.377
MS.2           	27             	4.386
MS.3           	27             	4.379
MS.4           	27             	4.382
MS.5           	27             	4.361
MS.6           	27             	4.362
MS.7           	27             	4.363
MS.8           	27             	4.365
MS.9           	27             	4.351
MS.10          	27             	4.37
MS.11          	27             	4.355
MS.12          	27             	4.354
MS.13          	27             	4.359
MS.14          	27             	4.361
MS.15          	27             	4.359
MS.16          	27             	4.363
MS.17          	27             	4.375
MS.18          	27             	4.346
MS.19          	27             	4.363
MS.20          	27             	4.37
MS.21          	27             	4.367
MS.22          	27             	4.371
MS.23          	27             	4.379
MS.24          	26.89          	4.402
MS.25          	26.84          	4.368
MS.26          	26.785         	4.365
MS.27          	26.73          	4.374
MS.28          	26.68          	4.36
MS.29          	26.625         	4.367
MS.30          	26.57          	4.384
MS.31          	26.52          	4.374
MS.32          	26.465         	4.383
MS.33          	26.41          	4.363
MS.34          	26.36          	4.366
MS.35          	26.305         	4.368
MS.36          	26.255         	4.363
MS.37          	26.2           	4.365
MS.38          	26.15          	4.373
MS.39          	26.095         	4.379
MS.40          	26.045         	4.362
MS.41          	25.995         	4.369
MS.42          	25.94          	4.365
MS.43          	25.89          	4.37
MS.44          	25.84          	4.372
MS.45          	25.785         	4.363
MS.46          	25.735         	4.377
MS.47          	25.685         	4.366
MS.48          	25.63          	4.375
MS.49          	25.58          	4.385
MS.50          	25.53          	4.369
MS.51          	25.48          	4.368
MS.52          	25.43          	4.384
MS.53          	25.375         	4.355
MS.54          	25.325         	4.388
MS.55          	25.275         	4.382
MS.56          	25.225         	4.378
MS.57          	25.175         	4.372
MS.58          	25.125         	4.378
MS.59          	25.075         	4.377
MS.60          	25.025         	4.386
MS.61          	24.975         	4.373
MS.62          	24.925         	4.369
MS.63          	24.875         	4.388
MS.64          	24.825         	4.382
MS.65          	24.775         	4.365
MS.66          	24.725         	4.388
MS.67          	24.675         	4.386
MS.68          	24.625         	4.388
MS.69          	24.58          	4.378
MS.70          	24.53          	4.386
MS.71          	24.48          	4.378
MS.72          	24.43          	4.379
MS.73          	24.38          	4.384
MS.74          	24.335         	4.394
MS.75          	24.285         	4.404
MS.76          	24.235         	4.393
MS.77          	24.185         	4.398
MS.78          	24.14          	4.393
MS.79          	24.09          	4.382
MS.80          	24.045         	4.402
MS.81          	23.995         	4.372
MS.82          	23.945         	4.372
MS.83          	23.9           	4.394
MS.84          	23.85          	4.391
MS.85          	23.805         	4.374
MS.86          	23.755         	4.396
MS.87          	23.71          	4.384
MS.88          	23.66          	4.39
MS.89          	23.615         	4.382
MS.90          	23.565         	4.384
MS.91          	23.52          	4.39
MS.92          	23.475         	4.376
MS.93          	23.425         	4.379
MS.94          	23.38          	4.38
MS.95          	23.33          	4.377
MS.96          	23.285         	4.376
MS.97          	23.24          	4.384
MS.98          	23.195         	4.363
MS.99          	23.145         	4.381
MS.100         	23.1           	4.376
MS.101         	23.055         	4.376
MS.102         	23.01          	4.376
MS.103         	22.96          	4.378
MS.104         	22.915         	4.382
MS.105         	22.87          	4.385
MS.106         	22.825         	4.38
MS.107         	22.78          	4.379
MS.108         	22.735         	4.374
MS.109         	22.69          	4.393
MS.110         	22.645         	4.395
MS.111         	22.595         	4.398
MS.112         	22.55          	4.363
MS.113         	22.505         	4.387
MS.114         	22.46          	4.391
MS.115         	22.415         	4.393
MS.116         	22.375         	4.389
MS.117         	22.33          	4.389
MS.118         	22.285         	4.388
MS.119         	22.24          	4.378
MS.120         	22.195         	4.392
MS.121         	22.15          	4.401
MS.122         	22.105         	4.367
MS.123         	22.06          	4.38
MS.124         	22.015         	4.376
MS.125         	21.975         	4.389
MS.126         	21.93          	4.385
MS.127         	21.885         	4.384
MS.128         	21.84          	4.379
MS.129         	21.8           	4.394
MS.130         	21.755         	4.374
MS.131         	21.71          	4.386
MS.132         	21.67          	4.384
MS.133         	21.625         	4.384
MS.134         	21.58          	4.395
MS.135         	21.54          	4.383
MS.136         	21.495         	4.373
MS.137         	21.45          	4.374
MS.138         	21.41          	4.385
MS.139         	21.365         	4.373
MS.140         	21.325         	4.376
MS.141         	21.28          	4.377
MS.142         	21.24          	4.387
MS.143         	21.195         	4.384
MS.144         	21.155         	4.377
MS.145         	21.11          	4.381
MS.146         	21.07          	4.373
MS.147         	21.03          	4.355
MS.148         	20.985         	4.358
MS.149         	20.945         	4.363
MS.150         	20.9           	4.376
MS.151         	20.86          	4.38
MS.152         	20.82          	4.366
MS.153         	20.775         	4.359
MS.154         	20.735         	4.334
MS.155         	20.695         	4.35
MS.156         	20.65          	4.366
MS.157         	20.61          	4.326
MS.158         	20.57          	4.395
MS.159         	20.53          	4.285
MS.160         	20.49          	4.36
MS.161         	20.445         	4.268
MS.162         	20.405         	4.341
MS.163         	20.365         	4.305
MS.164         	20.325         	4.31
MS.165         	20.285         	4.3
MS.166         	20.245         	4.261
MS.167         	20.205         	4.298
MS.168         	20.165         	4.287
MS.169         	20.12          	4.28
MS.170         	20.08          	4.216
MS.171         	20.04          	4.3
MS.172         	20             	4.209
MS.173         	19.96          	4.232
MS.174         	19.92          	4.239
MS.175         	19.88          	4.252
MS.176         	19.845         	4.242
MS.177         	19.805         	4.243
MS.178         	19.765         	4.248
MS.179         	19.725         	4.205
MS.180         	19.685         	4.227
MS.181         	19.645         	4.202
MS.182         	19.605         	4.201
MS.183         	19.565         	4.219
MS.184         	19.53          	4.188
MS.185         	19.49          	4.185
MS.186         	19.45          	4.186
MS.187         	19.41          	4.199
MS.188         	19.37          	4.203
MS.189         	19.335         	4.191
MS.190         	19.295         	4.18
MS.191         	19.255         	4.202
MS.192         	19.22          	4.23
MS.193         	19.18          	4.203
MS.194         	19.14          	4.177
MS.195         	19.105         	4.193
MS.196         	19.065         	4.171
MS.197         	19.025         	4.179
MS.198         	18.99          	4.195
MS.199         	18.95          	4.197
MS.200         	18.915         	4.188
MS.201         	18.875         	4.155
MS.202         	18.835         	4.15
MS.203         	18.8           	4.18
MS.204         	18.76          	4.16
MS.205         	18.725         	4.16
MS.206         	18.685         	4.182
MS.207         	18.65          	4.195
MS.208         	18.61          	4.141
MS.209         	18.575         	4.16
MS.210         	18.54          	4.162
MS.211         	18.5           	4.136
MS.212         	18.465         	4.155
MS.213         	18.425         	4.144
MS.214         	18.39          	4.146
MS.215         	18.355         	4.096
MS.216         	18.315         	4.151
MS.217         	18.28          	4.139
MS.218         	18.245         	4.144
MS.219         	18.205         	4.113
MS.220         	18.17          	4.106
MS.221         	18.135         	4.15
MS.222         	18.1           	4.109
MS.223         	18.06          	4.099
MS.224         	18.025         	4.102
MS.225         	17.99          	4.12
MS.226         	17.955         	4.1
MS.227         	17.92          	4.114
MS.228         	17.885         	4.069
MS.229         	17.845         	4.09
MS.230         	17.81          	4.082
MS.231         	17.775         	4.079
MS.232         	17.74          	4.092
MS.233         	17.705         	4.057
MS.234         	17.67          	4.072
MS.235         	17.635         	4.073
MS.236         	17.6           	4.026
MS.237         	17.565         	3.948
MS.238         	17.53          	3.977
MS.239         	17.495         	4.041
MS.240         	17.46          	4.003
MS.241         	17.425         	4.004
MS.242         	17.39          	3.997
MS.243         	17.355         	3.892
MS.244         	17.32          	3.906
MS.245         	17.285         	3.94
MS.246         	17.25          	3.908
MS.247         	17.215         	3.816
MS.248         	17.18          	3.884
MS.249         	17.145         	3.837
MS.250         	17.115         	3.782
MS.251         	17.08          	3.87
MS.252         	17.045         	3.781
MS.253         	17.01          	3.77
MS.254         	16.975         	3.728
MS.255         	16.945         	3.715
MS.256         	16.91          	3.751
MS.257         	16.875         	3.716
MS.258         	16.84          	3.719
MS.259         	16.81          	3.733
MS.260         	16.775         	3.661
MS.261         	16.74          	3.723
MS.262         	16.705         	3.66
MS.263         	16.675         	3.663
MS.264         	16.64          	3.628
MS.265         	16.605         	3.547
MS.266         	16.575         	3.661
MS.267         	16.54          	3.606
MS.268         	16.51          	3.608
MS.269         	16.475         	3.464
MS.270         	16.44          	3.45
MS.271         	16.41          	3.641
MS.272         	16.375         	3.511
MS.273         	16.345         	3.64
MS.274         	16.31          	3.547
MS.275         	16.28          	3.478
MS.276         	16.245         	3.477
MS.277         	16.215         	3.387
MS.278         	16.18          	3.369
MS.279         	16.15          	3.28
MS.280         	16.115         	3.315
MS.281         	16.085         	3.292
MS.282         	16.05          	3.213
MS.283         	16.02          	3.267
MS.284         	15.99          	3.282
MS.285         	15.955         	3.116
MS.286         	15.925         	3.173
MS.287         	15.89          	3.118
MS.288         	15.86          	3.069
MS.289         	15.83          	3.09
MS.290         	15.795         	3.112
MS.291         	15.765         	2.939
MS.292         	15.735         	2.945
MS.293         	15.705         	3.077
MS.294         	15.67          	3.066
MS.295         	15.64          	3.104
MS.296         	15.61          	2.924
MS.297         	15.58          	2.892
MS.298         	15.545         	2.869
MS.299         	15.515         	2.922
MS.300         	15.485         	2.84
MS.301         	15.455         	2.966
MS.302         	15.425         	2.936
MS.303         	15.39          	2.809
MS.304         	15.36          	2.95
MS.305         	15.33          	2.814
MS.306         	15.3           	2.85
MS.307         	15.27          	2.706
MS.308         	15.24          	2.848
MS.309         	15.21          	2.834
MS.310         	15.18          	2.744
MS.311         	15.145         	2.634
MS.312         	15.115         	2.663
MS.313         	15.085         	2.645
MS.314         	15.055         	2.695
MS.315         	15.025         	2.655
MS.316         	14.995         	2.623
MS.317         	14.965         	2.547
MS.318         	14.935         	2.591
MS.319         	14.905         	2.54
MS.320         	14.875         	2.569
MS.321         	14.85          	2.638
MS.322         	14.82          	2.55
MS.323         	14.79          	2.487
MS.324         	14.76          	2.616
MS.325         	14.73          	2.428
MS.326         	14.7           	2.453
MS.327         	14.67          	2.527
MS.328         	14.64          	2.428
MS.329         	14.61          	2.427
MS.330         	14.585         	2.43
MS.331         	14.555         	2.405
MS.332         	14.525         	2.414
MS.333         	14.495         	2.302
MS.334         	14.465         	2.32
MS.335         	14.44          	2.35
MS.336         	14.41          	2.237
MS.337         	14.38          	2.188
MS.338         	14.35          	2.208
MS.339         	14.325         	2.244
MS.340         	14.295         	2.195
MS.341         	14.265         	2.104
MS.342         	14.235         	2.301
MS.343         	14.21          	2.121
MS.344         	14.18          	2.119
MS.345         	14.15          	2.099
MS.346         	14.125         	2.212
MS.347         	14.095         	2.189
MS.348         	14.065         	2.152
MS.349         	14.04          	2.212
MS.350         	14.01          	2.13
MS.351         	13.985         	2.185
MS.352         	13.955         	2.086
MS.353         	13.925         	2.129
MS.354         	13.9           	2.064
MS.355         	13.87          	2.132
MS.356         	13.845         	2.13
MS.357         	13.815         	2.039
MS.358         	13.79          	2.173
MS.359         	13.76          	2.102
MS.360         	13.735         	2.057
MS.361         	13.705         	2.01
MS.362         	13.68          	2.06
MS.363         	13.65          	2.072
MS.364         	13.625         	1.983
MS.365         	13.595         	2.049
MS.366         	13.57          	2.072
MS.367         	13.545         	2.053
MS.368         	13.515         	2.046
MS.369         	13.49          	1.966
MS.370         	13.46          	2.045
MS.371         	13.435         	1.964
MS.372         	13.41          	2.037
MS.373         	13.38          	1.964
MS.374         	13.355         	1.979
MS.375         	13.33          	1.963
MS.376         	13.3           	1.89
MS.377         	13.275         	1.915
MS.378         	13.25          	1.97
MS.379         	13.22          	1.934
MS.380         	13.195         	1.908
MS.381         	13.17          	1.94
MS.382         	13.14          	1.875
MS.383         	13.115         	1.942
MS.384         	13.09          	1.866
MS.385         	13.065         	1.818
MS.386         	13.04          	1.852
MS.387         	13.01          	1.826
MS.388         	12.985         	1.838
MS.389         	12.96          	1.852
MS.390         	12.935         	1.886
MS.391         	12.91          	1.816
MS.392         	12.88          	1.779
MS.393         	12.855         	1.786
MS.394         	12.83          	1.821
MS.395         	12.805         	1.805
MS.396         	12.78          	1.766
MS.397         	12.755         	1.794
MS.398         	12.73          	1.766
MS.399         	12.705         	1.724
MS.400         	12.68          	1.728
MS.401         	12.65          	1.727
MS.402         	12.625         	1.738
MS.403         	12.6           	1.709
MS.404         	12.575         	1.686
MS.405         	12.55          	1.695
MS.406         	12.525         	1.695
MS.407         	12.5           	1.683
MS.408         	12.475         	1.675
MS.409         	12.45          	1.68
MS.410         	12.425         	1.619
MS.411         	12.4           	1.697
MS.412         	12.375         	1.654
MS.413         	12.35          	1.645
MS.414         	12.33          	1.666
MS.415         	12.305         	1.609
MS.416         	12.28          	1.667
MS.417         	12.255         	1.603
MS.418         	12.23          	1.615
MS.419         	12.205         	1.626
MS.420         	12.18          	1.639
MS.421         	12.155         	1.676
MS.422         	12.13          	1.522
MS.423         	12.11          	1.561
MS.424         	12.085         	1.526
MS.425         	12.06          	1.541
MS.426         	12.035         	1.544
MS.427         	12.01          	1.536
MS.428         	11.985         	1.526
MS.429         	11.965         	1.505
MS.430         	11.94          	1.465
MS.431         	11.915         	1.415
MS.432         	11.89          	1.437
MS.433         	11.87          	1.457
MS.434         	11.845         	1.428
MS.435         	11.82          	1.311
MS.436         	11.795         	1.451
MS.437         	11.775         	1.368
MS.438         	11.75          	1.396
MS.439         	11.725         	1.32
MS.440         	11.705         	1.227
MS.441         	11.68          	1.328
MS.442         	11.655         	1.3
MS.443         	11.635         	1.218
MS.444         	11.61          	1.274
MS.445         	11.585         	1.233
MS.446         	11.565         	1.185
MS.447         	11.54          	1.188
MS.448         	11.515         	1.129
MS.449         	11.495         	1.147
MS.450         	11.47          	1.104
MS.451         	11.45          	1.068
MS.452         	11.425         	1.09
MS.453         	11.405         	1.071
MS.454         	11.38          	1.055
MS.455         	11.355         	1.047
MS.456         	11.335         	1.025
MS.457         	11.31          	0.981
MS.458         	11.29          	0.921
MS.459         	11.265         	1.011
MS.460         	11.245         	0.969
MS.461         	11.22          	0.914
MS.462         	11.2           	0.938
MS.463         	11.175         	0.887
MS.464         	11.155         	0.863
MS.465         	11.13          	0.893
MS.466         	11.11          	0.843
MS.467         	11.09          	0.834
MS.468         	11.065         	0.816
MS.469         	11.045         	0.772
MS.470         	11.02          	0.826
MS.471         	11             	0.76
MS.472         	10.975         	0.754
MS.473         	10.955         	0.758
MS.474         	10.935         	0.743
MS.475         	10.91          	0.668
MS.476         	10.89          	0.724
MS.477         	10.87          	0.745
MS.478         	10.845         	0.739
MS.479         	10.825         	0.653
MS.480         	10.805         	0.691
MS.481         	10.78          	0.631
MS.482         	10.76          	0.63
MS.483         	10.74          	0.594
MS.484         	10.715         	0.544
MS.485         	10.695         	0.576
MS.486         	10.675         	0.556
MS.487         	10.655         	0.522
MS.488         	10.63          	0.558
MS.489         	10.61          	0.502
MS.490         	10.59          	0.525
MS.491         	10.57          	0.468
MS.492         	10.545         	0.45
MS.493         	10.525         	0.483
MS.494         	10.505         	0.47
MS.495         	10.485         	0.446
MS.496         	10.465         	0.383
MS.497         	10.44          	0.411
MS.498         	10.42          	0.416
MS.499         	10.4           	0.365
MS.500         	10.38          	0.397
MS.501         	10.36          	0.37
MS.502         	10.34          	0.362
MS.503         	10.315         	0.387
