File:              	C:\Qtrac\Data\Daniel M Sørensen\MScan multicentre study\Data from centres\Newcastle\Processed data\SMC00221F.QZD
Name:              	UK.NEW.NC.6.1
Protocol:          	MSCAN-R2
Date:              	21/2/20
Start time:        	13:06:19
Age:               	54
Sex:               	F
Temperature:       	30.3
S/R sites:         	TA
NC/disease:        	NC
Operator:          	SM
Comments:          	Unable to tol high amps
M-SCAN DATA (4.3-0.0m)
Scanpts: 7, 14, 490, 502
Stim. (mA)     	Amp. (mV)
MS.1           	43             	4.788
MS.2           	43             	4.911
MS.3           	42.827         	4.888
MS.4           	42.743         	4.882
MS.5           	42.657         	4.794
MS.6           	42.572         	4.768
MS.7           	42.487         	4.681
MS.8           	42.403         	4.759
MS.9           	42.317         	4.717
MS.10          	42.232         	4.667
MS.11          	42.147         	4.717
MS.12          	42.065         	4.627
MS.13          	41.98          	4.711
MS.14          	41.895         	4.647
MS.15          	41.812         	4.484
MS.16          	41.73          	4.55
MS.17          	41.645         	4.592
MS.18          	41.562         	4.554
MS.19          	41.48          	4.586
MS.20          	41.397         	4.564
MS.21          	41.315         	4.562
MS.22          	41.23          	4.548
MS.23          	41.15          	4.574
MS.24          	41.067         	4.552
MS.25          	40.985         	4.55
MS.26          	40.903         	4.413
MS.27          	40.82          	4.61
MS.28          	40.74          	4.498
MS.29          	40.657         	4.449
MS.30          	40.577         	4.451
MS.31          	40.495         	4.431
MS.32          	40.415         	4.403
MS.33          	40.335         	4.453
MS.34          	40.252         	4.411
MS.35          	40.173         	4.276
MS.36          	40.092         	4.298
MS.37          	40.013         	4.343
MS.38          	39.932         	4.31
MS.39          	39.853         	4.359
MS.40          	39.772         	4.208
MS.41          	39.695         	4.367
MS.42          	39.615         	4.27
MS.43          	39.535         	4.232
MS.44          	39.458         	4.113
MS.45          	39.377         	4.139
MS.46          	39.3           	4.103
MS.47          	39.22          	4.195
MS.48          	39.142         	4.167
MS.49          	39.065         	4
MS.50          	38.985         	4.089
MS.51          	38.907         	3.936
MS.52          	38.83          	4.063
MS.53          	38.752         	3.94
MS.54          	38.675         	4.095
MS.55          	38.597         	3.869
MS.56          	38.52          	3.775
MS.57          	38.445         	3.885
MS.58          	38.368         	3.835
MS.59          	38.29          	3.823
MS.60          	38.215         	3.825
MS.61          	38.138         	3.66
MS.62          	38.06          	3.698
MS.63          	37.985         	3.686
MS.64          	37.91          	3.708
MS.65          	37.833         	3.589
MS.66          	37.757         	3.652
MS.67          	37.682         	3.563
MS.68          	37.607         	3.64
MS.69          	37.532         	3.621
MS.70          	37.458         	3.615
MS.71          	37.382         	3.478
MS.72          	37.307         	3.472
MS.73          	37.232         	3.434
MS.74          	37.157         	3.335
MS.75          	37.085         	3.426
MS.76          	37.01          	3.35
MS.77          	36.938         	3.48
MS.78          	36.862         	3.36
MS.79          	36.79          	3.366
MS.80          	36.715         	3.364
MS.81          	36.642         	3.396
MS.82          	36.57          	3.281
MS.83          	36.495         	3.327
MS.84          	36.423         	3.267
MS.85          	36.35          	3.313
MS.86          	36.278         	3.154
MS.87          	36.205         	3.17
MS.88          	36.132         	3.279
MS.89          	36.06          	3.16
MS.90          	35.987         	3.251
MS.91          	35.917         	3.275
MS.92          	35.845         	3.07
MS.93          	35.772         	3.186
MS.94          	35.702         	3.043
MS.95          	35.63          	3.043
MS.96          	35.56          	3.06
MS.97          	35.487         	3.07
MS.98          	35.417         	3.027
MS.99          	35.347         	2.969
MS.100         	35.275         	2.997
MS.101         	35.205         	2.896
MS.102         	35.135         	2.937
MS.103         	35.065         	2.856
MS.104         	34.995         	2.86
MS.105         	34.925         	2.83
MS.106         	34.855         	2.876
MS.107         	34.785         	2.78
MS.108         	34.715         	2.701
MS.109         	34.647         	2.856
MS.110         	34.577         	2.761
MS.111         	34.507         	2.814
MS.112         	34.44          	2.761
MS.113         	34.37          	2.628
MS.114         	34.302         	2.641
MS.115         	34.232         	2.637
MS.116         	34.165         	2.677
MS.117         	34.097         	2.653
MS.118         	34.028         	2.645
MS.119         	33.96          	2.55
MS.120         	33.892         	2.572
MS.121         	33.825         	2.479
MS.122         	33.757         	2.52
MS.123         	33.69          	2.401
MS.124         	33.622         	2.52
MS.125         	33.555         	2.614
MS.126         	33.487         	2.417
MS.127         	33.423         	2.451
MS.128         	33.355         	2.353
MS.129         	33.287         	2.381
MS.130         	33.222         	2.463
MS.131         	33.155         	2.342
MS.132         	33.09          	2.353
MS.133         	33.022         	2.268
MS.134         	32.958         	2.23
MS.135         	32.89          	2.234
MS.136         	32.825         	2.383
MS.137         	32.76          	2.177
MS.138         	32.695         	2.191
MS.139         	32.63          	2.177
MS.140         	32.562         	2.155
MS.141         	32.497         	2.111
MS.142         	32.432         	2.111
MS.143         	32.37          	2.105
MS.144         	32.305         	2.002
MS.145         	32.24          	2.004
MS.146         	32.175         	2.038
MS.147         	32.11          	1.98
MS.148         	32.048         	2.01
MS.149         	31.983         	1.986
MS.150         	31.92          	1.978
MS.151         	31.855         	1.964
MS.152         	31.792         	1.934
MS.153         	31.727         	1.853
MS.154         	31.665         	1.879
MS.155         	31.6           	1.845
MS.156         	31.537         	1.682
MS.157         	31.475         	1.789
MS.158         	31.412         	1.748
MS.159         	31.35          	1.611
MS.160         	31.287         	1.71
MS.161         	31.225         	1.648
MS.162         	31.162         	1.43
MS.163         	31.1           	1.488
MS.164         	31.037         	1.537
MS.165         	30.975         	1.527
MS.166         	30.912         	1.575
MS.167         	30.852         	1.418
MS.168         	30.79          	1.4
MS.169         	30.727         	1.458
MS.170         	30.667         	1.412
MS.171         	30.605         	1.442
MS.172         	30.545         	1.366
MS.173         	30.485         	1.378
MS.174         	30.422         	1.4
MS.175         	30.362         	1.315
MS.176         	30.302         	1.233
MS.177         	30.24          	1.2
MS.178         	30.18          	1.325
MS.179         	30.12          	1.219
MS.180         	30.06          	1.19
MS.181         	30             	1.174
MS.182         	29.94          	1.106
MS.183         	29.88          	1.098
MS.184         	29.82          	1.148
MS.185         	29.76          	1.082
MS.186         	29.702         	1.11
MS.187         	29.642         	1.12
MS.188         	29.582         	1.043
MS.189         	29.525         	1.021
MS.190         	29.465         	1.003
MS.191         	29.405         	1.039
MS.192         	29.347         	1.051
MS.193         	29.287         	1.005
MS.194         	29.23          	0.983
MS.195         	29.172         	1.007
MS.196         	29.112         	0.963
MS.197         	29.055         	0.874
MS.198         	28.997         	0.868
MS.199         	28.94          	0.88
MS.200         	28.882         	0.9
MS.201         	28.823         	0.846
MS.202         	28.765         	0.812
MS.203         	28.707         	0.82
MS.204         	28.65          	0.792
MS.205         	28.595         	0.806
MS.206         	28.537         	0.747
MS.207         	28.48          	0.675
MS.208         	28.422         	0.693
MS.209         	28.365         	0.707
MS.210         	28.31          	0.673
MS.211         	28.252         	0.645
MS.212         	28.198         	0.634
MS.213         	28.14          	0.649
MS.214         	28.085         	0.679
MS.215         	28.028         	0.618
MS.216         	27.972         	0.588
MS.217         	27.915         	0.564
MS.218         	27.86          	0.584
MS.219         	27.805         	0.578
MS.220         	27.75          	0.586
MS.221         	27.692         	0.576
MS.222         	27.637         	0.506
MS.223         	27.582         	0.586
MS.224         	27.528         	0.52
MS.225         	27.472         	0.558
MS.226         	27.417         	0.479
MS.227         	27.362         	0.467
MS.228         	27.307         	0.453
MS.229         	27.255         	0.485
MS.230         	27.2           	0.441
MS.231         	27.145         	0.447
MS.232         	27.09          	0.449
MS.233         	27.037         	0.395
MS.234         	26.983         	0.423
MS.235         	26.93          	0.361
MS.236         	26.875         	0.387
MS.237         	26.823         	0.425
MS.238         	26.767         	0.393
MS.239         	26.715         	0.346
MS.240         	26.66          	0.338
MS.241         	26.608         	0.361
MS.242         	26.555         	0.302
MS.243         	26.502         	0.326
MS.244         	26.448         	0.326
MS.245         	26.395         	0.274
MS.246         	26.342         	0.326
MS.247         	26.29          	0.3
MS.248         	26.237         	0.34
MS.249         	26.185         	0.32
MS.250         	26.132         	0.304
MS.251         	26.08          	0.286
MS.252         	26.028         	0.28
MS.253         	25.977         	0.294
MS.254         	25.925         	0.282
MS.255         	25.872         	0.268
MS.256         	25.82          	0.246
MS.257         	25.77          	0.268
MS.258         	25.717         	0.262
MS.259         	25.667         	0.244
MS.260         	25.615         	0.246
MS.261         	25.565         	0.246
MS.262         	25.512         	0.244
MS.263         	25.462         	0.242
MS.264         	25.413         	0.264
MS.265         	25.36          	0.24
MS.266         	25.31          	0.236
MS.267         	25.26          	0.222
MS.268         	25.21          	0.238
MS.269         	25.157         	0.24
MS.270         	25.108         	0.22
MS.271         	25.057         	0.218
MS.272         	25.007         	0.236
MS.273         	24.957         	0.207
MS.274         	24.907         	0.185
MS.275         	24.858         	0.218
MS.276         	24.807         	0.197
MS.277         	24.76          	0.177
MS.278         	24.71          	0.205
MS.279         	24.66          	0.218
MS.280         	24.61          	0.187
MS.281         	24.562         	0.189
MS.282         	24.512         	0.179
MS.283         	24.465         	0.173
MS.284         	24.415         	0.187
MS.285         	24.365         	0.183
MS.286         	24.317         	0.169
MS.287         	24.27          	0.167
MS.288         	24.22          	0.169
MS.289         	24.172         	0.181
MS.290         	24.122         	0.155
MS.291         	24.075         	0.159
MS.292         	24.028         	0.175
MS.293         	23.98          	0.159
MS.294         	23.932         	0.161
MS.295         	23.882         	0.145
MS.296         	23.835         	0.159
MS.297         	23.788         	0.155
MS.298         	23.74          	0.167
MS.299         	23.692         	0.159
MS.300         	23.645         	0.149
MS.301         	23.6           	0.161
MS.302         	23.552         	0.161
MS.303         	23.505         	0.153
MS.304         	23.457         	0.133
MS.305         	23.41          	0.133
MS.306         	23.365         	0.145
MS.307         	23.317         	0.133
MS.308         	23.27          	0.165
MS.309         	23.225         	0.143
MS.310         	23.177         	0.139
MS.311         	23.132         	0.135
MS.312         	23.085         	0.131
MS.313         	23.04          	0.145
MS.314         	22.993         	0.133
MS.315         	22.948         	0.141
MS.316         	22.903         	0.137
MS.317         	22.855         	0.127
MS.318         	22.81          	0.137
MS.319         	22.765         	0.115
MS.320         	22.72          	0.137
MS.321         	22.672         	0.119
MS.322         	22.627         	0.113
MS.323         	22.582         	0.123
MS.324         	22.538         	0.119
MS.325         	22.493         	0.101
MS.326         	22.448         	0.131
MS.327         	22.403         	0.113
MS.328         	22.358         	0.107
MS.329         	22.312         	0.113
MS.330         	22.27          	0.103
MS.331         	22.225         	0.113
MS.332         	22.18          	0.101
MS.333         	22.135         	0.109
MS.334         	22.092         	0.117
MS.335         	22.047         	0.115
MS.336         	22.002         	0.101
MS.337         	21.96          	0.103
MS.338         	21.915         	0.099
MS.339         	21.872         	0.097
MS.340         	21.827         	0.099
MS.341         	21.785         	0.085
MS.342         	21.74          	0.105
MS.343         	21.698         	0.101
MS.344         	21.655         	0.105
MS.345         	21.61          	0.103
MS.346         	21.567         	0.099
MS.347         	21.525         	0.099
MS.348         	21.483         	0.101
MS.349         	21.438         	0.097
MS.350         	21.395         	0.093
MS.351         	21.352         	0.093
MS.352         	21.31          	0.101
MS.353         	21.267         	0.101
MS.354         	21.225         	0.087
MS.355         	21.182         	0.103
MS.356         	21.14          	0.089
MS.357         	21.097         	0.089
MS.358         	21.055         	0.093
MS.359         	21.015         	0.087
MS.360         	20.972         	0.099
MS.361         	20.93          	0.087
MS.362         	20.887         	0.085
MS.363         	20.847         	0.095
MS.364         	20.805         	0.085
MS.365         	20.762         	0.091
MS.366         	20.722         	0.089
MS.367         	20.68          	0.089
MS.368         	20.64          	0.083
MS.369         	20.597         	0.083
MS.370         	20.557         	0.089
MS.371         	20.515         	0.081
MS.372         	20.475         	0.083
MS.373         	20.435         	0.083
MS.374         	20.392         	0.081
MS.375         	20.352         	0.103
MS.376         	20.312         	0.079
MS.377         	20.27          	0.083
MS.378         	20.23          	0.083
MS.379         	20.19          	0.085
MS.380         	20.15          	0.081
MS.381         	20.11          	0.083
MS.382         	20.07          	0.085
MS.383         	20.03          	0.081
MS.384         	19.99          	0.085
MS.385         	19.95          	0.083
MS.386         	19.91          	0.083
MS.387         	19.87          	0.083
MS.388         	19.83          	0.081
MS.389         	19.79          	0.081
MS.390         	19.75          	0.081
MS.391         	19.712         	0.081
MS.392         	19.672         	0.085
MS.393         	19.632         	0.083
MS.394         	19.592         	0.083
MS.395         	19.555         	0.083
MS.396         	19.515         	0.083
MS.397         	19.477         	0.083
MS.398         	19.438         	0.075
MS.399         	19.397         	0.083
MS.400         	19.36          	0.085
MS.401         	19.32          	0.085
MS.402         	19.282         	0.083
MS.403         	19.245         	0.085
MS.404         	19.205         	0.085
MS.405         	19.167         	0.085
MS.406         	19.13          	0.083
MS.407         	19.09          	0.081
MS.408         	19.052         	0.085
MS.409         	19.015         	0.083
MS.410         	18.977         	0.085
MS.411         	18.938         	0.085
MS.412         	18.9           	0.083
MS.413         	18.862         	0.083
MS.414         	18.825         	0.083
MS.415         	18.788         	0.083
MS.416         	18.75          	0.077
MS.417         	18.712         	0.081
MS.418         	18.675         	0.083
MS.419         	18.637         	0.083
MS.420         	18.6           	0.085
MS.421         	18.562         	0.081
MS.422         	18.528         	0.083
MS.423         	18.49          	0.083
MS.424         	18.452         	0.079
MS.425         	18.415         	0.087
MS.426         	18.38          	0.083
MS.427         	18.342         	0.083
MS.428         	18.305         	0.085
MS.429         	18.27          	0.085
MS.430         	18.233         	0.087
MS.431         	18.195         	0.083
MS.432         	18.16          	0.085
MS.433         	18.122         	0.085
MS.434         	18.087         	0.081
MS.435         	18.05          	0.085
MS.436         	18.015         	0.073
MS.437         	17.98          	0.081
MS.438         	17.942         	0.083
MS.439         	17.907         	0.087
MS.440         	17.872         	0.077
MS.441         	17.835         	0.085
MS.442         	17.8           	0.083
MS.443         	17.765         	0.087
MS.444         	17.73          	0.075
MS.445         	17.692         	0.083
MS.446         	17.657         	0.087
MS.447         	17.622         	0.089
MS.448         	17.587         	0.077
MS.449         	17.552         	0.085
MS.450         	17.517         	0.087
MS.451         	17.483         	0.077
MS.452         	17.448         	0.089
MS.453         	17.413         	0.077
MS.454         	17.378         	0.077
MS.455         	17.342         	0.075
MS.456         	17.307         	0.075
MS.457         	17.275         	0.093
MS.458         	17.24          	0.079
MS.459         	17.205         	0.075
MS.460         	17.17          	0.079
MS.461         	17.135         	0.081
MS.462         	17.102         	0.081
MS.463         	17.067         	0.091
MS.464         	17.032         	0.077
MS.465         	17             	0.077
MS.466         	16.965         	0.075
MS.467         	16.932         	0.077
MS.468         	16.897         	0.077
MS.469         	16.865         	0.077
MS.470         	16.83          	0.079
MS.471         	16.797         	0.081
MS.472         	16.762         	0.068
MS.473         	16.73          	0.081
MS.474         	16.698         	0.077
MS.475         	16.663         	0.066
MS.476         	16.63          	0.079
MS.477         	16.597         	0.068
MS.478         	16.562         	0.064
MS.479         	16.53          	0.064
MS.480         	16.497         	0.068
MS.481         	16.465         	0.062
MS.482         	16.432         	0.079
MS.483         	16.397         	0.066
MS.484         	16.365         	0.079
MS.485         	16.333         	0.066
MS.486         	16.3           	0.064
MS.487         	16.267         	0.066
MS.488         	16.235         	0.066
MS.489         	16.202         	0.066
MS.490         	16.17          	0.066
MS.491         	16.137         	0.066
MS.492         	16.105         	0.066
MS.493         	16.075         	0.068
MS.494         	16.042         	0.068
MS.495         	16.01          	0.066
MS.496         	15.977         	0.066
MS.497         	15.945         	0.068
MS.498         	15.915         	0.064
MS.499         	15.882         	0.068
MS.500         	15.85          	0.064
