File:              	C:\Qtrac\Data\Daniel M Sørensen\MScan multicentre study\Data from centres\Newcastle\Processed data\SMC00207A.QZD
Name:              	UK.NEW.NC.1.1
Protocol:          	MSCAN-R2
Date:              	7/2/20
Start time:        	10:23:43
Age:               	31
Sex:               	F
Temperature:       	30.8
S/R sites:         	TA
NC/disease:        	NC
Operator:          	SM
Comments:
M-SCAN DATA (11.8-4.7m)
Scanpts: 9, 20, 735, 757
Stim. (mA)     	Amp. (mV)
MS.1           	24.5           	9.393
MS.2           	24.5           	9.351
MS.3           	24.5           	9.344
MS.4           	24.5           	9.265
MS.5           	24.5           	9.253
MS.6           	24.5           	9.229
MS.7           	24.5           	9.222
MS.8           	24.5           	9.222
MS.9           	24.5           	9.198
MS.10          	24.5           	9.18
MS.11          	24.5           	9.216
MS.12          	24.5           	9.18
MS.13          	24.5           	9.222
MS.14          	24.5           	9.21
MS.15          	24.5           	9.149
MS.16          	24.5           	9.204
MS.17          	24.5           	9.167
MS.18          	24.5           	9.192
MS.19          	24.5           	9.186
MS.20          	24.5           	9.18
MS.21          	24.5           	9.149
MS.22          	24.5           	9.167
MS.23          	24.5           	9.137
MS.24          	24.403         	9.155
MS.25          	24.352         	9.131
MS.26          	24.305         	9.125
MS.27          	24.255         	9.137
MS.28          	24.207         	9.1
MS.29          	24.16          	9.131
MS.30          	24.11          	9.18
MS.31          	24.062         	9.119
MS.32          	24.015         	9.052
MS.33          	23.967         	9.106
MS.34          	23.92          	9.131
MS.35          	23.87          	9.113
MS.36          	23.823         	9.088
MS.37          	23.775         	9.082
MS.38          	23.727         	9.106
MS.39          	23.68          	9.058
MS.40          	23.632         	9.094
MS.41          	23.587         	9.07
MS.42          	23.54          	9.076
MS.43          	23.493         	9.076
MS.44          	23.445         	9.082
MS.45          	23.397         	9.027
MS.46          	23.352         	9.094
MS.47          	23.305         	9.076
MS.48          	23.257         	9.058
MS.49          	23.212         	9.027
MS.50          	23.165         	9.009
MS.51          	23.12          	9.045
MS.52          	23.073         	9.058
MS.53          	23.028         	9.021
MS.54          	22.98          	9.058
MS.55          	22.935         	8.99
MS.56          	22.89          	8.978
MS.57          	22.842         	9.009
MS.58          	22.797         	9.009
MS.59          	22.752         	9.015
MS.60          	22.707         	9.021
MS.61          	22.663         	9.009
MS.62          	22.618         	9.064
MS.63          	22.57          	9.015
MS.64          	22.525         	9.015
MS.65          	22.48          	8.954
MS.66          	22.435         	8.948
MS.67          	22.39          	8.984
MS.68          	22.347         	8.936
MS.69          	22.302         	8.972
MS.70          	22.257         	8.972
MS.71          	22.212         	8.954
MS.72          	22.167         	8.917
MS.73          	22.125         	8.966
MS.74          	22.08          	8.881
MS.75          	22.035         	8.899
MS.76          	21.993         	8.984
MS.77          	21.948         	8.887
MS.78          	21.905         	8.905
MS.79          	21.86          	8.899
MS.80          	21.817         	8.942
MS.81          	21.772         	8.911
MS.82          	21.73          	8.881
MS.83          	21.685         	8.856
MS.84          	21.642         	8.862
MS.85          	21.6           	8.862
MS.86          	21.557         	8.844
MS.87          	21.512         	8.85
MS.88          	21.47          	8.85
MS.89          	21.427         	8.893
MS.90          	21.385         	8.868
MS.91          	21.342         	8.868
MS.92          	21.3           	8.832
MS.93          	21.257         	8.832
MS.94          	21.215         	8.826
MS.95          	21.172         	8.783
MS.96          	21.13          	8.826
MS.97          	21.087         	8.838
MS.98          	21.045         	8.789
MS.99          	21.002         	8.789
MS.100         	20.96          	8.795
MS.101         	20.92          	8.826
MS.102         	20.877         	8.783
MS.103         	20.835         	8.795
MS.104         	20.795         	8.771
MS.105         	20.752         	8.74
MS.106         	20.71          	8.765
MS.107         	20.67          	8.813
MS.108         	20.627         	8.759
MS.109         	20.587         	8.728
MS.110         	20.545         	8.679
MS.111         	20.505         	8.801
MS.112         	20.465         	8.728
MS.113         	20.422         	8.704
MS.114         	20.382         	8.74
MS.115         	20.342         	8.63
MS.116         	20.3           	8.588
MS.117         	20.26          	8.636
MS.118         	20.22          	8.667
MS.119         	20.18          	8.606
MS.120         	20.14          	8.734
MS.121         	20.1           	8.667
MS.122         	20.06          	8.594
MS.123         	20.017         	8.655
MS.124         	19.977         	8.484
MS.125         	19.94          	8.63
MS.126         	19.9           	8.643
MS.127         	19.86          	8.514
MS.128         	19.82          	8.569
MS.129         	19.78          	8.643
MS.130         	19.74          	8.478
MS.131         	19.7           	8.521
MS.132         	19.663         	8.521
MS.133         	19.622         	8.539
MS.134         	19.583         	8.502
MS.135         	19.545         	8.374
MS.136         	19.505         	8.508
MS.137         	19.465         	8.429
MS.138         	19.427         	8.398
MS.139         	19.387         	8.313
MS.140         	19.35          	8.398
MS.141         	19.31          	8.453
MS.142         	19.272         	8.417
MS.143         	19.235         	8.319
MS.144         	19.195         	8.398
MS.145         	19.157         	8.405
MS.146         	19.118         	8.325
MS.147         	19.08          	8.295
MS.148         	19.042         	8.331
MS.149         	19.005         	8.362
MS.150         	18.967         	8.264
MS.151         	18.927         	8.221
MS.152         	18.89          	8.331
MS.153         	18.852         	8.209
MS.154         	18.815         	8.185
MS.155         	18.778         	8.221
MS.156         	18.74          	8.167
MS.157         	18.702         	8.209
MS.158         	18.665         	8.276
MS.159         	18.628         	8.179
MS.160         	18.59          	8.112
MS.161         	18.552         	8.191
MS.162         	18.517         	7.953
MS.163         	18.48          	8.173
MS.164         	18.442         	8.063
MS.165         	18.405         	7.867
MS.166         	18.37          	7.959
MS.167         	18.333         	8.057
MS.168         	18.295         	7.88
MS.169         	18.26          	7.965
MS.170         	18.222         	7.812
MS.171         	18.188         	7.874
MS.172         	18.15          	7.91
MS.173         	18.112         	7.91
MS.174         	18.077         	7.819
MS.175         	18.042         	7.703
MS.176         	18.005         	7.922
MS.177         	17.97          	7.892
MS.178         	17.932         	7.892
MS.179         	17.897         	7.812
MS.180         	17.862         	7.831
MS.181         	17.825         	7.721
MS.182         	17.79          	7.758
MS.183         	17.755         	7.751
MS.184         	17.72          	7.635
MS.185         	17.685         	7.574
MS.186         	17.65          	7.684
MS.187         	17.612         	7.587
MS.188         	17.577         	7.605
MS.189         	17.542         	7.581
MS.190         	17.507         	7.495
MS.191         	17.472         	7.55
MS.192         	17.438         	7.495
MS.193         	17.403         	7.605
MS.194         	17.368         	7.556
MS.195         	17.335         	7.526
MS.196         	17.3           	7.446
MS.197         	17.265         	7.41
MS.198         	17.23          	7.379
MS.199         	17.195         	7.434
MS.200         	17.163         	7.336
MS.201         	17.128         	7.483
MS.202         	17.092         	7.422
MS.203         	17.06          	7.477
MS.204         	17.025         	7.257
MS.205         	16.99          	7.3
MS.206         	16.958         	7.141
MS.207         	16.922         	7.202
MS.208         	16.89          	7.275
MS.209         	16.855         	7.135
MS.210         	16.823         	7.123
MS.211         	16.788         	7.227
MS.212         	16.755         	7.141
MS.213         	16.72          	7.025
MS.214         	16.688         	6.982
MS.215         	16.655         	6.989
MS.216         	16.62          	6.982
MS.217         	16.587         	7.05
MS.218         	16.555         	6.891
MS.219         	16.522         	7.013
MS.220         	16.487         	6.927
MS.221         	16.455         	6.927
MS.222         	16.422         	6.873
MS.223         	16.39          	6.848
MS.224         	16.358         	6.995
MS.225         	16.325         	6.879
MS.226         	16.292         	6.879
MS.227         	16.26          	6.824
MS.228         	16.227         	6.94
MS.229         	16.195         	6.866
MS.230         	16.163         	6.75
MS.231         	16.13          	6.86
MS.232         	16.097         	6.683
MS.233         	16.065         	6.689
MS.234         	16.032         	6.58
MS.235         	16.003         	6.537
MS.236         	15.97          	6.604
MS.237         	15.938         	6.458
MS.238         	15.905         	6.525
MS.239         	15.875         	6.427
MS.240         	15.842         	6.445
MS.241         	15.81          	6.445
MS.242         	15.78          	6.39
MS.243         	15.747         	6.366
MS.244         	15.715         	6.384
MS.245         	15.685         	6.409
MS.246         	15.652         	6.238
MS.247         	15.622         	6.384
MS.248         	15.59          	6.207
MS.249         	15.56          	6.244
MS.250         	15.527         	6.201
MS.251         	15.497         	6.11
MS.252         	15.467         	6.287
MS.253         	15.435         	6.213
MS.254         	15.405         	6.073
MS.255         	15.375         	6.036
MS.256         	15.342         	5.994
MS.257         	15.312         	6.061
MS.258         	15.282         	6.018
MS.259         	15.252         	6.189
MS.260         	15.22          	5.969
MS.261         	15.19          	5.92
MS.262         	15.16          	5.853
MS.263         	15.13          	5.872
MS.264         	15.1           	5.804
MS.265         	15.07          	5.78
MS.266         	15.04          	5.853
MS.267         	15.01          	5.933
MS.268         	14.98          	5.627
MS.269         	14.95          	5.78
MS.270         	14.92          	5.634
MS.271         	14.89          	5.859
MS.272         	14.86          	5.579
MS.273         	14.83          	5.566
MS.274         	14.8           	5.566
MS.275         	14.77          	5.707
MS.276         	14.742         	5.53
MS.277         	14.712         	5.42
MS.278         	14.682         	5.408
MS.279         	14.652         	5.377
MS.280         	14.625         	5.347
MS.281         	14.595         	5.243
MS.282         	14.565         	5.194
MS.283         	14.537         	5.237
MS.284         	14.507         	5.225
MS.285         	14.477         	5.042
MS.286         	14.45          	5.188
MS.287         	14.42          	4.98
MS.288         	14.392         	4.95
MS.289         	14.362         	5.017
MS.290         	14.335         	5.023
MS.291         	14.305         	4.913
MS.292         	14.278         	4.944
MS.293         	14.247         	4.901
MS.294         	14.22          	4.791
MS.295         	14.193         	4.694
MS.296         	14.162         	4.846
MS.297         	14.135         	4.73
MS.298         	14.108         	4.694
MS.299         	14.08          	4.681
MS.300         	14.05          	4.529
MS.301         	14.023         	4.565
MS.302         	13.995         	4.425
MS.303         	13.967         	4.541
MS.304         	13.938         	4.352
MS.305         	13.91          	4.364
MS.306         	13.882         	4.297
MS.307         	13.855         	4.37
MS.308         	13.827         	4.26
MS.309         	13.8           	4.156
MS.310         	13.773         	4.132
MS.311         	13.745         	4.285
MS.312         	13.717         	4.175
MS.313         	13.69          	4.199
MS.314         	13.662         	4.016
MS.315         	13.635         	4.028
MS.316         	13.608         	3.882
MS.317         	13.58          	3.925
MS.318         	13.555         	3.888
MS.319         	13.528         	3.955
MS.320         	13.5           	3.998
MS.321         	13.472         	3.772
MS.322         	13.445         	3.766
MS.323         	13.42          	3.613
MS.324         	13.392         	3.796
MS.325         	13.365         	3.76
MS.326         	13.337         	3.577
MS.327         	13.312         	3.473
MS.328         	13.285         	3.662
MS.329         	13.26          	3.564
MS.330         	13.233         	3.497
MS.331         	13.205         	3.467
MS.332         	13.18          	3.558
MS.333         	13.153         	3.369
MS.334         	13.127         	3.265
MS.335         	13.1           	3.271
MS.336         	13.075         	3.29
MS.337         	13.047         	3.198
MS.338         	13.023         	3.247
MS.339         	12.997         	3.296
MS.340         	12.97          	3.058
MS.341         	12.945         	3.156
MS.342         	12.917         	3.149
MS.343         	12.892         	3.021
MS.344         	12.867         	3.052
MS.345         	12.842         	3.058
MS.346         	12.815         	3.033
MS.347         	12.79          	2.893
MS.348         	12.765         	2.802
MS.349         	12.74          	2.93
MS.350         	12.712         	2.814
MS.351         	12.688         	2.814
MS.352         	12.662         	2.716
MS.353         	12.637         	2.649
MS.354         	12.613         	2.722
MS.355         	12.587         	2.716
MS.356         	12.562         	2.606
MS.357         	12.537         	2.582
MS.358         	12.512         	2.454
MS.359         	12.488         	2.478
MS.360         	12.462         	2.362
MS.361         	12.438         	2.454
MS.362         	12.412         	2.527
MS.363         	12.387         	2.252
MS.364         	12.363         	2.301
MS.365         	12.337         	2.356
MS.366         	12.312         	2.356
MS.367         	12.287         	2.313
MS.368         	12.265         	2.203
MS.369         	12.24          	2.087
MS.370         	12.215         	2.002
MS.371         	12.19          	1.947
MS.372         	12.167         	2.069
MS.373         	12.142         	1.965
MS.374         	12.117         	2.008
MS.375         	12.092         	1.898
MS.376         	12.07          	1.788
MS.377         	12.045         	1.801
MS.378         	12.02          	1.849
MS.379         	11.997         	1.776
MS.380         	11.972         	1.776
MS.381         	11.95          	1.685
MS.382         	11.925         	1.654
MS.383         	11.903         	1.697
MS.384         	11.877         	1.733
MS.385         	11.855         	1.703
MS.386         	11.83          	1.636
MS.387         	11.807         	1.581
MS.388         	11.782         	1.562
MS.389         	11.76          	1.477
MS.390         	11.735         	1.532
MS.391         	11.712         	1.556
MS.392         	11.69          	1.52
MS.393         	11.665         	1.477
MS.394         	11.642         	1.556
MS.395         	11.62          	1.532
MS.396         	11.595         	1.489
MS.397         	11.572         	1.428
MS.398         	11.55          	1.483
MS.399         	11.528         	1.373
MS.400         	11.502         	1.349
MS.401         	11.48          	1.392
MS.402         	11.457         	1.349
MS.403         	11.435         	1.318
MS.404         	11.412         	1.324
MS.405         	11.39          	1.373
MS.406         	11.367         	1.318
MS.407         	11.345         	1.276
MS.408         	11.32          	1.251
MS.409         	11.297         	1.312
MS.410         	11.275         	1.215
MS.411         	11.252         	1.16
MS.412         	11.23          	1.141
MS.413         	11.207         	1.154
MS.414         	11.185         	1.135
MS.415         	11.162         	1.172
MS.416         	11.142         	1.111
MS.417         	11.12          	1.123
MS.418         	11.097         	1.111
MS.419         	11.075         	0.995
MS.420         	11.052         	1.013
MS.421         	11.03          	1.086
MS.422         	11.007         	1.062
MS.423         	10.988         	1.068
MS.424         	10.965         	1.086
MS.425         	10.943         	1.05
MS.426         	10.92          	1.031
MS.427         	10.9           	0.916
MS.428         	10.877         	0.934
MS.429         	10.855         	0.916
MS.430         	10.835         	0.897
MS.431         	10.812         	0.934
MS.432         	10.79          	0.842
MS.433         	10.77          	0.928
MS.434         	10.747         	0.806
MS.435         	10.725         	0.922
MS.436         	10.705         	0.885
MS.437         	10.682         	0.885
MS.438         	10.662         	0.83
MS.439         	10.64          	0.842
MS.440         	10.62          	0.806
MS.441         	10.597         	0.769
MS.442         	10.577         	0.867
MS.443         	10.555         	0.763
MS.444         	10.535         	0.775
MS.445         	10.512         	0.684
MS.446         	10.492         	0.659
MS.447         	10.472         	0.635
MS.448         	10.45          	0.635
MS.449         	10.43          	0.604
MS.450         	10.41          	0.659
MS.451         	10.387         	0.72
MS.452         	10.367         	0.653
MS.453         	10.347         	0.549
MS.454         	10.325         	0.708
MS.455         	10.305         	0.574
MS.456         	10.285         	0.592
MS.457         	10.265         	0.671
MS.458         	10.245         	0.562
MS.459         	10.222         	0.421
MS.460         	10.202         	0.482
MS.461         	10.182         	0.439
MS.462         	10.162         	0.647
MS.463         	10.142         	0.427
MS.464         	10.122         	0.397
MS.465         	10.102         	0.476
MS.466         	10.08          	0.439
MS.467         	10.06          	0.476
MS.468         	10.04          	0.415
MS.469         	10.02          	0.403
MS.470         	10             	0.446
MS.471         	9.98           	0.415
MS.472         	9.96           	0.366
MS.473         	9.94           	0.421
MS.474         	9.92           	0.378
MS.475         	9.903          	0.439
MS.476         	9.882          	0.415
MS.477         	9.863          	0.403
MS.478         	9.842          	0.421
MS.479         	9.823          	0.391
MS.480         	9.802          	0.354
MS.481         	9.782          	0.354
MS.482         	9.762          	0.354
MS.483         	9.745          	0.36
MS.484         	9.725          	0.378
MS.485         	9.705          	0.397
MS.486         	9.685          	0.348
MS.487         	9.667          	0.366
MS.488         	9.648          	0.317
MS.489         	9.627          	0.305
MS.490         	9.608          	0.354
MS.491         	9.59           	0.33
MS.492         	9.57           	0.323
MS.493         	9.55           	0.33
MS.494         	9.532          	0.323
MS.495         	9.512          	0.305
MS.496         	9.495          	0.317
MS.497         	9.475          	0.36
MS.498         	9.455          	0.366
MS.499         	9.438          	0.311
MS.500         	9.417          	0.299
MS.501         	9.4            	0.342
