File:              	C:\Qtrac\Data\Daniel M Sørensen\MScan multicentre study\Data from centres\Newcastle\Processed data\SMC00226F.QZD
Name:              	UK.NEW.NC.8.1
Protocol:          	MSCAN-R2
Date:              	26/2/20
Start time:        	12:06:07
Age:               	62
Sex:               	M
Temperature:       	31.8
S/R sites:         	TA
NC/disease:        	NC
Operator:          	SM
Comments:          	Technically difficult
M-SCAN DATA (Repeat 2/2, 7.9-0.0m)
Scanpts: 474, 503, 1430, 1438
Stim. (mA)     	Amp. (mV)
MS.1           	18.5           	6.04
MS.2           	18.5           	6.014
MS.3           	18.462         	5.986
MS.4           	18.425         	6.014
MS.5           	18.39          	6.014
MS.6           	18.352         	6.004
MS.7           	18.315         	5.998
MS.8           	18.28          	6.008
MS.9           	18.243         	6.018
MS.10          	18.208         	6.022
MS.11          	18.17          	6.034
MS.12          	18.132         	5.998
MS.13          	18.097         	6.006
MS.14          	18.062         	5.998
MS.15          	18.025         	5.992
MS.16          	17.99          	6.034
MS.17          	17.952         	6.012
MS.18          	17.917         	6.049
MS.19          	17.882         	6.028
MS.20          	17.845         	6.034
MS.21          	17.81          	5.994
MS.22          	17.775         	5.974
MS.23          	17.74          	5.984
MS.24          	17.702         	6
MS.25          	17.667         	5.988
MS.26          	17.632         	6
MS.27          	17.597         	5.972
MS.28          	17.562         	6
MS.29          	17.528         	6.018
MS.30          	17.493         	6.002
MS.31          	17.458         	5.982
MS.32          	17.422         	6.014
MS.33          	17.387         	6.002
MS.34          	17.352         	5.992
MS.35          	17.317         	5.992
MS.36          	17.285         	5.98
MS.37          	17.25          	5.998
MS.38          	17.215         	6.002
MS.39          	17.18          	5.988
MS.40          	17.145         	5.982
MS.41          	17.112         	5.964
MS.42          	17.077         	5.974
MS.43          	17.042         	5.978
MS.44          	17.01          	6.002
MS.45          	16.975         	5.974
MS.46          	16.942         	5.964
MS.47          	16.907         	5.98
MS.48          	16.875         	5.974
MS.49          	16.84          	5.976
MS.50          	16.807         	6.024
MS.51          	16.772         	6.006
MS.52          	16.74          	5.98
MS.53          	16.705         	5.988
MS.54          	16.672         	5.988
MS.55          	16.64          	5.972
MS.56          	16.605         	5.974
MS.57          	16.573         	5.976
MS.58          	16.54          	6
MS.59          	16.507         	5.964
MS.60          	16.475         	5.966
MS.61          	16.44          	5.998
MS.62          	16.407         	5.978
MS.63          	16.375         	5.966
MS.64          	16.342         	5.986
MS.65          	16.31          	5.972
MS.66          	16.278         	5.984
MS.67          	16.245         	5.99
MS.68          	16.212         	5.974
MS.69          	16.18          	5.972
MS.70          	16.147         	5.978
MS.71          	16.115         	5.994
MS.72          	16.083         	5.98
MS.73          	16.05          	5.962
MS.74          	16.02          	6.002
MS.75          	15.987         	5.992
MS.76          	15.955         	5.966
MS.77          	15.922         	6.002
MS.78          	15.892         	5.942
MS.79          	15.86          	5.91
MS.80          	15.827         	5.952
MS.81          	15.795         	5.817
MS.82          	15.765         	6.024
MS.83          	15.733         	5.942
MS.84          	15.702         	5.918
MS.85          	15.67          	5.958
MS.86          	15.64          	5.948
MS.87          	15.608         	5.944
MS.88          	15.577         	5.956
MS.89          	15.545         	5.962
MS.90          	15.515         	5.936
MS.91          	15.483         	5.964
MS.92          	15.452         	5.944
MS.93          	15.422         	5.948
MS.94          	15.39          	5.946
MS.95          	15.36          	5.932
MS.96          	15.33          	5.932
MS.97          	15.297         	5.934
MS.98          	15.267         	5.926
MS.99          	15.237         	5.936
MS.100         	15.207         	5.928
MS.101         	15.177         	5.976
MS.102         	15.148         	5.944
MS.103         	15.117         	5.839
MS.104         	15.085         	5.861
MS.105         	15.055         	5.97
MS.106         	15.025         	5.93
MS.107         	14.995         	5.928
MS.108         	14.965         	5.841
MS.109         	14.935         	5.68
MS.110         	14.905         	5.908
MS.111         	14.877         	5.934
MS.112         	14.847         	5.912
MS.113         	14.818         	5.974
MS.114         	14.787         	5.924
MS.115         	14.757         	5.897
MS.116         	14.727         	5.744
MS.117         	14.7           	5.706
MS.118         	14.67          	5.815
MS.119         	14.64          	5.688
MS.120         	14.61          	5.843
MS.121         	14.582         	5.904
MS.122         	14.552         	5.91
MS.123         	14.523         	5.726
MS.124         	14.495         	5.734
MS.125         	14.465         	5.849
MS.126         	14.438         	5.678
MS.127         	14.407         	5.891
MS.128         	14.38          	5.821
MS.129         	14.35          	5.791
MS.130         	14.322         	5.732
MS.131         	14.292         	5.66
MS.132         	14.265         	5.797
MS.133         	14.235         	5.839
MS.134         	14.207         	5.926
MS.135         	14.18          	5.855
MS.136         	14.15          	5.779
MS.137         	14.122         	5.63
MS.138         	14.095         	5.738
MS.139         	14.065         	5.821
MS.140         	14.037         	5.726
MS.141         	14.01          	5.748
MS.142         	13.983         	5.706
MS.143         	13.955         	5.775
MS.144         	13.925         	5.789
MS.145         	13.898         	5.716
MS.146         	13.87          	5.787
MS.147         	13.842         	5.839
MS.148         	13.815         	5.827
MS.149         	13.787         	5.702
MS.150         	13.76          	5.724
MS.151         	13.733         	5.704
MS.152         	13.705         	5.736
MS.153         	13.677         	5.535
MS.154         	13.65          	5.752
MS.155         	13.622         	5.666
MS.156         	13.595         	5.811
MS.157         	13.57          	5.825
MS.158         	13.542         	5.791
MS.159         	13.515         	5.841
MS.160         	13.487         	5.859
MS.161         	13.46          	5.849
MS.162         	13.435         	5.861
MS.163         	13.407         	5.873
MS.164         	13.38          	5.871
MS.165         	13.352         	5.901
MS.166         	13.327         	5.817
MS.167         	13.3           	5.885
MS.168         	13.273         	5.893
MS.169         	13.247         	5.849
MS.170         	13.22          	5.861
MS.171         	13.195         	5.881
MS.172         	13.167         	5.889
MS.173         	13.142         	5.867
MS.174         	13.115         	5.897
MS.175         	13.09          	5.895
MS.176         	13.062         	5.897
MS.177         	13.037         	5.877
MS.178         	13.01          	5.867
MS.179         	12.985         	5.881
MS.180         	12.957         	5.912
MS.181         	12.932         	5.914
MS.182         	12.907         	5.873
MS.183         	12.88          	5.873
MS.184         	12.855         	5.881
MS.185         	12.83          	5.857
MS.186         	12.805         	5.843
MS.187         	12.778         	5.871
MS.188         	12.752         	5.829
MS.189         	12.727         	5.563
MS.190         	12.702         	5.698
MS.191         	12.677         	5.505
MS.192         	12.653         	5.505
MS.193         	12.625         	5.571
MS.194         	12.6           	5.513
MS.195         	12.575         	5.553
MS.196         	12.55          	5.783
MS.197         	12.525         	5.825
MS.198         	12.5           	5.827
MS.199         	12.475         	5.795
MS.200         	12.45          	5.722
MS.201         	12.425         	5.815
MS.202         	12.4           	5.787
MS.203         	12.375         	5.781
MS.204         	12.352         	5.819
MS.205         	12.327         	5.805
MS.206         	12.302         	5.821
MS.207         	12.278         	5.742
MS.208         	12.252         	5.861
MS.209         	12.227         	5.811
MS.210         	12.205         	5.779
MS.211         	12.18          	5.746
MS.212         	12.155         	5.769
MS.213         	12.13          	5.783
MS.214         	12.108         	5.771
MS.215         	12.082         	5.779
MS.216         	12.057         	5.795
MS.217         	12.035         	5.773
MS.218         	12.01          	5.732
MS.219         	11.988         	5.763
MS.220         	11.962         	5.744
MS.221         	11.938         	5.756
MS.222         	11.915         	5.773
MS.223         	11.89          	5.807
MS.224         	11.867         	5.758
MS.225         	11.842         	5.758
MS.226         	11.82          	5.767
MS.227         	11.795         	5.66
MS.228         	11.773         	5.646
MS.229         	11.75          	5.626
MS.230         	11.725         	5.746
MS.231         	11.702         	5.674
MS.232         	11.677         	5.638
MS.233         	11.655         	5.736
MS.234         	11.632         	5.783
MS.235         	11.61          	5.756
MS.236         	11.585         	5.626
MS.237         	11.562         	5.613
MS.238         	11.54          	5.636
MS.239         	11.517         	5.64
MS.240         	11.492         	5.654
MS.241         	11.47          	5.748
MS.242         	11.447         	5.581
MS.243         	11.425         	5.422
MS.244         	11.403         	5.728
MS.245         	11.38          	5.636
MS.246         	11.358         	5.809
MS.247         	11.332         	5.622
MS.248         	11.31          	5.65
MS.249         	11.287         	5.499
MS.250         	11.265         	5.454
MS.251         	11.242         	5.505
MS.252         	11.22          	5.446
MS.253         	11.197         	5.406
MS.254         	11.175         	5.352
MS.255         	11.153         	5.464
MS.256         	11.132         	5.503
MS.257         	11.11          	5.485
MS.258         	11.087         	5.446
MS.259         	11.065         	5.448
MS.260         	11.042         	5.529
MS.261         	11.02          	5.581
MS.262         	10.997         	5.575
MS.263         	10.977         	5.593
MS.264         	10.955         	5.575
MS.265         	10.932         	5.571
MS.266         	10.91          	5.559
MS.267         	10.89          	5.563
MS.268         	10.867         	5.581
MS.269         	10.845         	5.575
MS.270         	10.825         	5.581
MS.271         	10.802         	5.553
MS.272         	10.78          	5.541
MS.273         	10.76          	5.549
MS.274         	10.738         	5.388
MS.275         	10.717         	5.553
MS.276         	10.695         	5.555
MS.277         	10.672         	5.479
MS.278         	10.653         	5.615
MS.279         	10.63          	5.537
MS.280         	10.61          	5.543
MS.281         	10.587         	5.537
MS.282         	10.568         	5.406
MS.283         	10.547         	5.525
MS.284         	10.525         	5.585
MS.285         	10.505         	5.555
MS.286         	10.483         	5.577
MS.287         	10.462         	5.501
MS.288         	10.443         	5.364
MS.289         	10.42          	5.35
MS.290         	10.4           	4.989
MS.291         	10.38          	5.072
MS.292         	10.358         	4.913
MS.293         	10.337         	5.064
MS.294         	10.318         	5.261
MS.295         	10.295         	5.507
MS.296         	10.275         	5.215
MS.297         	10.255         	5.12
MS.298         	10.235         	5.267
MS.299         	10.215         	5.398
MS.300         	10.193         	5.186
MS.301         	10.172         	5.193
MS.302         	10.153         	5.325
MS.303         	0.000          	0.008
MS.304         	0.000          	0.002
MS.305         	0.000          	0.018
MS.306         	0.000          	0.026
MS.307         	1.5            	0.004
MS.308         	4.5            	3.466
MS.309         	9              	5.11
MS.310         	10.5           	5.426
MS.311         	12             	5.557
MS.312         	13.5           	5.805
MS.313         	15             	5.825
MS.314         	16.5           	5.827
MS.315         	18             	5.95
MS.316         	18             	5.885
MS.317         	19.5           	5.922
MS.318         	19.5           	5.922
MS.319         	19.5           	5.897
MS.320         	19.5           	5.968
MS.321         	19.5           	5.94
MS.322         	19.5           	5.918
MS.323         	19.5           	5.924
MS.324         	19.5           	5.92
MS.325         	19.5           	5.944
MS.326         	19.5           	5.938
MS.327         	19.5           	5.912
MS.328         	19.5           	5.924
MS.329         	19.5           	5.932
MS.330         	19.5           	5.944
MS.331         	19             	5.904
MS.332         	18.5           	5.918
MS.333         	18.5           	5.918
MS.334         	18             	5.926
MS.335         	18             	5.926
MS.336         	17.5           	5.91
MS.337         	17.5           	5.932
MS.338         	17.5           	5.968
MS.339         	17             	5.891
MS.340         	17             	5.912
MS.341         	16.5           	5.891
MS.342         	16.5           	5.91
MS.343         	16.5           	5.93
MS.344         	16.5           	5.893
MS.345         	16             	5.835
MS.346         	16             	5.95
MS.347         	16.5           	5.928
MS.348         	17.5           	5.932
MS.349         	17.5           	5.968
MS.350         	17.5           	5.916
MS.351         	17.5           	5.926
MS.352         	17.5           	5.92
MS.353         	17.5           	5.904
MS.354         	17.5           	5.942
MS.355         	17.5           	5.922
MS.356         	17.5           	5.908
MS.357         	17.5           	5.881
MS.358         	17.5           	5.914
MS.359         	17.5           	5.885
MS.360         	17.5           	5.924
MS.361         	17.5           	5.901
MS.362         	17.5           	5.901
MS.363         	17.5           	5.924
MS.364         	17.5           	5.908
MS.365         	17.5           	5.926
MS.366         	17.5           	5.906
MS.367         	17.5           	5.906
MS.368         	17.5           	5.901
MS.369         	17.5           	5.904
MS.370         	17.5           	5.893
MS.371         	17.5           	5.924
MS.372         	17.5           	5.92
MS.373         	17.5           	5.904
MS.374         	17.465         	5.891
MS.375         	17.43          	5.879
MS.376         	17.395         	5.893
MS.377         	17.36          	5.928
MS.378         	17.325         	5.916
MS.379         	17.292         	5.899
MS.380         	17.257         	5.934
MS.381         	17.222         	5.906
MS.382         	17.188         	5.916
MS.383         	17.153         	5.904
MS.384         	17.12          	5.895
MS.385         	17.085         	5.893
MS.386         	17.05          	5.881
MS.387         	17.017         	5.891
MS.388         	16.983         	5.869
MS.389         	16.95          	5.877
MS.390         	16.915         	5.906
MS.391         	16.88          	5.912
MS.392         	16.847         	5.865
MS.393         	16.815         	5.912
MS.394         	16.78          	5.91
MS.395         	16.747         	5.906
MS.396         	16.712         	5.889
MS.397         	16.68          	5.897
MS.398         	16.647         	5.897
MS.399         	16.612         	5.93
MS.400         	16.58          	5.91
MS.401         	16.547         	5.887
MS.402         	16.515         	5.883
MS.403         	16.48          	5.899
MS.404         	16.448         	5.916
MS.405         	16.415         	5.932
MS.406         	16.382         	5.914
MS.407         	16.35          	5.932
MS.408         	16.317         	5.887
MS.409         	16.285         	5.91
MS.410         	16.253         	5.889
MS.411         	16.22          	5.893
MS.412         	16.188         	5.893
MS.413         	16.155         	5.916
MS.414         	16.122         	5.891
MS.415         	16.09          	5.887
MS.416         	16.057         	5.912
MS.417         	16.025         	5.831
MS.418         	15.995         	5.936
MS.419         	15.962         	5.891
MS.420         	15.93          	5.881
MS.421         	15.898         	5.908
MS.422         	15.867         	5.869
MS.423         	15.835         	5.891
MS.424         	15.802         	5.877
MS.425         	15.773         	5.889
MS.426         	15.74          	5.893
MS.427         	15.707         	5.877
MS.428         	15.677         	5.908
MS.429         	15.645         	5.91
MS.430         	15.615         	5.877
MS.431         	15.582         	5.891
MS.432         	15.552         	5.946
MS.433         	15.52          	5.944
MS.434         	15.49          	5.914
MS.435         	15.46          	5.906
MS.436         	15.427         	5.887
MS.437         	15.398         	5.916
MS.438         	15.367         	5.883
MS.439         	15.335         	5.924
MS.440         	15.305         	5.885
MS.441         	15.275         	5.924
MS.442         	15.245         	5.908
MS.443         	15.215         	5.889
MS.444         	15.182         	5.946
MS.445         	15.152         	5.92
MS.446         	15.122         	5.887
MS.447         	15.092         	5.883
MS.448         	15.062         	5.924
MS.449         	15.032         	5.942
MS.450         	15.002         	5.904
MS.451         	14.972         	5.932
MS.452         	14.943         	5.899
MS.453         	14.912         	5.908
MS.454         	14.882         	5.873
MS.455         	14.852         	5.883
MS.456         	14.822         	5.887
MS.457         	14.792         	5.906
MS.458         	14.765         	5.893
MS.459         	14.735         	5.895
MS.460         	14.705         	5.887
MS.461         	14.675         	5.817
MS.462         	14.648         	5.908
MS.463         	14.617         	5.891
MS.464         	14.587         	5.924
MS.465         	14.56          	5.871
MS.466         	14.53          	5.932
MS.467         	14.5           	5.918
MS.468         	14.472         	5.92
MS.469         	14.443         	5.904
MS.470         	14.415         	5.926
MS.471         	14.385         	5.942
MS.472         	14.358         	5.912
MS.473         	14.327         	5.94
MS.474         	14.3           	5.912
MS.475         	14.27          	5.901
MS.476         	14.242         	5.887
MS.477         	14.212         	5.918
MS.478         	14.185         	5.922
MS.479         	14.157         	5.887
MS.480         	14.127         	5.887
MS.481         	14.1           	5.964
MS.482         	14.072         	5.958
MS.483         	14.045         	5.899
MS.484         	14.015         	5.908
MS.485         	13.987         	5.889
MS.486         	13.96          	5.901
MS.487         	13.932         	5.885
MS.488         	13.905         	5.924
MS.489         	13.877         	5.897
MS.490         	13.85          	5.918
MS.491         	13.82          	5.91
MS.492         	13.792         	5.908
MS.493         	13.765         	5.932
MS.494         	13.737         	5.916
MS.495         	13.71          	5.916
MS.496         	13.682         	5.91
MS.497         	13.657         	5.918
MS.498         	13.63          	5.91
MS.499         	13.602         	5.928
MS.500         	13.575         	5.946
