File:              	C:\Qtrac\Data\Daniel M Sørensen\MScan multicentre study\Data from centres\Oslo\IronKey\Oslo_NC_first examination\SZC00508F.QZD
Name:              	NO.OSL.NC.9.1
Protocol:          	MSCAN-R2
Date:              	8/5/20
Start time:        	13:32:35
Age:               	20
Sex:               	F
Temperature:       	32.3
S/R sites:         	Peroneal TA
NC/disease:        	NC9
Operator:          	SZ
Comments:          	Test1
M-SCAN DATA (8.2-2.2m)
Scanpts: 26, 35, 626, 647
Stim. (mA)     	Amp. (mV)
MS.1           	27.5           	9.259
MS.2           	27.5           	9.257
MS.3           	27.5           	9.239
MS.4           	27.5           	9.219
MS.5           	27.5           	9.219
MS.6           	27.5           	9.227
MS.7           	27.5           	9.209
MS.8           	27.5           	9.211
MS.9           	27.5           	9.233
MS.10          	27.5           	9.215
MS.11          	27.5           	9.241
MS.12          	27.5           	9.221
MS.13          	27.5           	9.235
MS.14          	27.5           	9.197
MS.15          	27.5           	9.233
MS.16          	27.5           	9.219
MS.17          	27.5           	9.219
MS.18          	27.5           	9.245
MS.19          	27.5           	9.227
MS.20          	27.5           	9.257
MS.21          	27.5           	9.235
MS.22          	27.5           	9.231
MS.23          	27.5           	9.259
MS.24          	27.39          	9.223
MS.25          	27.335         	9.225
MS.26          	27.28          	9.213
MS.27          	27.227         	9.227
MS.28          	27.172         	9.267
MS.29          	27.118         	9.237
MS.30          	27.062         	9.217
MS.31          	27.01          	9.227
MS.32          	26.955         	9.231
MS.33          	26.903         	9.231
MS.34          	26.847         	9.249
MS.35          	26.795         	9.207
MS.36          	26.74          	9.213
MS.37          	26.688         	9.269
MS.38          	26.635         	9.241
MS.39          	26.58          	9.247
MS.40          	26.528         	9.201
MS.41          	26.475         	9.225
MS.42          	26.422         	9.213
MS.43          	26.37          	9.205
MS.44          	26.315         	9.243
MS.45          	26.262         	9.233
MS.46          	26.21          	9.257
MS.47          	26.157         	9.209
MS.48          	26.108         	9.217
MS.49          	26.055         	9.233
MS.50          	26.002         	9.249
MS.51          	25.95          	9.235
MS.52          	25.897         	9.253
MS.53          	25.847         	9.185
MS.54          	25.795         	9.199
MS.55          	25.743         	9.177
MS.56          	25.692         	9.187
MS.57          	25.64          	9.187
MS.58          	25.59          	9.203
MS.59          	25.538         	9.138
MS.60          	25.487         	9.142
MS.61          	25.438         	9.189
MS.62          	25.385         	9.154
MS.63          	25.335         	9.174
MS.64          	25.285         	9.138
MS.65          	25.233         	9.179
MS.66          	25.182         	9.193
MS.67          	25.132         	9.156
MS.68          	25.082         	9.15
MS.69          	25.032         	9.162
MS.70          	24.983         	9.118
MS.71          	24.932         	9.096
MS.72          	24.882         	9.114
MS.73          	24.832         	9.114
MS.74          	24.782         	9.074
MS.75          	24.735         	9.158
MS.76          	24.685         	9.177
MS.77          	24.635         	9.134
MS.78          	24.585         	9.104
MS.79          	24.538         	9.172
MS.80          	24.487         	9.142
MS.81          	24.44          	9.168
MS.82          	24.39          	9.16
MS.83          	24.342         	9.134
MS.84          	24.292         	9.088
MS.85          	24.245         	9.142
MS.86          	24.195         	9.118
MS.87          	24.147         	9.074
MS.88          	24.1           	9.112
MS.89          	24.05          	9.138
MS.90          	24.002         	9.094
MS.91          	23.955         	9.058
MS.92          	23.907         	9.13
MS.93          	23.86          	9.088
MS.94          	23.812         	9.013
MS.95          	23.765         	9.072
MS.96          	23.717         	9.058
MS.97          	23.67          	9.044
MS.98          	23.622         	9.082
MS.99          	23.575         	9.044
MS.100         	23.528         	9.1
MS.101         	23.48          	9.076
MS.102         	23.435         	9.05
MS.103         	23.387         	9.048
MS.104         	23.34          	9.048
MS.105         	23.292         	9.058
MS.106         	23.247         	9.068
MS.107         	23.2           	9.076
MS.108         	23.155         	9.068
MS.109         	23.108         	9.052
MS.110         	23.062         	9.017
MS.111         	23.015         	9.019
MS.112         	22.97          	9.009
MS.113         	22.925         	9.003
MS.114         	22.877         	9.025
MS.115         	22.832         	9.04
MS.116         	22.788         	8.987
MS.117         	22.743         	9.013
MS.118         	22.695         	9.005
MS.119         	22.65          	9.036
MS.120         	22.605         	9.06
MS.121         	22.56          	9.036
MS.122         	22.515         	9.031
MS.123         	22.47          	8.987
MS.124         	22.425         	9.015
MS.125         	22.38          	9.05
MS.126         	22.335         	8.989
MS.127         	22.29          	9.015
MS.128         	22.247         	9.034
MS.129         	22.202         	9.064
MS.130         	22.157         	8.999
MS.131         	22.112         	8.987
MS.132         	22.07          	9.007
MS.133         	22.025         	9.023
MS.134         	21.98          	8.951
MS.135         	21.938         	8.961
MS.136         	21.892         	9.005
MS.137         	21.85          	8.937
MS.138         	21.805         	8.941
MS.139         	21.762         	8.985
MS.140         	21.72          	8.947
MS.141         	21.675         	8.989
MS.142         	21.632         	8.923
MS.143         	21.59          	8.899
MS.144         	21.545         	8.891
MS.145         	21.502         	8.884
MS.146         	21.46          	8.907
MS.147         	21.417         	8.935
MS.148         	21.375         	8.921
MS.149         	21.333         	8.895
MS.150         	21.29          	8.891
MS.151         	21.247         	8.842
MS.152         	21.205         	8.814
MS.153         	21.163         	8.81
MS.154         	21.12          	8.717
MS.155         	21.077         	8.788
MS.156         	21.035         	8.788
MS.157         	20.993         	8.814
MS.158         	20.95          	8.764
MS.159         	20.91          	8.822
MS.160         	20.868         	8.723
MS.161         	20.825         	8.691
MS.162         	20.785         	8.621
MS.163         	20.743         	8.675
MS.164         	20.7           	8.721
MS.165         	20.66          	8.715
MS.166         	20.618         	8.655
MS.167         	20.577         	8.675
MS.168         	20.535         	8.643
MS.169         	20.495         	8.695
MS.170         	20.455         	8.619
MS.171         	20.413         	8.498
MS.172         	20.372         	8.504
MS.173         	20.333         	8.59
MS.174         	20.29          	8.52
MS.175         	20.25          	8.55
MS.176         	20.21          	8.464
MS.177         	20.17          	8.53
MS.178         	20.13          	8.56
MS.179         	20.09          	8.554
MS.180         	20.05          	8.415
MS.181         	20.01          	8.439
MS.182         	19.97          	8.425
MS.183         	19.93          	8.405
MS.184         	19.89          	8.389
MS.185         	19.85          	8.427
MS.186         	19.81          	8.421
MS.187         	19.77          	8.246
MS.188         	19.73          	8.393
MS.189         	19.692         	8.323
MS.190         	19.653         	8.327
MS.191         	19.612         	8.266
MS.192         	19.573         	8.284
MS.193         	19.535         	8.256
MS.194         	19.495         	8.288
MS.195         	19.458         	8.302
MS.196         	19.417         	8.153
MS.197         	19.38          	8.169
MS.198         	19.34          	8.186
MS.199         	19.302         	8.383
MS.200         	19.262         	8.298
MS.201         	19.225         	8.139
MS.202         	19.185         	8.147
MS.203         	19.147         	8.302
MS.204         	19.11          	8.337
MS.205         	19.07          	8.335
MS.206         	19.032         	8.222
MS.207         	18.995         	8.286
MS.208         	18.958         	8.333
MS.209         	18.92          	8.258
MS.210         	18.882         	8.163
MS.211         	18.845         	8.236
MS.212         	18.805         	8.232
MS.213         	18.767         	8.232
MS.214         	18.73          	8.133
MS.215         	18.692         	8.067
MS.216         	18.657         	7.99
MS.217         	18.62          	8.099
MS.218         	18.583         	8.127
MS.219         	18.545         	8.053
MS.220         	18.507         	8.065
MS.221         	18.47          	7.94
MS.222         	18.432         	8.047
MS.223         	18.397         	7.881
MS.224         	18.36          	7.952
MS.225         	18.323         	7.912
MS.226         	18.288         	8.024
MS.227         	18.25          	7.887
MS.228         	18.215         	7.632
MS.229         	18.177         	7.422
MS.230         	18.14          	7.144
MS.231         	18.105         	7.273
MS.232         	18.067         	7.448
MS.233         	18.032         	7.537
MS.234         	17.997         	7.591
MS.235         	17.96          	7.569
MS.236         	17.925         	7.591
MS.237         	17.89          	7.372
MS.238         	17.852         	7.293
MS.239         	17.817         	7.243
MS.240         	17.782         	7.176
MS.241         	17.747         	7.197
MS.242         	17.71          	7.201
MS.243         	17.675         	7.152
MS.244         	17.64          	7.096
MS.245         	17.605         	7.029
MS.246         	17.57          	7.023
MS.247         	17.535         	6.894
MS.248         	17.5           	6.901
MS.249         	17.465         	6.671
MS.250         	17.43          	6.647
MS.251         	17.395         	6.669
MS.252         	17.36          	6.689
MS.253         	17.325         	6.61
MS.254         	17.29          	6.725
MS.255         	17.257         	6.612
MS.256         	17.222         	6.568
MS.257         	17.188         	6.592
MS.258         	17.153         	6.751
MS.259         	17.12          	6.596
MS.260         	17.085         	6.337
MS.261         	17.05          	6.395
MS.262         	17.017         	6.425
MS.263         	16.983         	6.248
MS.264         	16.948         	6.099
MS.265         	16.915         	6.101
MS.266         	16.88          	5.936
MS.267         	16.847         	6.03
MS.268         	16.812         	5.895
MS.269         	16.78          	5.932
MS.270         	16.747         	6.047
MS.271         	16.712         	5.877
MS.272         	16.68          	5.769
MS.273         	16.645         	5.897
MS.274         	16.612         	5.805
MS.275         	16.58          	5.706
MS.276         	16.547         	5.752
MS.277         	16.512         	5.46
MS.278         	16.48          	5.541
MS.279         	16.448         	5.579
MS.280         	16.415         	5.404
MS.281         	16.382         	5.317
MS.282         	16.35          	5.346
MS.283         	16.317         	5.364
MS.284         	16.285         	5.307
MS.285         	16.253         	5.116
MS.286         	16.22          	5.217
MS.287         	16.188         	5.056
MS.288         	16.155         	5.08
MS.289         	16.122         	4.969
MS.290         	16.09          	4.995
MS.291         	16.057         	4.892
MS.292         	16.025         	4.872
MS.293         	15.992         	4.768
MS.294         	15.962         	4.695
MS.295         	15.93          	4.794
MS.296         	15.898         	4.695
MS.297         	15.865         	4.655
MS.298         	15.835         	4.631
MS.299         	15.802         	4.717
MS.300         	15.77          	4.538
MS.301         	15.74          	4.56
MS.302         	15.707         	4.645
MS.303         	15.677         	4.522
MS.304         	15.645         	4.399
MS.305         	15.615         	4.347
MS.306         	15.582         	4.423
MS.307         	15.552         	4.316
MS.308         	15.52          	4.248
MS.309         	15.49          	4.206
MS.310         	15.46          	4.2
MS.311         	15.427         	4.046
MS.312         	15.398         	4.057
MS.313         	15.367         	4.101
MS.314         	15.335         	4.119
MS.315         	15.305         	4.044
MS.316         	15.275         	3.944
MS.317         	15.245         	3.805
MS.318         	15.212         	3.771
MS.319         	15.182         	3.869
MS.320         	15.152         	3.736
MS.321         	15.122         	3.785
MS.322         	15.092         	3.67
MS.323         	15.062         	3.491
MS.324         	15.032         	3.553
MS.325         	15.002         	3.605
MS.326         	14.972         	3.408
MS.327         	14.943         	3.317
MS.328         	14.912         	3.279
MS.329         	14.882         	3.297
MS.330         	14.852         	3.289
MS.331         	14.822         	3.229
MS.332         	14.792         	3.11
MS.333         	14.765         	3.108
MS.334         	14.735         	3.184
MS.335         	14.705         	3.066
MS.336         	14.675         	3.041
MS.337         	14.645         	3.076
MS.338         	14.617         	3.055
MS.339         	14.587         	2.939
MS.340         	14.557         	2.939
MS.341         	14.53          	2.961
MS.342         	14.5           	2.868
MS.343         	14.472         	2.786
MS.344         	14.443         	2.965
MS.345         	14.412         	2.693
MS.346         	14.385         	2.862
MS.347         	14.355         	2.735
MS.348         	14.327         	2.697
MS.349         	14.3           	2.614
MS.350         	14.27          	2.655
MS.351         	14.242         	2.616
MS.352         	14.212         	2.566
MS.353         	14.185         	2.451
MS.354         	14.157         	2.546
MS.355         	14.127         	2.492
MS.356         	14.1           	2.604
MS.357         	14.072         	2.395
MS.358         	14.045         	2.272
MS.359         	14.015         	2.328
MS.360         	13.987         	2.346
MS.361         	13.96          	2.306
MS.362         	13.932         	2.288
MS.363         	13.905         	2.26
MS.364         	13.877         	2.163
MS.365         	13.847         	2.292
MS.366         	13.82          	2.214
MS.367         	13.792         	2.117
MS.368         	13.765         	2.089
MS.369         	13.737         	2.032
MS.370         	13.71          	2.097
MS.371         	13.682         	1.909
MS.372         	13.655         	1.932
MS.373         	13.63          	1.946
MS.374         	13.602         	1.909
MS.375         	13.575         	1.907
MS.376         	13.547         	1.905
MS.377         	13.52          	1.827
MS.378         	13.492         	1.815
MS.379         	13.465         	1.803
MS.380         	13.44          	1.722
MS.381         	13.412         	1.73
MS.382         	13.385         	1.764
MS.383         	13.36          	1.74
MS.384         	13.332         	1.728
MS.385         	13.305         	1.597
MS.386         	13.28          	1.573
MS.387         	13.252         	1.621
MS.388         	13.225         	1.615
MS.389         	13.2           	1.486
MS.390         	13.172         	1.523
MS.391         	13.148         	1.521
MS.392         	13.12          	1.486
MS.393         	13.095         	1.497
MS.394         	13.068         	1.581
MS.395         	13.042         	1.462
MS.396         	13.015         	1.408
MS.397         	12.99          	1.358
MS.398         	12.965         	1.356
MS.399         	12.938         	1.325
MS.400         	12.912         	1.335
MS.401         	12.887         	1.325
MS.402         	12.86          	1.215
MS.403         	12.835         	1.279
MS.404         	12.81          	1.253
MS.405         	12.785         	1.265
MS.406         	12.757         	1.251
MS.407         	12.733         	1.184
MS.408         	12.707         	1.188
MS.409         	12.682         	1.096
MS.410         	12.657         	1.118
MS.411         	12.632         	1.049
MS.412         	12.605         	0.999
MS.413         	12.58          	1.031
MS.414         	12.555         	0.924
MS.415         	12.53          	0.892
MS.416         	12.505         	0.858
MS.417         	12.48          	0.864
MS.418         	12.455         	0.981
MS.419         	12.43          	0.824
MS.420         	12.405         	0.788
MS.421         	12.38          	0.848
MS.422         	12.358         	0.753
MS.423         	12.332         	0.848
MS.424         	12.307         	0.723
MS.425         	12.282         	0.715
MS.426         	12.257         	0.592
MS.427         	12.233         	0.53
MS.428         	12.21          	0.497
MS.429         	12.185         	0.479
MS.430         	12.16          	0.534
MS.431         	12.135         	0.512
MS.432         	12.113         	0.548
MS.433         	12.087         	0.497
MS.434         	12.062         	0.51
MS.435         	12.04          	0.483
MS.436         	12.015         	0.467
MS.437         	11.992         	0.439
MS.438         	11.967         	0.431
MS.439         	11.943         	0.455
MS.440         	11.92          	0.431
MS.441         	11.895         	0.427
MS.442         	11.872         	0.469
MS.443         	11.847         	0.471
MS.444         	11.825         	0.435
MS.445         	11.8           	0.409
MS.446         	11.778         	0.377
MS.447         	11.755         	0.383
MS.448         	11.73          	0.415
MS.449         	11.707         	0.393
MS.450         	11.682         	0.357
MS.451         	11.66          	0.411
MS.452         	11.637         	0.393
MS.453         	11.613         	0.314
MS.454         	11.59          	0.369
MS.455         	11.568         	0.387
MS.456         	11.545         	0.324
MS.457         	11.52          	0.334
MS.458         	11.497         	0.31
MS.459         	11.475         	0.314
MS.460         	11.452         	0.32
MS.461         	11.43          	0.344
MS.462         	11.407         	0.342
MS.463         	11.382         	0.268
MS.464         	11.36          	0.344
MS.465         	11.337         	0.328
MS.466         	11.315         	0.298
MS.467         	11.292         	0.316
MS.468         	11.27          	0.294
MS.469         	11.247         	0.314
MS.470         	11.225         	0.28
MS.471         	11.202         	0.258
MS.472         	11.18          	0.264
MS.473         	11.157         	0.288
MS.474         	11.135         	0.302
MS.475         	11.113         	0.26
MS.476         	11.092         	0.238
MS.477         	11.07          	0.276
MS.478         	11.047         	0.276
MS.479         	11.025         	0.248
MS.480         	11.002         	0.25
MS.481         	10.98          	0.236
MS.482         	10.96          	0.25
MS.483         	10.938         	0.236
MS.484         	10.915         	0.236
MS.485         	10.892         	0.226
MS.486         	10.872         	0.207
MS.487         	10.85          	0.242
MS.488         	10.827         	0.222
MS.489         	10.807         	0.203
MS.490         	10.785         	0.236
MS.491         	10.762         	0.195
MS.492         	10.742         	0.211
MS.493         	10.72          	0.228
MS.494         	10.7           	0.218
MS.495         	10.677         	0.197
MS.496         	10.657         	0.199
MS.497         	10.635         	0.189
MS.498         	10.615         	0.193
MS.499         	10.592         	0.203
MS.500         	10.573         	0.189
