File:              	C:\Qtrac\Data\Daniel M Sørensen\MScan multicentre study\Data from centres\Oslo\IronKey\Oslo_NC_first examination\SZC00429G.QZD
Name:              	NO.OSL.NC.3.1
Protocol:          	MSCAN-R2
Date:              	29/4/20
Start time:        	13:08:59
Age:               	37
Sex:               	M
Temperature:       	33.3
S/R sites:         	Peronea TA
NC/disease:        	NC3
Operator:          	SZ
Comments:          	Test3
M-SCAN DATA (9.4-2.3m)
Scanpts: 1, 24, 737, 758
Stim. (mA)     	Amp. (mV)
MS.1           	42.5           	5.996
MS.2           	42.5           	5.73
MS.3           	42.5           	5.914
MS.4           	42.5           	5.877
MS.5           	42.5           	5.891
MS.6           	42.5           	5.865
MS.7           	42.5           	5.797
MS.8           	42.5           	5.817
MS.9           	42.5           	5.843
MS.10          	42.5           	5.787
MS.11          	42.5           	5.815
MS.12          	42.5           	5.817
MS.13          	42.5           	5.742
MS.14          	42.5           	5.843
MS.15          	42.5           	5.73
MS.16          	42.5           	5.734
MS.17          	42.5           	5.748
MS.18          	42.5           	5.716
MS.19          	42.5           	5.726
MS.20          	42.5           	5.716
MS.21          	42.5           	5.71
MS.22          	42.5           	5.666
MS.23          	42.5           	5.69
MS.24          	42.33          	5.654
MS.25          	42.245         	5.624
MS.26          	42.16          	5.573
MS.27          	42.077         	5.517
MS.28          	41.993         	5.479
MS.29          	41.91          	5.402
MS.30          	41.825         	5.426
MS.31          	41.743         	5.412
MS.32          	41.657         	5.342
MS.33          	41.575         	5.291
MS.34          	41.493         	5.356
MS.35          	41.41          	5.168
MS.36          	41.327         	5.156
MS.37          	41.245         	5.16
MS.38          	41.162         	5.134
MS.39          	41.08          	5.195
MS.40          	40.997         	5.118
MS.41          	40.915         	4.951
MS.42          	40.833         	5.015
MS.43          	40.752         	4.957
MS.44          	40.67          	5.088
MS.45          	40.59          	4.911
MS.46          	40.507         	4.973
MS.47          	40.427         	4.836
MS.48          	40.347         	4.915
MS.49          	40.265         	4.842
MS.50          	40.185         	4.838
MS.51          	40.105         	4.749
MS.52          	40.025         	4.828
MS.53          	39.945         	4.711
MS.54          	39.865         	4.697
MS.55          	39.785         	4.745
MS.56          	39.705         	4.659
MS.57          	39.627         	4.592
MS.58          	39.548         	4.578
MS.59          	39.467         	4.536
MS.60          	39.39          	4.57
MS.61          	39.31          	4.538
MS.62          	39.232         	4.453
MS.63          	39.155         	4.608
MS.64          	39.075         	4.508
MS.65          	38.997         	4.536
MS.66          	38.92          	4.457
MS.67          	38.842         	4.419
MS.68          	38.765         	4.431
MS.69          	38.688         	4.417
MS.70          	38.61          	4.471
MS.71          	38.532         	4.371
MS.72          	38.455         	4.296
MS.73          	38.377         	4.27
MS.74          	38.302         	4.252
MS.75          	38.225         	4.339
MS.76          	38.15          	4.33
MS.77          	38.072         	4.181
MS.78          	37.997         	4.274
MS.79          	37.92          	4.202
MS.80          	37.845         	4.2
MS.81          	37.77          	4.23
MS.82          	37.695         	4.26
MS.83          	37.618         	4.179
MS.84          	37.542         	4.022
MS.85          	37.467         	4.091
MS.86          	37.392         	4.044
MS.87          	37.32          	4.133
MS.88          	37.245         	4.145
MS.89          	37.17          	4.046
MS.90          	37.095         	4.02
MS.91          	37.022         	3.897
MS.92          	36.947         	3.855
MS.93          	36.875         	4.008
MS.94          	36.8           	3.956
MS.95          	36.728         	3.823
MS.96          	36.653         	3.861
MS.97          	36.58          	4.028
MS.98          	36.507         	3.716
MS.99          	36.435         	3.684
MS.100         	36.36          	3.7
MS.101         	36.287         	3.837
MS.102         	36.215         	3.724
MS.103         	36.142         	3.791
MS.104         	36.072         	3.595
MS.105         	36             	3.696
MS.106         	35.927         	3.734
MS.107         	35.855         	3.662
MS.108         	35.785         	3.712
MS.109         	35.712         	3.688
MS.110         	35.64          	3.696
MS.111         	35.57          	3.708
MS.112         	35.5           	3.599
MS.113         	35.427         	3.619
MS.114         	35.357         	3.539
MS.115         	35.287         	3.559
MS.116         	35.215         	3.456
MS.117         	35.145         	3.553
MS.118         	35.075         	3.511
MS.119         	35.005         	3.48
MS.120         	34.935         	3.442
MS.121         	34.865         	3.474
MS.122         	34.795         	3.378
MS.123         	34.728         	3.36
MS.124         	34.657         	3.295
MS.125         	34.587         	3.315
MS.126         	34.517         	3.251
MS.127         	34.45          	3.46
MS.128         	34.38          	3.301
MS.129         	34.312         	3.239
MS.130         	34.243         	3.356
MS.131         	34.175         	3.291
MS.132         	34.107         	3.162
MS.133         	34.04          	3.086
MS.134         	33.97          	3.092
MS.135         	33.903         	3.172
MS.136         	33.835         	3.098
MS.137         	33.767         	3.132
MS.138         	33.7           	3.041
MS.139         	33.632         	3.027
MS.140         	33.565         	3.031
MS.141         	33.497         	3.045
MS.142         	33.432         	2.917
MS.143         	33.365         	2.997
MS.144         	33.298         	2.949
MS.145         	33.232         	2.874
MS.146         	33.165         	2.87
MS.147         	33.1           	2.773
MS.148         	33.032         	2.856
MS.149         	32.967         	2.665
MS.150         	32.9           	2.834
MS.151         	32.835         	2.814
MS.152         	32.77          	2.62
MS.153         	32.705         	2.649
MS.154         	32.638         	2.864
MS.155         	32.572         	2.568
MS.156         	32.507         	2.794
MS.157         	32.443         	2.792
MS.158         	32.377         	2.562
MS.159         	32.315         	2.582
MS.160         	32.25          	2.683
MS.161         	32.185         	2.483
MS.162         	32.12          	2.548
MS.163         	32.057         	2.467
MS.164         	31.992         	2.51
MS.165         	31.927         	2.433
MS.166         	31.865         	2.447
MS.167         	31.8           	2.365
MS.168         	31.737         	2.403
MS.169         	31.675         	2.401
MS.170         	31.61          	2.308
MS.171         	31.547         	2.407
MS.172         	31.485         	2.33
MS.173         	31.422         	2.316
MS.174         	31.36          	2.334
MS.175         	31.297         	2.203
MS.176         	31.235         	2.25
MS.177         	31.172         	2.322
MS.178         	31.11          	2.373
MS.179         	31.047         	2.278
MS.180         	30.985         	2.268
MS.181         	30.922         	2.203
MS.182         	30.86          	2.284
MS.183         	30.8           	2.181
MS.184         	30.737         	2.201
MS.185         	30.677         	2.117
MS.186         	30.615         	2.185
MS.187         	30.555         	2.107
MS.188         	30.492         	2.163
MS.189         	30.432         	2.083
MS.190         	30.372         	2.093
MS.191         	30.31          	2.06
MS.192         	30.25          	2.024
MS.193         	30.19          	2.101
MS.194         	30.13          	2.123
MS.195         	30.07          	2.062
MS.196         	30.01          	2.085
MS.197         	29.95          	1.972
MS.198         	29.89          	1.988
MS.199         	29.83          	1.938
MS.200         	29.77          	1.99
MS.201         	29.71          	1.95
MS.202         	29.65          	1.934
MS.203         	29.592         	1.913
MS.204         	29.532         	1.954
MS.205         	29.472         	1.984
MS.206         	29.415         	1.928
MS.207         	29.355         	1.936
MS.208         	29.297         	1.964
MS.209         	29.24          	1.95
MS.210         	29.18          	1.956
MS.211         	29.122         	1.845
MS.212         	29.065         	1.825
MS.213         	29.005         	1.859
MS.214         	28.948         	1.861
MS.215         	28.89          	1.863
MS.216         	28.832         	1.799
MS.217         	28.775         	1.793
MS.218         	28.717         	1.813
MS.219         	28.66          	1.803
MS.220         	28.602         	1.821
MS.221         	28.545         	1.809
MS.222         	28.487         	1.748
MS.223         	28.432         	1.74
MS.224         	28.375         	1.744
MS.225         	28.317         	1.72
MS.226         	28.262         	1.762
MS.227         	28.205         	1.76
MS.228         	28.147         	1.668
MS.229         	28.092         	1.565
MS.230         	28.037         	1.654
MS.231         	27.98          	1.567
MS.232         	27.925         	1.565
MS.233         	27.868         	1.609
MS.234         	27.812         	1.617
MS.235         	27.757         	1.569
MS.236         	27.702         	1.581
MS.237         	27.647         	1.505
MS.238         	27.592         	1.501
MS.239         	27.535         	1.476
MS.240         	27.48          	1.535
MS.241         	27.425         	1.4
MS.242         	27.372         	1.466
MS.243         	27.317         	1.458
MS.244         	27.262         	1.43
MS.245         	27.207         	1.394
MS.246         	27.153         	1.4
MS.247         	27.1           	1.444
MS.248         	27.045         	1.323
MS.249         	26.99          	1.4
MS.250         	26.938         	1.321
MS.251         	26.882         	1.352
MS.252         	26.83          	1.333
MS.253         	26.775         	1.297
MS.254         	26.722         	1.36
MS.255         	26.67          	1.227
MS.256         	26.615         	1.356
MS.257         	26.562         	1.311
MS.258         	26.51          	1.275
MS.259         	26.457         	1.255
MS.260         	26.403         	1.271
MS.261         	26.35          	1.247
MS.262         	26.297         	1.227
MS.263         	26.245         	1.255
MS.264         	26.192         	1.243
MS.265         	26.14          	1.213
MS.266         	26.087         	1.241
MS.267         	26.037         	1.225
MS.268         	25.985         	1.188
MS.269         	25.932         	1.168
MS.270         	25.88          	1.233
MS.271         	25.83          	1.174
MS.272         	25.778         	1.208
MS.273         	25.725         	1.142
MS.274         	25.675         	1.112
MS.275         	25.622         	1.158
MS.276         	25.573         	1.16
MS.277         	25.52          	1.082
MS.278         	25.47          	1.136
MS.279         	25.42          	1.08
MS.280         	25.368         	1.098
MS.281         	25.317         	1.043
MS.282         	25.267         	1.055
MS.283         	25.217         	1.118
MS.284         	25.165         	1.045
MS.285         	25.115         	0.999
MS.286         	25.065         	1.017
MS.287         	25.015         	1.068
MS.288         	24.965         	1.053
MS.289         	24.915         	1.027
MS.290         	24.865         	1.023
MS.291         	24.817         	1.011
MS.292         	24.767         	0.993
MS.293         	24.717         	0.963
MS.294         	24.667         	1.013
MS.295         	24.618         	0.979
MS.296         	24.57          	0.965
MS.297         	24.52          	0.957
MS.298         	24.472         	0.931
MS.299         	24.422         	0.916
MS.300         	24.372         	0.922
MS.301         	24.325         	0.937
MS.302         	24.278         	0.957
MS.303         	24.227         	0.939
MS.304         	24.18          	0.963
MS.305         	24.13          	0.916
MS.306         	24.082         	0.91
MS.307         	24.035         	0.878
MS.308         	23.987         	0.87
MS.309         	23.94          	0.886
MS.310         	23.89          	0.898
MS.311         	23.842         	0.856
MS.312         	23.795         	0.884
MS.313         	23.747         	0.886
MS.314         	23.7           	0.89
MS.315         	23.653         	0.852
MS.316         	23.605         	0.88
MS.317         	23.56          	0.802
MS.318         	23.512         	0.888
MS.319         	23.465         	0.868
MS.320         	23.417         	0.846
MS.321         	23.37          	0.842
MS.322         	23.325         	0.832
MS.323         	23.278         	0.784
MS.324         	23.233         	0.83
MS.325         	23.185         	0.808
MS.326         	23.137         	0.794
MS.327         	23.092         	0.82
MS.328         	23.045         	0.814
MS.329         	23             	0.82
MS.330         	22.955         	0.814
MS.331         	22.907         	0.757
MS.332         	22.862         	0.773
MS.333         	22.817         	0.784
MS.334         	22.772         	0.767
MS.335         	22.725         	0.781
MS.336         	22.68          	0.747
MS.337         	22.635         	0.767
MS.338         	22.59          	0.751
MS.339         	22.545         	0.777
MS.340         	22.5           	0.761
MS.341         	22.455         	0.765
MS.342         	22.41          	0.727
MS.343         	22.365         	0.711
MS.344         	22.32          	0.755
MS.345         	22.275         	0.759
MS.346         	22.233         	0.749
MS.347         	22.188         	0.715
MS.348         	22.142         	0.705
MS.349         	22.097         	0.757
MS.350         	22.055         	0.739
MS.351         	22.01          	0.713
MS.352         	21.965         	0.723
MS.353         	21.922         	0.709
MS.354         	21.877         	0.717
MS.355         	21.835         	0.723
MS.356         	21.79          	0.719
MS.357         	21.747         	0.699
MS.358         	21.705         	0.687
MS.359         	21.66          	0.707
MS.360         	21.618         	0.711
MS.361         	21.575         	0.711
MS.362         	21.53          	0.679
MS.363         	21.487         	0.711
MS.364         	21.445         	0.675
MS.365         	21.403         	0.689
MS.366         	21.36          	0.687
MS.367         	21.317         	0.683
MS.368         	21.275         	0.689
MS.369         	21.233         	0.671
MS.370         	21.19          	0.691
MS.371         	21.147         	0.675
MS.372         	21.105         	0.665
MS.373         	21.062         	0.671
MS.374         	21.02          	0.657
MS.375         	20.977         	0.657
MS.376         	20.938         	0.671
MS.377         	20.895         	0.653
MS.378         	20.852         	0.659
MS.379         	20.812         	0.661
MS.380         	20.77          	0.655
MS.381         	20.727         	0.665
MS.382         	20.688         	0.667
MS.383         	20.645         	0.655
MS.384         	20.605         	0.653
MS.385         	20.562         	0.645
MS.386         	20.522         	0.647
MS.387         	20.48          	0.669
MS.388         	20.44          	0.641
MS.389         	20.4           	0.663
MS.390         	20.358         	0.645
MS.391         	20.317         	0.628
MS.392         	20.278         	0.636
MS.393         	20.237         	0.643
MS.394         	20.198         	0.628
MS.395         	20.155         	0.616
MS.396         	20.115         	0.626
MS.397         	20.075         	0.616
MS.398         	20.035         	0.636
MS.399         	19.995         	0.612
MS.400         	19.955         	0.618
MS.401         	19.915         	0.616
MS.402         	19.875         	0.614
MS.403         	19.835         	0.626
MS.404         	19.797         	0.624
MS.405         	19.757         	0.614
MS.406         	19.717         	0.596
MS.407         	19.677         	0.578
MS.408         	19.637         	0.588
MS.409         	19.6           	0.594
MS.410         	19.56          	0.6
MS.411         	19.52          	0.596
MS.412         	19.483         	0.57
MS.413         	19.442         	0.598
MS.414         	19.405         	0.6
MS.415         	19.365         	0.582
MS.416         	19.327         	0.568
MS.417         	19.288         	0.58
MS.418         	19.25          	0.574
MS.419         	19.212         	0.578
MS.420         	19.172         	0.578
MS.421         	19.135         	0.538
MS.422         	19.097         	0.534
MS.423         	19.057         	0.556
MS.424         	19.02          	0.548
MS.425         	18.983         	0.552
MS.426         	18.945         	0.54
MS.427         	18.907         	0.54
MS.428         	18.868         	0.56
MS.429         	18.83          	0.542
MS.430         	18.792         	0.542
MS.431         	18.755         	0.542
MS.432         	18.717         	0.524
MS.433         	18.68          	0.528
MS.434         	18.642         	0.56
MS.435         	18.608         	0.506
MS.436         	18.57          	0.516
MS.437         	18.532         	0.512
MS.438         	18.495         	0.514
MS.439         	18.458         	0.528
MS.440         	18.42          	0.504
MS.441         	18.385         	0.506
MS.442         	18.347         	0.506
MS.443         	18.31          	0.487
MS.444         	18.275         	0.489
MS.445         	18.237         	0.497
MS.446         	18.202         	0.485
MS.447         	18.165         	0.491
MS.448         	18.13          	0.497
MS.449         	18.092         	0.485
MS.450         	18.057         	0.471
MS.451         	18.02          	0.481
MS.452         	17.985         	0.481
MS.453         	17.948         	0.491
MS.454         	17.913         	0.459
MS.455         	17.878         	0.483
MS.456         	17.84          	0.475
MS.457         	17.805         	0.471
MS.458         	17.77          	0.473
MS.459         	17.735         	0.467
MS.460         	17.7           	0.459
MS.461         	17.663         	0.453
MS.462         	17.628         	0.469
MS.463         	17.592         	0.463
MS.464         	17.557         	0.457
MS.465         	17.522         	0.471
MS.466         	17.487         	0.449
MS.467         	17.452         	0.461
MS.468         	17.417         	0.447
MS.469         	17.382         	0.465
MS.470         	17.347         	0.477
MS.471         	17.312         	0.427
MS.472         	17.28          	0.459
MS.473         	17.245         	0.449
MS.474         	17.21          	0.449
MS.475         	17.175         	0.461
MS.476         	17.142         	0.461
MS.477         	17.108         	0.429
MS.478         	17.073         	0.447
MS.479         	17.04          	0.427
MS.480         	17.005         	0.453
MS.481         	16.97          	0.433
MS.482         	16.938         	0.443
MS.483         	16.903         	0.445
MS.484         	16.87          	0.441
MS.485         	16.835         	0.439
MS.486         	16.802         	0.427
MS.487         	16.767         	0.435
MS.488         	16.735         	0.427
MS.489         	16.702         	0.431
MS.490         	16.667         	0.435
MS.491         	16.635         	0.437
MS.492         	16.602         	0.419
MS.493         	16.567         	0.419
MS.494         	16.535         	0.419
MS.495         	16.503         	0.437
MS.496         	16.47          	0.431
MS.497         	16.438         	0.427
MS.498         	16.403         	0.431
MS.499         	16.37          	0.429
MS.500         	16.337         	0.431
