File:              	C:\Qtrac\Data\Daniel M Sørensen\MScan multicentre study\Data from centres\Oslo\IronKey\Oslo_NC_first examination\SZC00508C.QZD
Name:              	NO.OSL.NC.8.1
Protocol:          	MSCAN-R2
Date:              	8/5/20
Start time:        	12:06:55
Age:               	68
Sex:               	F
Temperature:       	32.1
S/R sites:         	Peroneal TA
NC/disease:        	NC8
Operator:          	SZ
Comments:          	Test1
M-SCAN DATA (11.5-2.1m)
Scanpts: 7, 15, 962, 983
Stim. (mA)     	Amp. (mV)
MS.1           	35.5           	10.802
MS.2           	35.5           	10.788
MS.3           	35.5           	10.782
MS.4           	35.5           	10.78
MS.5           	35.5           	10.8
MS.6           	35.5           	10.762
MS.7           	35.5           	10.725
MS.8           	35.5           	10.748
MS.9           	35.5           	10.725
MS.10          	35.5           	10.731
MS.11          	35.5           	10.703
MS.12          	35.5           	10.715
MS.13          	35.5           	10.723
MS.14          	35.5           	10.677
MS.15          	35.5           	10.671
MS.16          	35.5           	10.679
MS.17          	35.5           	10.673
MS.18          	35.5           	10.679
MS.19          	35.5           	10.641
MS.20          	35.5           	10.687
MS.21          	35.5           	10.661
MS.22          	35.5           	10.633
MS.23          	35.5           	10.625
MS.24          	35.357         	10.627
MS.25          	35.287         	10.613
MS.26          	35.217         	10.621
MS.27          	35.147         	10.629
MS.28          	35.077         	10.552
MS.29          	35.007         	10.522
MS.30          	34.938         	10.532
MS.31          	34.868         	10.542
MS.32          	34.798         	10.49
MS.33          	34.728         	10.548
MS.34          	34.657         	10.49
MS.35          	34.59          	10.466
MS.36          	34.52          	10.468
MS.37          	34.45          	10.439
MS.38          	34.382         	10.415
MS.39          	34.312         	10.407
MS.40          	34.245         	10.393
MS.41          	34.175         	10.385
MS.42          	34.107         	10.351
MS.43          	34.04          	10.361
MS.44          	33.972         	10.359
MS.45          	33.905         	10.359
MS.46          	33.835         	10.3
MS.47          	33.767         	10.254
MS.48          	33.7           	10.3
MS.49          	33.632         	10.298
MS.50          	33.568         	10.254
MS.51          	33.5           	10.28
MS.52          	33.432         	10.24
MS.53          	33.365         	10.212
MS.54          	33.3           	10.188
MS.55          	33.232         	10.19
MS.56          	33.165         	10.143
MS.57          	33.1           	10.121
MS.58          	33.032         	10.101
MS.59          	32.967         	10.111
MS.60          	32.903         	10.153
MS.61          	32.835         	10.081
MS.62          	32.77          	10.087
MS.63          	32.705         	10.083
MS.64          	32.64          	10.067
MS.65          	32.575         	10.041
MS.66          	32.51          	9.994
MS.67          	32.445         	10.002
MS.68          	32.38          	9.982
MS.69          	32.315         	9.986
MS.70          	32.25          	9.978
MS.71          	32.185         	9.932
MS.72          	32.122         	9.97
MS.73          	32.057         	9.932
MS.74          	31.992         	9.91
MS.75          	31.93          	9.892
MS.76          	31.865         	9.851
MS.77          	31.802         	9.855
MS.78          	31.737         	9.859
MS.79          	31.675         	9.835
MS.80          	31.612         	9.825
MS.81          	31.547         	9.807
MS.82          	31.485         	9.791
MS.83          	31.422         	9.781
MS.84          	31.36          	9.751
MS.85          	31.297         	9.761
MS.86          	31.235         	9.749
MS.87          	31.172         	9.728
MS.88          	31.11          	9.694
MS.89          	31.047         	9.698
MS.90          	30.985         	9.678
MS.91          	30.925         	9.668
MS.92          	30.862         	9.654
MS.93          	30.8           	9.66
MS.94          	30.74          	9.652
MS.95          	30.677         	9.644
MS.96          	30.615         	9.62
MS.97          	30.555         	9.61
MS.98          	30.495         	9.602
MS.99          	30.432         	9.599
MS.100         	30.372         	9.585
MS.101         	30.312         	9.557
MS.102         	30.25          	9.555
MS.103         	30.19          	9.563
MS.104         	30.13          	9.547
MS.105         	30.07          	9.545
MS.106         	30.01          	9.543
MS.107         	29.95          	9.519
MS.108         	29.89          	9.541
MS.109         	29.83          	9.529
MS.110         	29.77          	9.465
MS.111         	29.712         	9.487
MS.112         	29.653         	9.475
MS.113         	29.592         	9.487
MS.114         	29.532         	9.428
MS.115         	29.475         	9.45
MS.116         	29.415         	9.454
MS.117         	29.358         	9.422
MS.118         	29.297         	9.388
MS.119         	29.24          	9.398
MS.120         	29.182         	9.382
MS.121         	29.122         	9.388
MS.122         	29.065         	9.388
MS.123         	29.007         	9.366
MS.124         	28.95          	9.366
MS.125         	28.89          	9.348
MS.126         	28.832         	9.332
MS.127         	28.775         	9.322
MS.128         	28.717         	9.299
MS.129         	28.66          	9.277
MS.130         	28.602         	9.269
MS.131         	28.547         	9.267
MS.132         	28.49          	9.261
MS.133         	28.432         	9.247
MS.134         	28.375         	9.203
MS.135         	28.32          	9.213
MS.136         	28.262         	9.199
MS.137         	28.205         	9.179
MS.138         	28.15          	9.179
MS.139         	28.092         	9.114
MS.140         	28.037         	9.17
MS.141         	27.98          	9.158
MS.142         	27.925         	9.16
MS.143         	27.87          	9.104
MS.144         	27.812         	9.064
MS.145         	27.757         	9.074
MS.146         	27.702         	9.07
MS.147         	27.647         	9.064
MS.148         	27.592         	9.044
MS.149         	27.537         	9.044
MS.150         	27.483         	9.048
MS.151         	27.427         	9.052
MS.152         	27.372         	9.011
MS.153         	27.317         	8.989
MS.154         	27.262         	9.007
MS.155         	27.207         	8.981
MS.156         	27.155         	8.967
MS.157         	27.1           	8.965
MS.158         	27.045         	8.981
MS.159         	26.993         	8.921
MS.160         	26.938         	8.941
MS.161         	26.885         	8.935
MS.162         	26.83          	8.917
MS.163         	26.778         	8.899
MS.164         	26.722         	8.838
MS.165         	26.67          	8.919
MS.166         	26.618         	8.878
MS.167         	26.562         	8.862
MS.168         	26.51          	8.846
MS.169         	26.457         	8.856
MS.170         	26.405         	8.832
MS.171         	26.352         	8.85
MS.172         	26.3           	8.79
MS.173         	26.247         	8.806
MS.174         	26.195         	8.838
MS.175         	26.142         	8.804
MS.176         	26.09          	8.776
MS.177         	26.037         	8.782
MS.178         	25.985         	8.766
MS.179         	25.932         	8.772
MS.180         	25.882         	8.786
MS.181         	25.83          	8.75
MS.182         	25.778         	8.743
MS.183         	25.727         	8.741
MS.184         	25.675         	8.741
MS.185         	25.625         	8.729
MS.186         	25.573         	8.723
MS.187         	25.522         	8.661
MS.188         	25.47          	8.669
MS.189         	25.42          	8.671
MS.190         	25.37          	8.649
MS.191         	25.317         	8.596
MS.192         	25.267         	8.613
MS.193         	25.217         	8.609
MS.194         	25.167         	8.58
MS.195         	25.118         	8.56
MS.196         	25.067         	8.586
MS.197         	25.017         	8.588
MS.198         	24.967         	8.532
MS.199         	24.917         	8.538
MS.200         	24.868         	8.498
MS.201         	24.817         	8.484
MS.202         	24.767         	8.48
MS.203         	24.717         	8.466
MS.204         	24.667         	8.455
MS.205         	24.62          	8.433
MS.206         	24.57          	8.433
MS.207         	24.52          	8.453
MS.208         	24.472         	8.413
MS.209         	24.422         	8.425
MS.210         	24.375         	8.415
MS.211         	24.325         	8.383
MS.212         	24.278         	8.393
MS.213         	24.227         	8.389
MS.214         	24.18          	8.377
MS.215         	24.132         	8.373
MS.216         	24.082         	8.367
MS.217         	24.035         	8.365
MS.218         	23.987         	8.337
MS.219         	23.94          	8.335
MS.220         	23.892         	8.316
MS.221         	23.845         	8.29
MS.222         	23.797         	8.325
MS.223         	23.747         	8.302
MS.224         	23.702         	8.27
MS.225         	23.655         	8.286
MS.226         	23.608         	8.286
MS.227         	23.56          	8.284
MS.228         	23.512         	8.264
MS.229         	23.465         	8.192
MS.230         	23.417         	8.236
MS.231         	23.372         	8.272
MS.232         	23.325         	8.177
MS.233         	23.278         	8.228
MS.234         	23.233         	8.208
MS.235         	23.185         	8.173
MS.236         	23.14          	8.173
MS.237         	23.092         	8.147
MS.238         	23.047         	8.147
MS.239         	23             	8.153
MS.240         	22.955         	8.127
MS.241         	22.91          	8.155
MS.242         	22.862         	8.103
MS.243         	22.817         	8.083
MS.244         	22.772         	8.091
MS.245         	22.727         	8.083
MS.246         	22.68          	8.089
MS.247         	22.635         	8.099
MS.248         	22.59          	8.087
MS.249         	22.545         	8.071
MS.250         	22.5           	8.057
MS.251         	22.455         	8.055
MS.252         	22.41          	8.034
MS.253         	22.365         	8.01
MS.254         	22.32          	8.028
MS.255         	22.278         	8.034
MS.256         	22.233         	7.996
MS.257         	22.188         	7.992
MS.258         	22.142         	7.982
MS.259         	22.1           	8.022
MS.260         	22.055         	8
MS.261         	22.01          	7.928
MS.262         	21.967         	7.96
MS.263         	21.922         	7.946
MS.264         	21.88          	7.924
MS.265         	21.835         	7.92
MS.266         	21.792         	7.918
MS.267         	21.747         	7.914
MS.268         	21.705         	7.887
MS.269         	21.663         	7.908
MS.270         	21.618         	7.877
MS.271         	21.575         	7.871
MS.272         	21.532         	7.883
MS.273         	21.487         	7.869
MS.274         	21.445         	7.809
MS.275         	21.403         	7.821
MS.276         	21.36          	7.811
MS.277         	21.317         	7.809
MS.278         	21.275         	7.777
MS.279         	21.233         	7.765
MS.280         	21.19          	7.777
MS.281         	21.147         	7.744
MS.282         	21.105         	7.706
MS.283         	21.062         	7.712
MS.284         	21.02          	7.702
MS.285         	20.98          	7.69
MS.286         	20.938         	7.72
MS.287         	20.895         	7.676
MS.288         	20.852         	7.648
MS.289         	20.812         	7.644
MS.290         	20.77          	7.634
MS.291         	20.73          	7.634
MS.292         	20.688         	7.626
MS.293         	20.645         	7.581
MS.294         	20.605         	7.591
MS.295         	20.562         	7.609
MS.296         	20.522         	7.567
MS.297         	20.483         	7.565
MS.298         	20.44          	7.565
MS.299         	20.4           	7.533
MS.300         	20.36          	7.537
MS.301         	20.317         	7.549
MS.302         	20.278         	7.503
MS.303         	20.237         	7.509
MS.304         	20.198         	7.523
MS.305         	20.157         	7.499
MS.306         	20.118         	7.521
MS.307         	20.075         	7.479
MS.308         	20.035         	7.489
MS.309         	19.995         	7.485
MS.310         	19.955         	7.402
MS.311         	19.915         	7.43
MS.312         	19.877         	7.475
MS.313         	19.837         	7.43
MS.314         	19.797         	7.414
MS.315         	19.757         	7.406
MS.316         	19.717         	7.378
MS.317         	19.677         	7.364
MS.318         	19.64          	7.376
MS.319         	19.6           	7.342
MS.320         	19.56          	7.332
MS.321         	19.522         	7.342
MS.322         	19.483         	7.285
MS.323         	19.445         	7.34
MS.324         	19.405         	7.297
MS.325         	19.365         	7.281
MS.326         	19.327         	7.257
MS.327         	19.29          	7.221
MS.328         	19.25          	7.273
MS.329         	19.212         	7.259
MS.330         	19.172         	7.235
MS.331         	19.135         	7.247
MS.332         	19.097         	7.195
MS.333         	19.06          	7.253
MS.334         	19.02          	7.203
MS.335         	18.983         	7.203
MS.336         	18.945         	7.211
MS.337         	18.907         	7.158
MS.338         	18.87          	7.16
MS.339         	18.833         	7.16
MS.340         	18.795         	7.191
MS.341         	18.757         	7.195
MS.342         	18.72          	7.199
MS.343         	18.682         	7.172
MS.344         	18.645         	7.174
MS.345         	18.608         	7.158
MS.346         	18.57          	7.15
MS.347         	18.532         	7.144
MS.348         	18.495         	7.124
MS.349         	18.458         	7.12
MS.350         	18.422         	7.094
MS.351         	18.385         	7.088
MS.352         	18.347         	7.09
MS.353         	18.312         	7.08
MS.354         	18.275         	7.09
MS.355         	18.237         	7.086
MS.356         	18.202         	7.029
MS.357         	18.165         	7.08
MS.358         	18.13          	6.999
MS.359         	18.092         	7.044
MS.360         	18.057         	7.005
MS.361         	18.02          	7.013
MS.362         	17.985         	6.997
MS.363         	17.95          	7.031
MS.364         	17.913         	7.005
MS.365         	17.878         	6.961
MS.366         	17.842         	6.957
MS.367         	17.805         	6.963
MS.368         	17.77          	6.965
MS.369         	17.735         	6.949
MS.370         	17.7           	6.921
MS.371         	17.665         	6.898
MS.372         	17.628         	6.941
MS.373         	17.592         	6.901
MS.374         	17.557         	6.888
MS.375         	17.522         	6.884
MS.376         	17.487         	6.86
MS.377         	17.452         	6.874
MS.378         	17.417         	6.878
MS.379         	17.382         	6.848
MS.380         	17.35          	6.884
MS.381         	17.315         	6.86
MS.382         	17.28          	6.894
MS.383         	17.245         	6.866
MS.384         	17.21          	6.824
MS.385         	17.177         	6.84
MS.386         	17.142         	6.79
MS.387         	17.108         	6.822
MS.388         	17.073         	6.786
MS.389         	17.04          	6.808
MS.390         	17.005         	6.778
MS.391         	16.972         	6.804
MS.392         	16.938         	6.77
MS.393         	16.903         	6.77
MS.394         	16.87          	6.786
MS.395         	16.835         	6.729
MS.396         	16.802         	6.731
MS.397         	16.77          	6.78
MS.398         	16.735         	6.727
MS.399         	16.702         	6.753
MS.400         	16.667         	6.709
MS.401         	16.635         	6.703
MS.402         	16.602         	6.733
MS.403         	16.57          	6.747
MS.404         	16.535         	6.727
MS.405         	16.503         	6.685
MS.406         	16.47          	6.671
MS.407         	16.438         	6.667
MS.408         	16.405         	6.637
MS.409         	16.372         	6.661
MS.410         	16.337         	6.608
MS.411         	16.305         	6.627
MS.412         	16.272         	6.629
MS.413         	16.24          	6.615
MS.414         	16.208         	6.598
MS.415         	16.175         	6.633
MS.416         	16.142         	6.544
MS.417         	16.112         	6.578
MS.418         	16.08          	6.57
MS.419         	16.047         	6.57
MS.420         	16.015         	6.528
MS.421         	15.983         	6.522
MS.422         	15.95          	6.556
MS.423         	15.92          	6.524
MS.424         	15.887         	6.534
MS.425         	15.855         	6.508
MS.426         	15.825         	6.443
MS.427         	15.792         	6.5
MS.428         	15.76          	6.461
MS.429         	15.73          	6.498
MS.430         	15.697         	6.471
MS.431         	15.667         	6.451
MS.432         	15.635         	6.443
MS.433         	15.605         	6.425
MS.434         	15.572         	6.421
MS.435         	15.542         	6.431
MS.436         	15.51          	6.435
MS.437         	15.48          	6.345
MS.438         	15.45          	6.393
MS.439         	15.417         	6.381
MS.440         	15.387         	6.369
MS.441         	15.358         	6.401
MS.442         	15.325         	6.371
MS.443         	15.295         	6.381
MS.444         	15.265         	6.379
MS.445         	15.235         	6.355
MS.446         	15.202         	6.375
MS.447         	15.172         	6.324
MS.448         	15.142         	6.316
MS.449         	15.112         	6.379
MS.450         	15.082         	6.345
MS.451         	15.052         	6.302
MS.452         	15.023         	6.335
MS.453         	14.992         	6.302
MS.454         	14.962         	6.296
MS.455         	14.932         	6.246
MS.456         	14.902         	6.242
MS.457         	14.872         	6.194
MS.458         	14.842         	6.226
MS.459         	14.812         	6.175
MS.460         	14.785         	6.218
MS.461         	14.755         	6.196
MS.462         	14.725         	6.151
MS.463         	14.695         	6.157
MS.464         	14.665         	6.151
MS.465         	14.637         	6.127
MS.466         	14.608         	6.109
MS.467         	14.577         	6.051
MS.468         	14.55          	6.057
MS.469         	14.52          	6.061
MS.470         	14.49          	6.059
MS.471         	14.462         	6.03
MS.472         	14.432         	6.051
MS.473         	14.405         	5.986
MS.474         	14.375         	6.002
MS.475         	14.347         	5.942
MS.476         	14.318         	5.994
MS.477         	14.29          	5.904
MS.478         	14.26          	5.897
MS.479         	14.233         	5.916
MS.480         	14.205         	5.853
MS.481         	14.175         	5.885
MS.482         	14.148         	5.805
MS.483         	14.12          	5.861
MS.484         	14.09          	5.867
MS.485         	14.062         	5.813
MS.486         	14.035         	5.801
MS.487         	14.007         	5.765
MS.488         	13.977         	5.783
MS.489         	13.95          	5.706
MS.490         	13.922         	5.716
MS.491         	13.895         	5.752
MS.492         	13.867         	5.71
MS.493         	13.84          	5.686
MS.494         	13.812         	5.684
MS.495         	13.785         	5.684
MS.496         	13.757         	5.702
MS.497         	13.73          	5.63
MS.498         	13.702         	5.65
MS.499         	13.675         	5.585
