File:              	C:\Qtrac\Data\Daniel M Sørensen\MScan multicentre study\Data from centres\Oslo\Processed data\SZC00707D.QZD
Name:              	NO.OSL.NC.22.2
Protocol:          	MSCAN-R2
Date:              	7/7/20
Start time:        	17:29:55
Age:               	23
Sex:               	F
Temperature:       	33.3
S/R sites:         	TA
NC/disease:        	NC22
Operator:          	SZ
Comments:          	Test2
M-SCAN DATA (7.1-2.3m)
Scanpts: 30, 43, 514, 518
Stim. (mA)     	Amp. (mV)
MS.1           	24.5           	7.39
MS.2           	24.5           	7.36
MS.3           	24.5           	7.35
MS.4           	24.5           	7.326
MS.5           	24.5           	7.313
MS.6           	24.5           	7.295
MS.7           	24.5           	7.326
MS.8           	24.5           	7.285
MS.9           	24.5           	7.315
MS.10          	24.5           	7.321
MS.11          	24.5           	7.267
MS.12          	24.5           	7.293
MS.13          	24.5           	7.285
MS.14          	24.5           	7.267
MS.15          	24.5           	7.259
MS.16          	24.5           	7.263
MS.17          	24.5           	7.279
MS.18          	24.5           	7.273
MS.19          	24.5           	7.277
MS.20          	24.5           	7.277
MS.21          	24.5           	7.251
MS.22          	24.5           	7.301
MS.23          	24.5           	7.344
MS.24          	24.403         	7.301
MS.25          	24.352         	7.285
MS.26          	24.305         	7.277
MS.27          	24.255         	7.275
MS.28          	24.207         	7.297
MS.29          	24.16          	7.317
MS.30          	24.11          	7.273
MS.31          	24.062         	7.301
MS.32          	24.015         	7.319
MS.33          	23.967         	7.293
MS.34          	23.92          	7.273
MS.35          	23.87          	7.247
MS.36          	23.823         	7.279
MS.37          	23.775         	7.323
MS.38          	23.727         	7.289
MS.39          	23.68          	7.267
MS.40          	23.632         	7.301
MS.41          	23.587         	7.303
MS.42          	23.54          	7.295
MS.43          	23.493         	7.271
MS.44          	23.445         	7.321
MS.45          	23.397         	7.295
MS.46          	23.352         	7.265
MS.47          	23.305         	7.305
MS.48          	23.257         	7.311
MS.49          	23.212         	7.267
MS.50          	23.165         	7.295
MS.51          	23.12          	7.299
MS.52          	23.073         	7.287
MS.53          	23.028         	7.287
MS.54          	22.98          	7.305
MS.55          	22.935         	7.267
MS.56          	22.89          	7.291
MS.57          	22.842         	7.291
MS.58          	22.797         	7.279
MS.59          	22.752         	7.275
MS.60          	22.707         	7.271
MS.61          	22.663         	7.267
MS.62          	22.618         	7.291
MS.63          	22.57          	7.277
MS.64          	22.525         	7.237
MS.65          	22.48          	7.277
MS.66          	22.435         	7.239
MS.67          	22.39          	7.247
MS.68          	22.347         	7.237
MS.69          	22.302         	7.219
MS.70          	22.257         	7.233
MS.71          	22.212         	7.261
MS.72          	22.167         	7.217
MS.73          	22.125         	7.235
MS.74          	22.08          	7.18
MS.75          	22.035         	7.239
MS.76          	21.993         	7.203
MS.77          	21.948         	7.221
MS.78          	21.905         	7.261
MS.79          	21.86          	7.172
MS.80          	21.817         	7.176
MS.81          	21.772         	7.164
MS.82          	21.73          	7.197
MS.83          	21.685         	7.187
MS.84          	21.642         	7.18
MS.85          	21.6           	7.172
MS.86          	21.557         	7.217
MS.87          	21.512         	7.158
MS.88          	21.47          	7.168
MS.89          	21.427         	7.221
MS.90          	21.385         	7.17
MS.91          	21.342         	7.154
MS.92          	21.3           	7.128
MS.93          	21.257         	7.1
MS.94          	21.215         	7.118
MS.95          	21.172         	7.114
MS.96          	21.13          	7.104
MS.97          	21.087         	7.14
MS.98          	21.045         	7.104
MS.99          	21.002         	6.971
MS.100         	20.96          	7.058
MS.101         	20.92          	6.963
MS.102         	20.877         	7.096
MS.103         	20.835         	7.088
MS.104         	20.795         	7.072
MS.105         	20.752         	6.961
MS.106         	20.71          	6.935
MS.107         	20.67          	6.927
MS.108         	20.627         	6.975
MS.109         	20.587         	6.947
MS.110         	20.545         	7.005
MS.111         	20.505         	6.85
MS.112         	20.465         	6.965
MS.113         	20.422         	6.921
MS.114         	20.382         	6.911
MS.115         	20.342         	6.832
MS.116         	20.3           	6.923
MS.117         	20.26          	6.896
MS.118         	20.22          	6.784
MS.119         	20.18          	6.749
MS.120         	20.14          	6.806
MS.121         	20.1           	6.858
MS.122         	20.06          	6.868
MS.123         	20.017         	6.798
MS.124         	19.977         	6.782
MS.125         	19.94          	6.758
MS.126         	19.9           	6.635
MS.127         	19.86          	6.723
MS.128         	19.82          	6.703
MS.129         	19.78          	6.727
MS.130         	19.74          	6.558
MS.131         	19.7           	6.709
MS.132         	19.663         	6.552
MS.133         	19.622         	6.582
MS.134         	19.583         	6.598
MS.135         	19.545         	6.5
MS.136         	19.505         	6.526
MS.137         	19.465         	6.582
MS.138         	19.427         	6.643
MS.139         	19.387         	6.524
MS.140         	19.35          	6.514
MS.141         	19.31          	6.459
MS.142         	19.272         	6.544
MS.143         	19.235         	6.429
MS.144         	19.195         	6.399
MS.145         	19.157         	6.318
MS.146         	19.118         	6.407
MS.147         	19.08          	6.443
MS.148         	19.042         	6.48
MS.149         	19.005         	6.409
MS.150         	18.967         	6.387
MS.151         	18.927         	6.262
MS.152         	18.89          	6.401
MS.153         	18.852         	6.379
MS.154         	18.815         	6.314
MS.155         	18.778         	6.355
MS.156         	18.74          	6.306
MS.157         	18.702         	6.341
MS.158         	18.665         	6.21
MS.159         	18.628         	6.26
MS.160         	18.59          	6.22
MS.161         	18.552         	6.185
MS.162         	18.517         	6.242
MS.163         	18.48          	6.192
MS.164         	18.442         	6.238
MS.165         	18.405         	6.171
MS.166         	18.37          	6.165
MS.167         	18.333         	6.129
MS.168         	18.295         	6.163
MS.169         	18.26          	6.079
MS.170         	18.222         	6.095
MS.171         	18.188         	6.155
MS.172         	18.15          	6.085
MS.173         	18.112         	6.057
MS.174         	18.077         	5.952
MS.175         	18.042         	5.984
MS.176         	18.005         	6.036
MS.177         	17.97          	5.994
MS.178         	17.932         	6.006
MS.179         	17.897         	6.04
MS.180         	17.862         	5.942
MS.181         	17.825         	5.976
MS.182         	17.79          	5.958
MS.183         	17.755         	5.928
MS.184         	17.72          	5.899
MS.185         	17.685         	5.833
MS.186         	17.65          	5.98
MS.187         	17.612         	5.811
MS.188         	17.577         	5.946
MS.189         	17.542         	5.821
MS.190         	17.507         	5.728
MS.191         	17.472         	5.791
MS.192         	17.438         	5.754
MS.193         	17.403         	5.839
MS.194         	17.368         	5.69
MS.195         	17.335         	5.632
MS.196         	17.3           	5.763
MS.197         	17.265         	5.66
MS.198         	17.23          	5.636
MS.199         	17.195         	5.557
MS.200         	17.163         	5.535
MS.201         	17.128         	5.624
MS.202         	17.092         	5.505
MS.203         	17.06          	5.495
MS.204         	17.025         	5.43
MS.205         	16.99          	5.531
MS.206         	16.958         	5.307
MS.207         	16.922         	5.358
MS.208         	16.89          	5.259
MS.209         	16.855         	5.231
MS.210         	16.823         	5.305
MS.211         	16.788         	5.227
MS.212         	16.755         	5.299
MS.213         	16.72          	5.229
MS.214         	16.688         	5.253
MS.215         	16.655         	5.114
MS.216         	16.62          	5.142
MS.217         	16.587         	5.094
MS.218         	16.555         	5.09
MS.219         	16.522         	5.019
MS.220         	16.487         	5.225
MS.221         	16.455         	5.124
MS.222         	16.422         	4.985
MS.223         	16.39          	5.056
MS.224         	16.358         	5.033
MS.225         	16.325         	4.953
MS.226         	16.292         	4.909
MS.227         	16.26          	4.866
MS.228         	16.227         	4.939
MS.229         	16.195         	4.862
MS.230         	16.163         	4.824
MS.231         	16.13          	4.832
MS.232         	16.097         	4.832
MS.233         	16.065         	4.848
MS.234         	16.032         	4.788
MS.235         	16.003         	4.713
MS.236         	15.97          	4.78
MS.237         	15.938         	4.745
MS.238         	15.905         	4.743
MS.239         	15.875         	4.665
MS.240         	15.842         	4.616
MS.241         	15.81          	4.643
MS.242         	15.78          	4.57
MS.243         	15.747         	4.512
MS.244         	15.715         	4.532
MS.245         	15.685         	4.516
MS.246         	15.652         	4.544
MS.247         	15.622         	4.504
MS.248         	15.59          	4.363
MS.249         	15.56          	4.33
MS.250         	15.527         	4.475
MS.251         	15.497         	4.421
MS.252         	15.467         	4.324
MS.253         	15.435         	4.298
MS.254         	15.405         	4.21
MS.255         	15.375         	4.21
MS.256         	15.342         	4.302
MS.257         	15.312         	4.286
MS.258         	15.282         	4.232
MS.259         	15.252         	4.147
MS.260         	15.22          	4.145
MS.261         	15.19          	4.125
MS.262         	15.16          	4.103
MS.263         	15.13          	4.143
MS.264         	15.1           	3.885
MS.265         	15.07          	4.016
MS.266         	15.04          	3.954
MS.267         	15.01          	3.787
MS.268         	14.98          	3.914
MS.269         	14.95          	3.839
MS.270         	14.92          	3.803
MS.271         	14.89          	3.829
MS.272         	14.86          	3.728
MS.273         	14.83          	3.773
MS.274         	14.8           	3.69
MS.275         	14.77          	3.688
MS.276         	14.742         	3.569
MS.277         	14.712         	3.672
MS.278         	14.682         	3.434
MS.279         	14.652         	3.398
MS.280         	14.625         	3.37
MS.281         	14.595         	3.243
MS.282         	14.565         	3.378
MS.283         	14.537         	3.372
MS.284         	14.507         	3.295
MS.285         	14.477         	3.45
MS.286         	14.45          	3.136
MS.287         	14.42          	3.223
MS.288         	14.392         	3.082
MS.289         	14.362         	3.057
MS.290         	14.335         	3.152
MS.291         	14.305         	3.09
MS.292         	14.278         	3.102
MS.293         	14.247         	3.118
MS.294         	14.22          	3.021
MS.295         	14.193         	3.025
MS.296         	14.162         	2.921
MS.297         	14.135         	2.947
MS.298         	14.108         	2.858
MS.299         	14.08          	2.854
MS.300         	14.05          	2.991
MS.301         	14.023         	2.864
MS.302         	13.995         	2.919
MS.303         	13.967         	2.767
MS.304         	13.938         	2.725
MS.305         	13.91          	2.637
MS.306         	13.882         	2.703
MS.307         	13.855         	2.643
MS.308         	13.827         	2.729
MS.309         	13.8           	2.616
MS.310         	13.773         	2.596
MS.311         	13.745         	2.502
MS.312         	13.717         	2.624
MS.313         	13.69          	2.616
MS.314         	13.662         	2.451
MS.315         	13.635         	2.451
MS.316         	13.608         	2.439
MS.317         	13.58          	2.413
MS.318         	13.555         	2.351
MS.319         	13.528         	2.34
MS.320         	13.5           	2.334
MS.321         	13.472         	2.244
MS.322         	13.445         	2.27
MS.323         	13.42          	2.177
MS.324         	13.392         	2.28
MS.325         	13.365         	2.226
MS.326         	13.337         	2.302
MS.327         	13.312         	2.165
MS.328         	13.285         	2.149
MS.329         	13.26          	2.054
MS.330         	13.233         	1.99
MS.331         	13.205         	2.183
MS.332         	13.18          	1.922
MS.333         	13.153         	1.982
MS.334         	13.127         	2.075
MS.335         	13.1           	2.026
MS.336         	13.075         	1.956
MS.337         	13.047         	2.042
MS.338         	13.023         	1.992
MS.339         	12.997         	1.839
MS.340         	12.97          	1.909
MS.341         	12.945         	1.821
MS.342         	12.917         	1.919
MS.343         	12.892         	1.829
MS.344         	12.867         	1.803
MS.345         	12.842         	1.861
MS.346         	12.815         	1.68
MS.347         	12.79          	1.847
MS.348         	12.765         	1.817
MS.349         	12.74          	1.774
MS.350         	12.712         	1.656
MS.351         	12.688         	1.66
MS.352         	12.662         	1.662
MS.353         	12.637         	1.603
MS.354         	12.613         	1.656
MS.355         	12.587         	1.565
MS.356         	12.562         	1.505
MS.357         	12.537         	1.601
MS.358         	12.512         	1.505
MS.359         	12.488         	1.476
MS.360         	12.462         	1.448
MS.361         	12.438         	1.349
MS.362         	12.412         	1.382
MS.363         	12.387         	1.47
MS.364         	12.363         	1.261
MS.365         	12.337         	1.245
MS.366         	12.312         	1.168
MS.367         	12.287         	1.372
MS.368         	12.265         	1.223
MS.369         	12.24          	1.15
MS.370         	12.215         	1.211
MS.371         	12.19          	1.182
MS.372         	12.167         	1.154
MS.373         	12.142         	1.176
MS.374         	12.117         	1.128
MS.375         	12.092         	1.078
MS.376         	12.07          	1.164
MS.377         	12.045         	1.082
MS.378         	12.02          	1.019
MS.379         	11.997         	0.906
MS.380         	11.972         	0.971
MS.381         	11.95          	1.033
MS.382         	11.925         	0.977
MS.383         	11.903         	0.999
MS.384         	11.877         	0.961
MS.385         	11.855         	0.91
MS.386         	11.83          	0.906
MS.387         	11.807         	0.894
MS.388         	11.782         	0.935
MS.389         	11.76          	0.894
MS.390         	11.735         	0.878
MS.391         	11.712         	0.842
MS.392         	11.69          	0.914
MS.393         	11.665         	0.802
MS.394         	11.642         	0.828
MS.395         	11.62          	0.771
MS.396         	11.595         	0.779
MS.397         	11.572         	0.757
MS.398         	11.55          	0.86
MS.399         	11.528         	0.741
MS.400         	11.502         	0.719
MS.401         	11.48          	0.703
MS.402         	11.457         	0.655
MS.403         	11.435         	0.693
MS.404         	11.412         	0.643
MS.405         	11.39          	0.624
MS.406         	11.367         	0.602
MS.407         	11.345         	0.721
MS.408         	11.32          	0.602
MS.409         	11.297         	0.548
MS.410         	11.275         	0.659
MS.411         	11.252         	0.548
MS.412         	11.23          	0.467
MS.413         	11.207         	0.512
MS.414         	11.185         	0.574
MS.415         	11.162         	0.544
MS.416         	11.142         	0.54
MS.417         	11.12          	0.491
MS.418         	11.097         	0.481
MS.419         	11.075         	0.51
MS.420         	11.052         	0.429
MS.421         	11.03          	0.506
MS.422         	11.007         	0.51
MS.423         	10.988         	0.361
MS.424         	10.965         	0.425
MS.425         	10.943         	0.391
MS.426         	10.92          	0.439
MS.427         	10.9           	0.35
MS.428         	10.877         	0.411
MS.429         	10.855         	0.417
MS.430         	10.835         	0.421
MS.431         	10.812         	0.373
MS.432         	10.79          	0.361
MS.433         	10.77          	0.328
MS.434         	10.747         	0.399
MS.435         	10.725         	0.338
MS.436         	10.705         	0.397
MS.437         	10.682         	0.357
MS.438         	10.662         	0.33
MS.439         	10.64          	0.338
MS.440         	10.62          	0.274
MS.441         	10.597         	0.348
MS.442         	10.577         	0.32
MS.443         	10.555         	0.314
MS.444         	10.535         	0.298
MS.445         	10.512         	0.332
MS.446         	10.492         	0.288
MS.447         	10.472         	0.328
MS.448         	10.45          	0.262
MS.449         	10.43          	0.282
MS.450         	10.41          	0.276
MS.451         	10.387         	0.308
MS.452         	10.367         	0.258
MS.453         	10.347         	0.278
MS.454         	10.325         	0.258
MS.455         	10.305         	0.292
MS.456         	10.285         	0.236
MS.457         	10.265         	0.254
MS.458         	10.245         	0.264
MS.459         	10.222         	0.222
MS.460         	10.202         	0.26
MS.461         	10.182         	0.258
MS.462         	10.162         	0.242
MS.463         	10.142         	0.244
MS.464         	10.122         	0.256
MS.465         	10.102         	0.264
MS.466         	10.08          	0.236
MS.467         	10.06          	0.24
MS.468         	10.04          	0.224
MS.469         	10.02          	0.226
MS.470         	10             	0.226
MS.471         	9.98           	0.238
MS.472         	9.96           	0.209
MS.473         	9.94           	0.224
MS.474         	9.92           	0.195
MS.475         	9.903          	0.224
MS.476         	9.882          	0.238
MS.477         	9.863          	0.228
MS.478         	9.842          	0.234
MS.479         	9.823          	0.236
MS.480         	9.802          	0.218
MS.481         	9.782          	0.211
MS.482         	9.762          	0.195
MS.483         	9.745          	0.211
MS.484         	9.725          	0.23
MS.485         	9.705          	0.228
MS.486         	9.685          	0.23
MS.487         	9.667          	0.193
MS.488         	9.648          	0.205
MS.489         	9.627          	0.211
MS.490         	9.608          	0.22
MS.491         	9.59           	0.222
MS.492         	9.57           	0.193
MS.493         	9.55           	0.22
MS.494         	9.532          	0.22
MS.495         	9.512          	0.222
MS.496         	9.495          	0.189
MS.497         	9.475          	0.216
MS.498         	9.455          	0.224
MS.499         	9.438          	0.177
MS.500         	9.417          	0.189
MS.501         	9.4            	0.183
