File:              	C:\Qtrac\Data\Daniel M Sørensen\MScan multicentre study\Data from centres\Oslo\IronKey\Oslo_NC_first examination\SZC00428D.QZD
Name:              	NO.OSL.NC.2.1
Protocol:          	MSCAN-R2
Date:              	28/4/20
Start time:        	12:39:30
Age:               	41
Sex:               	F
Temperature:       	31.7
S/R sites:         	Peronea -TA
NC/disease:        	NC
Operator:          	SZ
Comments:          	Control2.1
M-SCAN DATA (9-3m)
Scanpts: 37, 42, 579, 584
Stim. (mA)     	Amp. (mV)
MS.1           	30.5           	8.913
MS.2           	30.5           	8.927
MS.3           	30.5           	8.917
MS.4           	30.5           	8.874
MS.5           	30.5           	8.87
MS.6           	30.5           	8.854
MS.7           	30.5           	8.866
MS.8           	30.5           	8.888
MS.9           	30.5           	8.862
MS.10          	30.5           	8.886
MS.11          	30.5           	8.884
MS.12          	30.5           	8.893
MS.13          	30.5           	8.838
MS.14          	30.5           	8.891
MS.15          	30.5           	8.882
MS.16          	30.5           	8.884
MS.17          	30.5           	8.888
MS.18          	30.5           	8.905
MS.19          	30.5           	8.893
MS.20          	30.5           	8.87
MS.21          	30.5           	8.893
MS.22          	30.5           	8.893
MS.23          	30.377         	8.868
MS.24          	30.317         	8.876
MS.25          	30.257         	8.923
MS.26          	30.198         	8.901
MS.27          	30.135         	8.882
MS.28          	30.075         	8.891
MS.29          	30.015         	8.895
MS.30          	29.955         	8.888
MS.31          	29.895         	8.933
MS.32          	29.835         	8.897
MS.33          	29.778         	8.923
MS.34          	29.717         	8.929
MS.35          	29.657         	8.888
MS.36          	29.597         	8.913
MS.37          	29.54          	8.888
MS.38          	29.48          	8.878
MS.39          	29.422         	8.905
MS.40          	29.362         	8.884
MS.41          	29.305         	8.903
MS.42          	29.245         	8.909
MS.43          	29.188         	8.927
MS.44          	29.127         	8.935
MS.45          	29.07          	8.907
MS.46          	29.012         	8.919
MS.47          	28.955         	8.886
MS.48          	28.897         	8.911
MS.49          	28.84          	8.905
MS.50          	28.78          	8.931
MS.51          	28.722         	8.925
MS.52          	28.667         	8.919
MS.53          	28.61          	8.947
MS.54          	28.552         	8.921
MS.55          	28.495         	8.921
MS.56          	28.438         	8.923
MS.57          	28.38          	8.901
MS.58          	28.325         	8.915
MS.59          	28.267         	8.895
MS.60          	28.212         	8.911
MS.61          	28.155         	8.87
MS.62          	28.097         	8.86
MS.63          	28.042         	8.913
MS.64          	27.987         	8.882
MS.65          	27.93          	8.848
MS.66          	27.875         	8.888
MS.67          	27.82          	8.917
MS.68          	27.762         	8.858
MS.69          	27.707         	8.891
MS.70          	27.653         	8.878
MS.71          	27.597         	8.886
MS.72          	27.542         	8.88
MS.73          	27.487         	8.87
MS.74          	27.432         	8.876
MS.75          	27.377         	8.83
MS.76          	27.323         	8.874
MS.77          	27.267         	8.858
MS.78          	27.215         	8.878
MS.79          	27.16          	8.862
MS.80          	27.105         	8.818
MS.81          	27.05          	8.77
MS.82          	26.997         	8.812
MS.83          	26.942         	8.8
MS.84          	26.89          	8.76
MS.85          	26.835         	8.82
MS.86          	26.782         	8.792
MS.87          	26.727         	8.796
MS.88          	26.675         	8.794
MS.89          	26.622         	8.798
MS.90          	26.567         	8.766
MS.91          	26.515         	8.735
MS.92          	26.462         	8.772
MS.93          	26.41          	8.786
MS.94          	26.358         	8.828
MS.95          	26.305         	8.727
MS.96          	26.252         	8.745
MS.97          	26.2           	8.75
MS.98          	26.147         	8.729
MS.99          	26.095         	8.772
MS.100         	26.042         	8.77
MS.101         	25.99          	8.715
MS.102         	25.938         	8.685
MS.103         	25.887         	8.687
MS.104         	25.835         	8.735
MS.105         	25.782         	8.727
MS.106         	25.733         	8.737
MS.107         	25.68          	8.764
MS.108         	25.63          	8.766
MS.109         	25.577         	8.723
MS.110         	25.528         	8.699
MS.111         	25.475         	8.655
MS.112         	25.425         	8.717
MS.113         	25.375         	8.651
MS.114         	25.323         	8.635
MS.115         	25.272         	8.655
MS.116         	25.222         	8.659
MS.117         	25.172         	8.643
MS.118         	25.122         	8.669
MS.119         	25.073         	8.602
MS.120         	25.02          	8.643
MS.121         	24.97          	8.627
MS.122         	24.922         	8.617
MS.123         	24.872         	8.566
MS.124         	24.823         	8.437
MS.125         	24.772         	8.576
MS.126         	24.722         	8.447
MS.127         	24.672         	8.5
MS.128         	24.625         	8.49
MS.129         	24.575         	8.443
MS.130         	24.525         	8.423
MS.131         	24.477         	8.407
MS.132         	24.427         	8.441
MS.133         	24.38          	8.534
MS.134         	24.33          	8.383
MS.135         	24.282         	8.351
MS.136         	24.233         	8.361
MS.137         	24.185         	8.298
MS.138         	24.137         	8.383
MS.139         	24.087         	8.222
MS.140         	24.04          	8.32
MS.141         	23.993         	8.288
MS.142         	23.945         	8.268
MS.143         	23.897         	8.238
MS.144         	23.847         	8.03
MS.145         	23.8           	8.254
MS.146         	23.752         	8.266
MS.147         	23.705         	8.177
MS.148         	23.657         	7.992
MS.149         	23.61          	8.314
MS.150         	23.565         	8.075
MS.151         	23.517         	8.21
MS.152         	23.47          	8.024
MS.153         	23.422         	8.047
MS.154         	23.377         	8.049
MS.155         	23.33          	8.028
MS.156         	23.282         	8.028
MS.157         	23.237         	8.113
MS.158         	23.19          	8.016
MS.159         	23.142         	8.095
MS.160         	23.097         	8.095
MS.161         	23.052         	7.906
MS.162         	23.005         	8.071
MS.163         	22.96          	7.843
MS.164         	22.913         	7.841
MS.165         	22.868         	7.891
MS.166         	22.823         	7.692
MS.167         	22.778         	8.041
MS.168         	22.73          	7.809
MS.169         	22.685         	7.698
MS.170         	22.64          	7.493
MS.171         	22.595         	7.487
MS.172         	22.55          	7.65
MS.173         	22.505         	7.503
MS.174         	22.46          	7.757
MS.175         	22.415         	7.475
MS.176         	22.37          	7.527
MS.177         	22.325         	7.65
MS.178         	22.28          	7.487
MS.179         	22.235         	7.33
MS.180         	22.192         	7.384
MS.181         	22.147         	7.418
MS.182         	22.102         	7.162
MS.183         	22.06          	7.291
MS.184         	22.015         	7.376
MS.185         	21.97          	7.199
MS.186         	21.927         	7.257
MS.187         	21.882         	7.187
MS.188         	21.84          	7.158
MS.189         	21.795         	7.132
MS.190         	21.752         	7.035
MS.191         	21.71          	7.104
MS.192         	21.665         	7.005
MS.193         	21.622         	6.911
MS.194         	21.58          	6.993
MS.195         	21.535         	6.989
MS.196         	21.493         	7.086
MS.197         	21.45          	6.868
MS.198         	21.407         	6.981
MS.199         	21.365         	7.021
MS.200         	21.323         	6.911
MS.201         	21.28          	6.915
MS.202         	21.237         	6.772
MS.203         	21.195         	6.764
MS.204         	21.153         	6.739
MS.205         	21.11          	6.792
MS.206         	21.067         	6.653
MS.207         	21.025         	6.637
MS.208         	20.983         	6.639
MS.209         	20.942         	6.594
MS.210         	20.9           	6.272
MS.211         	20.858         	6.3
MS.212         	20.815         	6.302
MS.213         	20.775         	6.61
MS.214         	20.733         	6.56
MS.215         	20.692         	6.331
MS.216         	20.65          	6.455
MS.217         	20.61          	6.407
MS.218         	20.567         	6.266
MS.219         	20.528         	6.27
MS.220         	20.485         	6.26
MS.221         	20.445         	6.198
MS.222         	20.405         	6.105
MS.223         	20.362         	6.169
MS.224         	20.323         	6.038
MS.225         	20.282         	6.107
MS.226         	20.243         	6.163
MS.227         	20.2           	6.049
MS.228         	20.16          	6.169
MS.229         	20.12          	6
MS.230         	20.08          	6.133
MS.231         	20.04          	5.986
MS.232         	20             	6.071
MS.233         	19.96          	5.895
MS.234         	19.92          	5.994
MS.235         	19.88          	5.871
MS.236         	19.84          	5.829
MS.237         	19.8           	5.986
MS.238         	19.76          	5.821
MS.239         	19.722         	5.968
MS.240         	19.682         	5.833
MS.241         	19.642         	5.752
MS.242         	19.605         	5.718
MS.243         	19.565         	5.63
MS.244         	19.525         	5.708
MS.245         	19.487         	5.678
MS.246         	19.448         	5.72
MS.247         	19.407         	5.567
MS.248         	19.37          	5.714
MS.249         	19.33          	5.585
MS.250         	19.292         	5.539
MS.251         	19.255         	5.708
MS.252         	19.215         	5.571
MS.253         	19.177         	5.382
MS.254         	19.14          	5.615
MS.255         	19.1           	5.436
MS.256         	19.062         	5.45
MS.257         	19.025         	5.34
MS.258         	18.987         	5.384
MS.259         	18.948         	5.277
MS.260         	18.91          	5.295
MS.261         	18.872         	5.414
MS.262         	18.835         	5.315
MS.263         	18.797         	5.205
MS.264         	18.76          	5.293
MS.265         	18.722         	5.128
MS.266         	18.685         	5.199
MS.267         	18.647         	5.124
MS.268         	18.61          	5.184
MS.269         	18.573         	5.088
MS.270         	18.535         	5.019
MS.271         	18.5           	5.176
MS.272         	18.462         	5.068
MS.273         	18.425         	5.031
MS.274         	18.387         	4.977
MS.275         	18.352         	4.902
MS.276         	18.315         	5.011
MS.277         	18.278         	5.019
MS.278         	18.243         	4.826
MS.279         	18.205         	4.874
MS.280         	18.17          	4.788
MS.281         	18.132         	4.741
MS.282         	18.097         	4.627
MS.283         	18.06          	4.792
MS.284         	18.025         	4.683
MS.285         	17.987         	4.741
MS.286         	17.952         	4.759
MS.287         	17.917         	4.701
MS.288         	17.88          	4.526
MS.289         	17.845         	4.558
MS.290         	17.81          	4.341
MS.291         	17.772         	4.32
MS.292         	17.737         	4.576
MS.293         	17.702         	4.506
MS.294         	17.667         	4.332
MS.295         	17.632         	4.328
MS.296         	17.597         	4.099
MS.297         	17.562         	4.222
MS.298         	17.528         	4.242
MS.299         	17.493         	4.181
MS.300         	17.458         	4.117
MS.301         	17.422         	3.936
MS.302         	17.387         	4.191
MS.303         	17.352         	4.181
MS.304         	17.317         	3.926
MS.305         	17.282         	3.974
MS.306         	17.247         	3.799
MS.307         	17.215         	3.861
MS.308         	17.18          	3.801
MS.309         	17.145         	3.672
MS.310         	17.11          	3.926
MS.311         	17.077         	3.877
MS.312         	17.042         	3.583
MS.313         	17.007         	3.754
MS.314         	16.975         	3.476
MS.315         	16.94          	3.658
MS.316         	16.907         	3.482
MS.317         	16.872         	3.482
MS.318         	16.84          	3.497
MS.319         	16.805         	3.382
MS.320         	16.772         	3.233
MS.321         	16.737         	3.41
MS.322         	16.705         	3.456
MS.323         	16.672         	3.104
MS.324         	16.637         	3.529
MS.325         	16.605         	3.245
MS.326         	16.573         	3.196
MS.327         	16.54          	3.237
MS.328         	16.505         	3.432
MS.329         	16.472         	3.36
MS.330         	16.44          	3.188
MS.331         	16.407         	3.207
MS.332         	16.375         	3.031
MS.333         	16.342         	3.136
MS.334         	16.31          	3.011
MS.335         	16.278         	2.997
MS.336         	16.245         	2.971
MS.337         	16.212         	3.088
MS.338         	16.18          	2.788
MS.339         	16.147         	2.939
MS.340         	16.115         	2.876
MS.341         	16.083         	2.943
MS.342         	16.05          	3.098
MS.343         	16.017         	2.951
MS.344         	15.985         	2.844
MS.345         	15.955         	2.878
MS.346         	15.922         	2.796
MS.347         	15.89          	2.679
MS.348         	15.86          	2.709
MS.349         	15.827         	2.667
MS.350         	15.795         	2.564
MS.351         	15.765         	2.649
MS.352         	15.733         	2.606
MS.353         	15.7           	2.586
MS.354         	15.67          	2.54
MS.355         	15.637         	2.572
MS.356         	15.608         	2.508
MS.357         	15.575         	2.612
MS.358         	15.545         	2.451
MS.359         	15.512         	2.465
MS.360         	15.483         	2.421
MS.361         	15.452         	2.487
MS.362         	15.42          	2.439
MS.363         	15.39          	2.423
MS.364         	15.36          	2.371
MS.365         	15.327         	2.322
MS.366         	15.297         	2.29
MS.367         	15.267         	2.417
MS.368         	15.237         	2.371
MS.369         	15.207         	2.387
MS.370         	15.175         	2.22
MS.371         	15.145         	2.083
MS.372         	15.115         	2.326
MS.373         	15.085         	2.224
MS.374         	15.055         	2.173
MS.375         	15.025         	2.165
MS.376         	14.995         	2.091
MS.377         	14.965         	2.244
MS.378         	14.935         	2.141
MS.379         	14.905         	2.137
MS.380         	14.875         	2.062
MS.381         	14.845         	2.181
MS.382         	14.815         	1.94
MS.383         	14.787         	2.012
MS.384         	14.757         	1.99
MS.385         	14.727         	1.95
MS.386         	14.697         	2.03
MS.387         	14.67          	1.938
MS.388         	14.64          	1.867
MS.389         	14.61          	2.036
MS.390         	14.58          	1.883
MS.391         	14.552         	1.825
MS.392         	14.523         	1.841
MS.393         	14.495         	1.781
MS.394         	14.465         	1.75
MS.395         	14.435         	1.66
MS.396         	14.407         	1.766
MS.397         	14.377         	1.706
MS.398         	14.35          	1.642
MS.399         	14.32          	1.712
MS.400         	14.292         	1.662
MS.401         	14.265         	1.583
MS.402         	14.235         	1.64
MS.403         	14.207         	1.607
MS.404         	14.177         	1.587
MS.405         	14.15          	1.581
MS.406         	14.122         	1.519
MS.407         	14.092         	1.476
MS.408         	14.065         	1.505
MS.409         	14.037         	1.559
MS.410         	14.01          	1.553
MS.411         	13.983         	1.46
MS.412         	13.952         	1.533
MS.413         	13.925         	1.466
MS.414         	13.898         	1.454
MS.415         	13.87          	1.374
MS.416         	13.842         	1.323
MS.417         	13.815         	1.384
MS.418         	13.787         	1.402
MS.419         	13.76          	1.458
MS.420         	13.733         	1.39
MS.421         	13.705         	1.356
MS.422         	13.677         	1.384
MS.423         	13.65          	1.309
MS.424         	13.622         	1.239
MS.425         	13.595         	1.406
MS.426         	13.568         	1.354
MS.427         	13.54          	1.301
MS.428         	13.515         	1.291
MS.429         	13.487         	1.196
MS.430         	13.46          	1.18
MS.431         	13.432         	1.184
MS.432         	13.407         	1.237
MS.433         	13.38          	1.13
MS.434         	13.352         	1.084
MS.435         	13.325         	1.198
MS.436         	13.3           	1.074
MS.437         	13.273         	1.088
MS.438         	13.247         	1.104
MS.439         	13.22          	1.221
MS.440         	13.193         	1.015
MS.441         	13.167         	1.033
MS.442         	13.14          	0.947
MS.443         	13.115         	1.045
MS.444         	13.087         	0.943
MS.445         	13.062         	0.997
MS.446         	13.035         	0.941
MS.447         	13.01          	0.953
MS.448         	12.985         	1.059
MS.449         	12.957         	0.961
MS.450         	12.932         	0.878
MS.451         	12.907         	0.882
MS.452         	12.88          	0.884
MS.453         	12.855         	0.886
MS.454         	12.83          	0.82
MS.455         	12.802         	0.8
MS.456         	12.778         	0.784
MS.457         	12.752         	0.767
MS.458         	12.727         	0.775
MS.459         	12.702         	0.739
MS.460         	12.675         	0.719
MS.461         	12.65          	0.705
MS.462         	12.625         	0.657
MS.463         	12.6           	0.628
MS.464         	12.575         	0.665
MS.465         	12.55          	0.673
MS.466         	12.525         	0.661
MS.467         	12.5           	0.602
MS.468         	12.475         	0.657
MS.469         	12.45          	0.576
MS.470         	12.425         	0.58
MS.471         	12.4           	0.624
MS.472         	12.375         	0.636
MS.473         	12.35          	0.57
MS.474         	12.325         	0.57
MS.475         	12.302         	0.554
MS.476         	12.278         	0.546
MS.477         	12.252         	0.506
MS.478         	12.227         	0.526
MS.479         	12.202         	0.457
MS.480         	12.18          	0.542
MS.481         	12.155         	0.514
MS.482         	12.13          	0.495
MS.483         	12.108         	0.489
MS.484         	12.082         	0.493
MS.485         	12.057         	0.502
MS.486         	12.035         	0.485
MS.487         	12.01          	0.387
MS.488         	11.985         	0.451
MS.489         	11.962         	0.518
MS.490         	11.938         	0.497
MS.491         	11.915         	0.391
MS.492         	11.89          	0.433
MS.493         	11.867         	0.502
MS.494         	11.842         	0.409
MS.495         	11.82          	0.463
MS.496         	11.795         	0.425
MS.497         	11.773         	0.369
MS.498         	11.747         	0.413
MS.499         	11.725         	0.308
MS.500         	11.702         	0.413
