File:              	C:\Qtrac\Data\Daniel M Sørensen\MScan multicentre study\Data from centres\Oslo\Processed data\SZC00714D.QZD
Name:              	NO.OSL.NC.23.2
Protocol:          	MSCAN-R2
Date:              	14/7/20
Start time:        	16:07:44
Age:               	35
Sex:               	F
Temperature:       	31.6
S/R sites:         	TA
NC/disease:        	NC23
Operator:          	SZ
Comments:          	Test2
M-SCAN DATA (10.3-3.5m)
Scanpts: 90, 103, 709, 730
Stim. (mA)     	Amp. (mV)
MS.1           	34             	7.896
MS.2           	34             	7.823
MS.3           	34             	7.869
MS.4           	34             	7.797
MS.5           	34             	7.847
MS.6           	34             	7.837
MS.7           	34             	7.829
MS.8           	34             	7.819
MS.9           	34             	7.819
MS.10          	34             	7.813
MS.11          	34             	7.869
MS.12          	34             	7.835
MS.13          	34             	7.793
MS.14          	34             	7.797
MS.15          	34             	7.797
MS.16          	34             	7.797
MS.17          	34             	7.827
MS.18          	34             	7.823
MS.19          	34             	7.799
MS.20          	34             	7.773
MS.21          	34             	7.769
MS.22          	34             	7.775
MS.23          	34             	7.843
MS.24          	33.865         	7.807
MS.25          	33.798         	7.799
MS.26          	33.73          	7.859
MS.27          	33.662         	7.811
MS.28          	33.595         	7.839
MS.29          	33.528         	7.869
MS.30          	33.46          	7.855
MS.31          	33.392         	7.885
MS.32          	33.327         	7.863
MS.33          	33.26          	7.869
MS.34          	33.193         	7.885
MS.35          	33.127         	7.881
MS.36          	33.06          	7.891
MS.37          	32.995         	7.891
MS.38          	32.93          	7.896
MS.39          	32.862         	7.924
MS.40          	32.798         	7.966
MS.41          	32.732         	7.904
MS.42          	32.667         	7.992
MS.43          	32.603         	7.954
MS.44          	32.537         	7.928
MS.45          	32.472         	7.948
MS.46          	32.407         	7.92
MS.47          	32.342         	7.97
MS.48          	32.278         	7.972
MS.49          	32.212         	7.978
MS.50          	32.147         	7.96
MS.51          	32.085         	8.002
MS.52          	32.02          	7.98
MS.53          	31.955         	7.982
MS.54          	31.892         	7.982
MS.55          	31.827         	7.976
MS.56          	31.765         	7.988
MS.57          	31.702         	8.045
MS.58          	31.637         	8.034
MS.59          	31.575         	8.041
MS.60          	31.512         	8.083
MS.61          	31.448         	8.012
MS.62          	31.385         	8.03
MS.63          	31.323         	8.045
MS.64          	31.26          	8.051
MS.65          	31.198         	8.024
MS.66          	31.135         	8.03
MS.67          	31.073         	8.032
MS.68          	31.012         	8.071
MS.69          	30.95          	8.077
MS.70          	30.887         	8.041
MS.71          	30.825         	8.024
MS.72          	30.765         	8.105
MS.73          	30.702         	8.083
MS.74          	30.642         	8.057
MS.75          	30.58          	8.061
MS.76          	30.52          	8.141
MS.77          	30.457         	8.099
MS.78          	30.397         	8.107
MS.79          	30.337         	8.139
MS.80          	30.275         	8.109
MS.81          	30.215         	8.127
MS.82          	30.155         	8.115
MS.83          	30.095         	8.099
MS.84          	30.035         	8.135
MS.85          	29.975         	8.101
MS.86          	29.915         	8.173
MS.87          	29.855         	8.143
MS.88          	29.795         	8.115
MS.89          	29.735         	8.139
MS.90          	29.677         	8.119
MS.91          	29.617         	8.139
MS.92          	29.557         	8.131
MS.93          	29.5           	8.135
MS.94          	29.44          	8.151
MS.95          	29.382         	8.131
MS.96          	29.323         	8.145
MS.97          	29.265         	8.145
MS.98          	29.205         	8.163
MS.99          	29.147         	8.2
MS.100         	29.09          	8.123
MS.101         	29.03          	8.135
MS.102         	28.972         	8.133
MS.103         	28.915         	8.141
MS.104         	28.858         	8.127
MS.105         	28.8           	8.101
MS.106         	28.743         	8.115
MS.107         	28.685         	8.125
MS.108         	28.627         	8.057
MS.109         	28.57          	8.147
MS.110         	28.512         	8.065
MS.111         	28.455         	8.049
MS.112         	28.4           	8.063
MS.113         	28.342         	8.123
MS.114         	28.285         	8.099
MS.115         	28.23          	8.067
MS.116         	28.172         	8.063
MS.117         	28.118         	8.087
MS.118         	28.06          	8.063
MS.119         	28.005         	8.089
MS.120         	27.948         	8.051
MS.121         	27.892         	8.075
MS.122         	27.837         	8.049
MS.123         	27.78          	8.111
MS.124         	27.725         	8.03
MS.125         	27.67          	8.071
MS.126         	27.615         	8.047
MS.127         	27.56          	8.022
MS.128         	27.505         	8.022
MS.129         	27.45          	8.012
MS.130         	27.395         	7.996
MS.131         	27.34          	8.01
MS.132         	27.285         	7.958
MS.133         	27.23          	8.026
MS.134         	27.177         	7.992
MS.135         	27.122         	8.039
MS.136         	27.067         	8.02
MS.137         	27.015         	8.047
MS.138         	26.96          	8.034
MS.139         	26.905         	8.067
MS.140         	26.852         	7.994
MS.141         	26.8           	7.99
MS.142         	26.745         	8.067
MS.143         	26.692         	8.039
MS.144         	26.637         	8.057
MS.145         	26.585         	8.045
MS.146         	26.532         	7.99
MS.147         	26.48          	8.02
MS.148         	26.425         	8.006
MS.149         	26.372         	8.008
MS.150         	26.32          	8.081
MS.151         	26.267         	8.002
MS.152         	26.215         	7.992
MS.153         	26.162         	7.964
MS.154         	26.11          	8.018
MS.155         	26.06          	7.996
MS.156         	26.007         	7.96
MS.157         	25.955         	7.942
MS.158         	25.903         	7.998
MS.159         	25.85          	7.867
MS.160         	25.8           	7.946
MS.161         	25.747         	7.867
MS.162         	25.698         	7.889
MS.163         	25.645         	7.92
MS.164         	25.595         	7.94
MS.165         	25.542         	7.893
MS.166         	25.493         	7.863
MS.167         	25.44          	7.875
MS.168         	25.39          	7.845
MS.169         	25.34          	7.819
MS.170         	25.288         	7.795
MS.171         	25.237         	7.845
MS.172         	25.188         	7.823
MS.173         	25.137         	7.75
MS.174         	25.087         	7.835
MS.175         	25.038         	7.783
MS.176         	24.987         	7.753
MS.177         	24.938         	7.753
MS.178         	24.887         	7.787
MS.179         	24.837         	7.74
MS.180         	24.788         	7.829
MS.181         	24.737         	7.763
MS.182         	24.69          	7.742
MS.183         	24.64          	7.686
MS.184         	24.59          	7.644
MS.185         	24.542         	7.722
MS.186         	24.493         	7.716
MS.187         	24.442         	7.71
MS.188         	24.395         	7.603
MS.189         	24.345         	7.648
MS.190         	24.297         	7.656
MS.191         	24.247         	7.646
MS.192         	24.2           	7.64
MS.193         	24.153         	7.678
MS.194         	24.102         	7.612
MS.195         	24.055         	7.591
MS.196         	24.007         	7.587
MS.197         	23.96          	7.601
MS.198         	23.913         	7.489
MS.199         	23.862         	7.575
MS.200         	23.815         	7.585
MS.201         	23.767         	7.511
MS.202         	23.72          	7.575
MS.203         	23.672         	7.575
MS.204         	23.625         	7.519
MS.205         	23.58          	7.525
MS.206         	23.532         	7.408
MS.207         	23.485         	7.418
MS.208         	23.438         	7.493
MS.209         	23.39          	7.448
MS.210         	23.345         	7.464
MS.211         	23.297         	7.4
MS.212         	23.25          	7.406
MS.213         	23.205         	7.503
MS.214         	23.157         	7.499
MS.215         	23.112         	7.41
MS.216         	23.065         	7.386
MS.217         	23.02          	7.336
MS.218         	22.975         	7.263
MS.219         	22.927         	7.257
MS.220         	22.882         	7.295
MS.221         	22.837         	7.207
MS.222         	22.79          	7.213
MS.223         	22.745         	7.239
MS.224         	22.7           	7.233
MS.225         	22.655         	7.164
MS.226         	22.61          	7.187
MS.227         	22.565         	7.16
MS.228         	22.52          	7.134
MS.229         	22.475         	7.042
MS.230         	22.43          	7.199
MS.231         	22.385         	7.124
MS.232         	22.34          	7.156
MS.233         	22.295         	7.096
MS.234         	22.25          	7.092
MS.235         	22.205         	7.156
MS.236         	22.163         	7.072
MS.237         	22.118         	7.086
MS.238         	22.073         	7.114
MS.239         	22.03          	6.997
MS.240         	21.985         	7.023
MS.241         	21.94          	7.025
MS.242         	21.897         	6.915
MS.243         	21.852         	6.983
MS.244         	21.81          	6.945
MS.245         	21.765         	6.949
MS.246         	21.722         	6.862
MS.247         	21.68          	6.892
MS.248         	21.635         	6.933
MS.249         	21.592         	6.786
MS.250         	21.55          	6.858
MS.251         	21.507         	6.832
MS.252         	21.462         	6.8
MS.253         	21.42          	6.856
MS.254         	21.377         	6.79
MS.255         	21.335         	6.852
MS.256         	21.292         	6.743
MS.257         	21.25          	6.77
MS.258         	21.208         	6.743
MS.259         	21.165         	6.679
MS.260         	21.122         	6.655
MS.261         	21.08          	6.675
MS.262         	21.038         	6.707
MS.263         	20.997         	6.627
MS.264         	20.955         	6.617
MS.265         	20.913         	6.629
MS.266         	20.87          	6.602
MS.267         	20.83          	6.594
MS.268         	20.788         	6.598
MS.269         	20.745         	6.604
MS.270         	20.705         	6.536
MS.271         	20.663         	6.463
MS.272         	20.622         	6.536
MS.273         	20.58          	6.504
MS.274         	20.54          	6.548
MS.275         	20.497         	6.504
MS.276         	20.458         	6.474
MS.277         	20.417         	6.522
MS.278         	20.375         	6.465
MS.279         	20.335         	6.469
MS.280         	20.295         	6.431
MS.281         	20.255         	6.413
MS.282         	20.212         	6.326
MS.283         	20.172         	6.296
MS.284         	20.132         	6.387
MS.285         	20.092         	6.343
MS.286         	20.052         	6.268
MS.287         	20.012         	6.28
MS.288         	19.972         	6.248
MS.289         	19.932         	6.188
MS.290         	19.892         	6.167
MS.291         	19.852         	6.181
MS.292         	19.812         	6.147
MS.293         	19.775         	6.129
MS.294         	19.735         	6.081
MS.295         	19.695         	6.123
MS.296         	19.655         	6.081
MS.297         	19.615         	6.026
MS.298         	19.577         	6.057
MS.299         	19.538         	6.034
MS.300         	19.5           	5.984
MS.301         	19.46          	5.98
MS.302         	19.42          	5.916
MS.303         	19.382         	5.841
MS.304         	19.342         	5.851
MS.305         	19.305         	5.843
MS.306         	19.267         	5.787
MS.307         	19.227         	5.744
MS.308         	19.19          	5.714
MS.309         	19.15          	5.728
MS.310         	19.112         	5.801
MS.311         	19.075         	5.66
MS.312         	19.038         	5.76
MS.313         	18.997         	5.684
MS.314         	18.96          	5.601
MS.315         	18.922         	5.607
MS.316         	18.885         	5.591
MS.317         	18.847         	5.581
MS.318         	18.81          	5.543
MS.319         	18.772         	5.553
MS.320         	18.735         	5.529
MS.321         	18.698         	5.499
MS.322         	18.66          	5.472
MS.323         	18.622         	5.537
MS.324         	18.585         	5.509
MS.325         	18.547         	5.416
MS.326         	18.51          	5.392
MS.327         	18.475         	5.338
MS.328         	18.438         	5.386
MS.329         	18.4           	5.356
MS.330         	18.362         	5.321
MS.331         	18.327         	5.354
MS.332         	18.29          	5.293
MS.333         	18.253         	5.313
MS.334         	18.217         	5.251
MS.335         	18.18          	5.225
MS.336         	18.145         	5.305
MS.337         	18.108         	5.259
MS.338         	18.073         	5.225
MS.339         	18.035         	5.219
MS.340         	18             	5.193
MS.341         	17.965         	5.205
MS.342         	17.927         	5.144
MS.343         	17.892         	5.156
MS.344         	17.858         	5.106
MS.345         	17.82          	5.172
MS.346         	17.785         	5.082
MS.347         	17.75          	5.007
MS.348         	17.715         	4.947
MS.349         	17.677         	4.975
MS.350         	17.642         	5.003
MS.351         	17.608         	4.993
MS.352         	17.573         	4.945
MS.353         	17.538         	5.015
MS.354         	17.503         	4.947
MS.355         	17.467         	4.995
MS.356         	17.432         	4.896
MS.357         	17.397         	4.792
MS.358         	17.362         	4.822
MS.359         	17.327         	4.882
MS.360         	17.295         	4.796
MS.361         	17.26          	4.733
MS.362         	17.225         	4.743
MS.363         	17.19          	4.685
MS.364         	17.155         	4.784
MS.365         	17.122         	4.703
MS.366         	17.087         	4.687
MS.367         	17.052         	4.753
MS.368         	17.02          	4.747
MS.369         	16.985         	4.689
MS.370         	16.952         	4.633
MS.371         	16.917         	4.629
MS.372         	16.885         	4.625
MS.373         	16.85          	4.673
MS.374         	16.817         	4.705
MS.375         	16.782         	4.604
MS.376         	16.75          	4.627
MS.377         	16.715         	4.578
MS.378         	16.682         	4.608
MS.379         	16.65          	4.582
MS.380         	16.615         	4.627
MS.381         	16.583         	4.633
MS.382         	16.55          	4.554
MS.383         	16.517         	4.526
MS.384         	16.483         	4.532
MS.385         	16.45          	4.556
MS.386         	16.417         	4.562
MS.387         	16.385         	4.532
MS.388         	16.352         	4.463
MS.389         	16.32          	4.399
MS.390         	16.288         	4.401
MS.391         	16.255         	4.449
MS.392         	16.222         	4.284
MS.393         	16.19          	4.443
MS.394         	16.157         	4.32
MS.395         	16.125         	4.332
MS.396         	16.092         	4.28
MS.397         	16.06          	4.29
MS.398         	16.028         	4.369
MS.399         	15.997         	4.336
MS.400         	15.965         	4.21
MS.401         	15.932         	4.183
MS.402         	15.9           	4.208
MS.403         	15.87          	4.204
MS.404         	15.837         	4.204
MS.405         	15.805         	4.183
MS.406         	15.775         	4.254
MS.407         	15.742         	4.22
MS.408         	15.71          	4.179
MS.409         	15.68          	4.163
MS.410         	15.648         	4.153
MS.411         	15.617         	4.137
MS.412         	15.585         	4.127
MS.413         	15.555         	4.149
MS.414         	15.523         	4.059
MS.415         	15.492         	4.036
MS.416         	15.462         	3.992
MS.417         	15.43          	4.028
MS.418         	15.4           	3.976
MS.419         	15.37          	4.014
MS.420         	15.337         	3.952
MS.421         	15.307         	3.893
MS.422         	15.277         	3.99
MS.423         	15.247         	3.944
MS.424         	15.215         	3.93
MS.425         	15.185         	3.899
MS.426         	15.155         	3.92
MS.427         	15.125         	3.914
MS.428         	15.095         	3.795
MS.429         	15.065         	3.895
MS.430         	15.035         	3.837
MS.431         	15.005         	3.857
MS.432         	14.975         	3.831
MS.433         	14.945         	3.716
MS.434         	14.915         	3.793
MS.435         	14.885         	3.716
MS.436         	14.855         	3.813
MS.437         	14.825         	3.696
MS.438         	14.795         	3.68
MS.439         	14.767         	3.654
MS.440         	14.737         	3.783
MS.441         	14.707         	3.696
MS.442         	14.677         	3.609
MS.443         	14.65          	3.549
MS.444         	14.62          	3.632
MS.445         	14.59          	3.611
MS.446         	14.56          	3.599
MS.447         	14.532         	3.519
MS.448         	14.502         	3.507
MS.449         	14.475         	3.341
MS.450         	14.445         	3.501
MS.451         	14.417         	3.422
MS.452         	14.387         	3.36
MS.453         	14.358         	3.354
MS.454         	14.33          	3.434
MS.455         	14.302         	3.277
MS.456         	14.273         	3.36
MS.457         	14.245         	3.325
MS.458         	14.215         	3.362
MS.459         	14.188         	3.247
MS.460         	14.16          	3.321
MS.461         	14.13          	3.323
MS.462         	14.102         	3.265
MS.463         	14.075         	3.251
MS.464         	14.047         	3.225
MS.465         	14.017         	3.051
MS.466         	13.99          	3.118
MS.467         	13.962         	3.134
MS.468         	13.935         	3.186
MS.469         	13.907         	3.138
MS.470         	13.877         	3.136
MS.471         	13.85          	3.074
MS.472         	13.822         	3.201
MS.473         	13.795         	3.12
MS.474         	13.767         	3.041
MS.475         	13.74          	3.021
MS.476         	13.712         	2.973
MS.477         	13.685         	2.969
MS.478         	13.657         	2.985
MS.479         	13.63          	2.888
MS.480         	13.605         	2.983
MS.481         	13.577         	2.739
MS.482         	13.55          	2.782
MS.483         	13.523         	2.832
MS.484         	13.495         	2.675
MS.485         	13.467         	2.856
MS.486         	13.443         	2.773
MS.487         	13.415         	2.784
MS.488         	13.387         	2.816
MS.489         	13.36          	2.681
MS.490         	13.335         	2.687
MS.491         	13.307         	2.645
MS.492         	13.282         	2.804
MS.493         	13.255         	2.685
MS.494         	13.227         	2.858
MS.495         	13.202         	2.588
MS.496         	13.175         	2.588
MS.497         	13.15          	2.566
MS.498         	13.122         	2.733
MS.499         	13.097         	2.556
MS.500         	13.07          	2.592
