File:              	C:\Qtrac\Data\Daniel M Sørensen\MScan multicentre study\Data from centres\Oslo\IronKey\Oslo_NC_first examination\SZC00527C.QZD
Name:              	NO.OSL.NC.13.1
Protocol:          	MSCAN-R2
Date:              	27/5/20
Start time:        	16:57:08
Age:               	33
Sex:               	M
Temperature:       	34.1
S/R sites:         	Peroneal TA
NC/disease:        	NC13
Operator:          	SZ
Comments:          	Test1
M-SCAN DATA (14.2-4.8m)
Scanpts: 114, 120, 964, 973
Stim. (mA)     	Amp. (mV)
MS.1           	37             	8.711
MS.2           	37             	8.766
MS.3           	37             	8.754
MS.4           	37             	8.743
MS.5           	37             	8.758
MS.6           	37             	8.81
MS.7           	37             	8.834
MS.8           	37             	8.764
MS.9           	37             	8.778
MS.10          	37             	8.778
MS.11          	37             	8.721
MS.12          	37             	8.762
MS.13          	37             	8.792
MS.14          	37             	8.762
MS.15          	37             	8.784
MS.16          	37             	8.796
MS.17          	37             	8.778
MS.18          	37             	8.772
MS.19          	37             	8.762
MS.20          	37             	8.75
MS.21          	37             	8.739
MS.22          	37             	8.77
MS.23          	37             	8.665
MS.24          	36.853         	8.651
MS.25          	36.778         	8.556
MS.26          	36.705         	8.548
MS.27          	36.632         	8.687
MS.28          	36.557         	8.723
MS.29          	36.485         	8.741
MS.30          	36.412         	8.735
MS.31          	36.34          	8.723
MS.32          	36.267         	8.735
MS.33          	36.195         	8.717
MS.34          	36.122         	8.721
MS.35          	36.05          	8.657
MS.36          	35.978         	8.701
MS.37          	35.907         	8.699
MS.38          	35.835         	8.752
MS.39          	35.763         	8.693
MS.40          	35.693         	8.741
MS.41          	35.62          	8.723
MS.42          	35.55          	8.693
MS.43          	35.478         	8.667
MS.44          	35.407         	8.717
MS.45          	35.337         	8.663
MS.46          	35.265         	8.693
MS.47          	35.195         	8.651
MS.48          	35.125         	8.655
MS.49          	35.055         	8.695
MS.50          	34.985         	8.717
MS.51          	34.915         	8.729
MS.52          	34.845         	8.675
MS.53          	34.775         	8.727
MS.54          	34.705         	8.675
MS.55          	34.638         	8.673
MS.56          	34.568         	8.681
MS.57          	34.497         	8.697
MS.58          	34.43          	8.677
MS.59          	34.36          	8.625
MS.60          	34.292         	8.627
MS.61          	34.222         	8.663
MS.62          	34.155         	8.727
MS.63          	34.087         	8.651
MS.64          	34.02          	8.611
MS.65          	33.95          	8.689
MS.66          	33.882         	8.667
MS.67          	33.815         	8.689
MS.68          	33.747         	8.627
MS.69          	33.68          	8.641
MS.70          	33.612         	8.623
MS.71          	33.545         	8.633
MS.72          	33.48          	8.643
MS.73          	33.412         	8.651
MS.74          	33.345         	8.651
MS.75          	33.278         	8.631
MS.76          	33.212         	8.669
MS.77          	33.145         	8.639
MS.78          	33.08          	8.665
MS.79          	33.013         	8.657
MS.80          	32.947         	8.621
MS.81          	32.882         	8.602
MS.82          	32.815         	8.645
MS.83          	32.75          	8.598
MS.84          	32.685         	8.615
MS.85          	32.62          	8.629
MS.86          	32.555         	8.615
MS.87          	32.49          	8.625
MS.88          	32.425         	8.649
MS.89          	32.36          	8.592
MS.90          	32.295         	8.645
MS.91          	32.23          	8.607
MS.92          	32.165         	8.604
MS.93          	32.103         	8.611
MS.94          	32.037         	8.568
MS.95          	31.972         	8.611
MS.96          	31.91          	8.6
MS.97          	31.845         	8.562
MS.98          	31.782         	8.562
MS.99          	31.72          	8.594
MS.100         	31.655         	8.611
MS.101         	31.592         	8.594
MS.102         	31.53          	8.615
MS.103         	31.465         	8.572
MS.104         	31.403         	8.594
MS.105         	31.34          	8.57
MS.106         	31.278         	8.588
MS.107         	31.215         	8.562
MS.108         	31.153         	8.619
MS.109         	31.09          	8.615
MS.110         	31.028         	8.613
MS.111         	30.967         	8.609
MS.112         	30.905         	8.582
MS.113         	30.842         	8.602
MS.114         	30.782         	8.56
MS.115         	30.72          	8.609
MS.116         	30.657         	8.568
MS.117         	30.597         	8.602
MS.118         	30.535         	8.613
MS.119         	30.475         	8.584
MS.120         	30.415         	8.598
MS.121         	30.352         	8.586
MS.122         	30.292         	8.57
MS.123         	30.233         	8.592
MS.124         	30.172         	8.629
MS.125         	30.112         	8.607
MS.126         	30.052         	8.586
MS.127         	29.992         	8.592
MS.128         	29.932         	8.564
MS.129         	29.872         	8.556
MS.130         	29.812         	8.572
MS.131         	29.752         	8.574
MS.132         	29.692         	8.582
MS.133         	29.632         	8.578
MS.134         	29.575         	8.554
MS.135         	29.515         	8.568
MS.136         	29.457         	8.596
MS.137         	29.397         	8.572
MS.138         	29.34          	8.546
MS.139         	29.28          	8.556
MS.140         	29.222         	8.556
MS.141         	29.162         	8.609
MS.142         	29.105         	8.574
MS.143         	29.047         	8.546
MS.144         	28.99          	8.55
MS.145         	28.93          	8.574
MS.146         	28.872         	8.552
MS.147         	28.815         	8.52
MS.148         	28.757         	8.54
MS.149         	28.7           	8.586
MS.150         	28.642         	8.51
MS.151         	28.585         	8.566
MS.152         	28.53          	8.621
MS.153         	28.472         	8.572
MS.154         	28.415         	8.57
MS.155         	28.358         	8.536
MS.156         	28.302         	8.55
MS.157         	28.245         	8.59
MS.158         	28.188         	8.574
MS.159         	28.132         	8.556
MS.160         	28.075         	8.604
MS.161         	28.02          	8.568
MS.162         	27.965         	8.562
MS.163         	27.907         	8.554
MS.164         	27.852         	8.58
MS.165         	27.797         	8.57
MS.166         	27.74          	8.534
MS.167         	27.685         	8.548
MS.168         	27.63          	8.542
MS.169         	27.575         	8.586
MS.170         	27.52          	8.548
MS.171         	27.465         	8.602
MS.172         	27.41          	8.54
MS.173         	27.355         	8.57
MS.174         	27.3           	8.57
MS.175         	27.245         	8.59
MS.176         	27.192         	8.602
MS.177         	27.137         	8.604
MS.178         	27.082         	8.576
MS.179         	27.03          	8.57
MS.180         	26.975         	8.56
MS.181         	26.92          	8.621
MS.182         	26.868         	8.623
MS.183         	26.812         	8.584
MS.184         	26.76          	8.562
MS.185         	26.707         	8.607
MS.186         	26.653         	8.582
MS.187         	26.6           	8.58
MS.188         	26.547         	8.59
MS.189         	26.495         	8.594
MS.190         	26.44          	8.58
MS.191         	26.387         	8.615
MS.192         	26.335         	8.6
MS.193         	26.282         	8.619
MS.194         	26.23          	8.609
MS.195         	26.177         	8.609
MS.196         	26.125         	8.56
MS.197         	26.073         	8.602
MS.198         	26.022         	8.588
MS.199         	25.97          	8.582
MS.200         	25.917         	8.6
MS.201         	25.865         	8.574
MS.202         	25.815         	8.578
MS.203         	25.762         	8.558
MS.204         	25.71          	8.594
MS.205         	25.66          	8.54
MS.206         	25.608         	8.538
MS.207         	25.557         	8.524
MS.208         	25.505         	8.562
MS.209         	25.455         	8.556
MS.210         	25.405         	8.504
MS.211         	25.352         	8.596
MS.212         	25.302         	8.57
MS.213         	25.252         	8.613
MS.214         	25.202         	8.584
MS.215         	25.153         	8.556
MS.216         	25.1           	8.568
MS.217         	25.05          	8.53
MS.218         	25             	8.55
MS.219         	24.95          	8.556
MS.220         	24.9           	8.568
MS.221         	24.852         	8.576
MS.222         	24.802         	8.502
MS.223         	24.752         	8.57
MS.224         	24.702         	8.498
MS.225         	24.653         	8.598
MS.226         	24.605         	8.514
MS.227         	24.555         	8.548
MS.228         	24.505         	8.528
MS.229         	24.457         	8.482
MS.230         	24.407         	8.518
MS.231         	24.36          	8.522
MS.232         	24.31          	8.504
MS.233         	24.262         	8.451
MS.234         	24.212         	8.54
MS.235         	24.165         	8.498
MS.236         	24.118         	8.548
MS.237         	24.067         	8.496
MS.238         	24.02          	8.468
MS.239         	23.972         	8.51
MS.240         	23.925         	8.508
MS.241         	23.877         	8.532
MS.242         	23.83          	8.502
MS.243         	23.782         	8.494
MS.244         	23.735         	8.455
MS.245         	23.688         	8.526
MS.246         	23.64          	8.502
MS.247         	23.592         	8.524
MS.248         	23.545         	8.486
MS.249         	23.497         	8.49
MS.250         	23.45          	8.518
MS.251         	23.405         	8.49
MS.252         	23.358         	8.528
MS.253         	23.31          	8.518
MS.254         	23.265         	8.492
MS.255         	23.217         	8.55
MS.256         	23.172         	8.518
MS.257         	23.125         	8.484
MS.258         	23.08          	8.53
MS.259         	23.032         	8.49
MS.260         	22.987         	8.474
MS.261         	22.94          	8.554
MS.262         	22.895         	8.502
MS.263         	22.85          	8.496
MS.264         	22.802         	8.522
MS.265         	22.757         	8.508
MS.266         	22.712         	8.506
MS.267         	22.667         	8.474
MS.268         	22.622         	8.494
MS.269         	22.577         	8.433
MS.270         	22.532         	8.506
MS.271         	22.487         	8.506
MS.272         	22.442         	8.49
MS.273         	22.397         	8.472
MS.274         	22.352         	8.508
MS.275         	22.307         	8.482
MS.276         	22.262         	8.526
MS.277         	22.217         	8.502
MS.278         	22.175         	8.544
MS.279         	22.13          	8.52
MS.280         	22.085         	8.514
MS.281         	22.04          	8.498
MS.282         	21.997         	8.518
MS.283         	21.952         	8.5
MS.284         	21.91          	8.464
MS.285         	21.865         	8.504
MS.286         	21.823         	8.51
MS.287         	21.778         	8.502
MS.288         	21.735         	8.564
MS.289         	21.692         	8.554
MS.290         	21.647         	8.5
MS.291         	21.605         	8.52
MS.292         	21.562         	8.524
MS.293         	21.517         	8.514
MS.294         	21.475         	8.518
MS.295         	21.432         	8.602
MS.296         	21.39          	8.546
MS.297         	21.347         	8.498
MS.298         	21.305         	8.554
MS.299         	21.262         	8.54
MS.300         	21.22          	8.52
MS.301         	21.177         	8.522
MS.302         	21.135         	8.488
MS.303         	21.092         	8.536
MS.304         	21.05          	8.546
MS.305         	21.007         	8.504
MS.306         	20.965         	8.568
MS.307         	20.925         	8.552
MS.308         	20.882         	8.502
MS.309         	20.84          	8.584
MS.310         	20.8           	8.441
MS.311         	20.757         	8.48
MS.312         	20.715         	8.498
MS.313         	20.675         	8.417
MS.314         	20.632         	8.417
MS.315         	20.592         	8.5
MS.316         	20.55          	8.474
MS.317         	20.51          	8.494
MS.318         	20.47          	8.552
MS.319         	20.427         	8.365
MS.320         	20.387         	8.461
MS.321         	20.347         	8.427
MS.322         	20.305         	8.498
MS.323         	20.265         	8.472
MS.324         	20.225         	8.413
MS.325         	20.185         	8.49
MS.326         	20.145         	8.48
MS.327         	20.105         	8.451
MS.328         	20.062         	8.516
MS.329         	20.022         	8.52
MS.330         	19.983         	8.5
MS.331         	19.942         	8.552
MS.332         	19.905         	8.437
MS.333         	19.865         	8.49
MS.334         	19.825         	8.455
MS.335         	19.785         	8.568
MS.336         	19.745         	8.439
MS.337         	19.705         	8.49
MS.338         	19.667         	8.5
MS.339         	19.627         	8.429
MS.340         	19.587         	8.508
MS.341         	19.55          	8.522
MS.342         	19.51          	8.558
MS.343         	19.47          	8.478
MS.344         	19.432         	8.47
MS.345         	19.392         	8.488
MS.346         	19.355         	8.534
MS.347         	19.315         	8.474
MS.348         	19.278         	8.47
MS.349         	19.237         	8.377
MS.350         	19.2           	8.441
MS.351         	19.163         	8.381
MS.352         	19.122         	8.421
MS.353         	19.085         	8.526
MS.354         	19.047         	8.512
MS.355         	19.01          	8.536
MS.356         	18.97          	8.439
MS.357         	18.932         	8.363
MS.358         	18.895         	8.433
MS.359         	18.858         	8.389
MS.360         	18.82          	8.639
MS.361         	18.782         	8.466
MS.362         	18.745         	8.345
MS.363         	18.708         	8.455
MS.364         	18.67          	8.415
MS.365         	18.632         	8.461
MS.366         	18.595         	8.502
MS.367         	18.557         	8.415
MS.368         	18.52          	8.437
MS.369         	18.485         	8.558
MS.370         	18.448         	8.365
MS.371         	18.41          	8.399
MS.372         	18.372         	8.405
MS.373         	18.337         	8.383
MS.374         	18.3           	8.435
MS.375         	18.262         	8.29
MS.376         	18.227         	8.393
MS.377         	18.19          	8.48
MS.378         	18.155         	8.405
MS.379         	18.118         	8.329
MS.380         	18.083         	8.415
MS.381         	18.045         	8.377
MS.382         	18.01          	8.415
MS.383         	17.975         	8.363
MS.384         	17.938         	8.375
MS.385         	17.903         	8.381
MS.386         	17.868         	8.361
MS.387         	17.83          	8.357
MS.388         	17.795         	8.337
MS.389         	17.76          	8.288
MS.390         	17.725         	8.306
MS.391         	17.688         	8.314
MS.392         	17.653         	8.314
MS.393         	17.618         	8.218
MS.394         	17.583         	8.333
MS.395         	17.547         	8.407
MS.396         	17.512         	8.226
MS.397         	17.477         	8.29
MS.398         	17.442         	8.256
MS.399         	17.407         	8.278
MS.400         	17.372         	8.282
MS.401         	17.337         	8.234
MS.402         	17.302         	8.24
MS.403         	17.27          	8.234
MS.404         	17.235         	8.216
MS.405         	17.2           	8.163
MS.406         	17.165         	8.177
MS.407         	17.132         	8.163
MS.408         	17.097         	8.163
MS.409         	17.062         	8.135
MS.410         	17.03          	8.087
MS.411         	16.995         	7.978
MS.412         	16.96          	8.034
MS.413         	16.927         	8.018
MS.414         	16.892         	8.043
MS.415         	16.86          	7.918
MS.416         	16.825         	7.9
MS.417         	16.792         	7.934
MS.418         	16.757         	7.736
MS.419         	16.725         	7.799
MS.420         	16.692         	7.9
MS.421         	16.657         	7.728
MS.422         	16.625         	7.859
MS.423         	16.592         	7.805
MS.424         	16.557         	7.481
MS.425         	16.525         	7.662
MS.426         	16.493         	7.543
MS.427         	16.46          	7.593
MS.428         	16.427         	7.696
MS.429         	16.395         	7.553
MS.430         	16.36          	7.553
MS.431         	16.327         	7.593
MS.432         	16.295         	7.46
MS.433         	16.262         	7.658
MS.434         	16.23          	7.404
MS.435         	16.198         	7.446
MS.436         	16.165         	7.358
MS.437         	16.135         	7.507
MS.438         	16.102         	7.44
MS.439         	16.07          	7.328
MS.440         	16.038         	7.257
MS.441         	16.005         	7.241
MS.442         	15.972         	7.249
MS.443         	15.943         	7.142
MS.444         	15.91          	6.945
MS.445         	15.877         	7.06
MS.446         	15.845         	7.052
MS.447         	15.815         	6.995
MS.448         	15.782         	6.903
MS.449         	15.75          	6.943
MS.450         	15.72          	6.774
MS.451         	15.688         	6.935
MS.452         	15.657         	6.913
MS.453         	15.625         	6.898
MS.454         	15.595         	6.623
MS.455         	15.562         	6.755
MS.456         	15.532         	6.586
MS.457         	15.5           	6.627
MS.458         	15.47          	6.655
MS.459         	15.44          	6.637
MS.460         	15.407         	6.469
MS.461         	15.377         	6.433
MS.462         	15.347         	6.506
MS.463         	15.315         	6.471
MS.464         	15.285         	6.51
MS.465         	15.255         	6.478
MS.466         	15.225         	6.498
MS.467         	15.195         	6.389
MS.468         	15.165         	6.208
MS.469         	15.132         	6.353
MS.470         	15.102         	6.379
MS.471         	15.072         	6.439
MS.472         	15.042         	6.375
MS.473         	15.012         	6.196
MS.474         	14.983         	6.262
MS.475         	14.952         	6.155
MS.476         	14.922         	6.121
MS.477         	14.892         	6.282
MS.478         	14.862         	6.083
MS.479         	14.835         	6.01
MS.480         	14.805         	5.912
MS.481         	14.775         	6.036
MS.482         	14.745         	5.946
MS.483         	14.715         	5.938
MS.484         	14.688         	5.887
MS.485         	14.657         	5.972
MS.486         	14.627         	5.95
MS.487         	14.597         	5.906
MS.488         	14.57          	5.869
MS.489         	14.54          	5.831
MS.490         	14.51          	5.696
MS.491         	14.483         	5.678
MS.492         	14.452         	5.71
MS.493         	14.425         	5.67
MS.494         	14.395         	5.656
MS.495         	14.367         	5.62
MS.496         	14.337         	5.585
MS.497         	14.31          	5.551
MS.498         	14.28          	5.605
MS.499         	14.252         	5.652
MS.500         	14.225         	5.404
MS.501         	14.195         	5.551
