File:              	C:\Qtrac\Data\Daniel M Sørensen\MScan multicentre study\Data from centres\Oslo\Processed data\SZC00630D.QZD
Name:              	NO.OSL.NC.21.2
Protocol:          	MSCAN-R2
Date:              	30/6/20
Start time:        	17:39:33
Age:               	38
Sex:               	M
Temperature:       	33.7
S/R sites:         	TA
NC/disease:        	NC21
Operator:          	SZ
Comments:          	Test2
M-SCAN DATA (8.4-0.9m)
Scanpts: 94, 123, 683, 711
Stim. (mA)     	Amp. (mV)
MS.1           	16.5           	7.813
MS.2           	16.5           	7.833
MS.3           	16.5           	7.787
MS.4           	16.5           	7.841
MS.5           	16.5           	7.839
MS.6           	16.5           	7.847
MS.7           	16.5           	7.881
MS.8           	16.5           	7.885
MS.9           	16.5           	7.855
MS.10          	16.5           	7.902
MS.11          	16.5           	7.95
MS.12          	16.5           	7.928
MS.13          	16.5           	7.956
MS.14          	16.5           	7.92
MS.15          	16.5           	7.938
MS.16          	16.5           	7.934
MS.17          	16.5           	7.966
MS.18          	16.5           	7.918
MS.19          	16.5           	7.93
MS.20          	16.5           	7.934
MS.21          	16.5           	7.934
MS.22          	16.5           	7.958
MS.23          	16.5           	7.946
MS.24          	16.435         	7.948
MS.25          	16.4           	7.93
MS.26          	16.368         	7.893
MS.27          	16.335         	7.932
MS.28          	16.302         	7.94
MS.29          	16.27          	7.952
MS.30          	16.237         	7.94
MS.31          	16.205         	7.948
MS.32          	16.172         	7.97
MS.33          	16.14          	7.99
MS.34          	16.108         	7.982
MS.35          	16.077         	7.978
MS.36          	16.045         	7.968
MS.37          	16.012         	7.97
MS.38          	15.98          	7.938
MS.39          	15.947         	7.966
MS.40          	15.917         	7.932
MS.41          	15.885         	7.982
MS.42          	15.852         	7.956
MS.43          	15.822         	7.988
MS.44          	15.79          	8.006
MS.45          	15.757         	7.98
MS.46          	15.727         	7.984
MS.47          	15.695         	8.002
MS.48          	15.665         	7.964
MS.49          	15.632         	7.968
MS.50          	15.602         	7.968
MS.51          	15.57          	7.968
MS.52          	15.54          	7.944
MS.53          	15.507         	8.006
MS.54          	15.477         	7.998
MS.55          	15.445         	8.02
MS.56          	15.415         	8
MS.57          	15.385         	7.998
MS.58          	15.352         	7.982
MS.59          	15.322         	7.992
MS.60          	15.292         	8
MS.61          	15.262         	7.972
MS.62          	15.233         	7.936
MS.63          	15.2           	7.952
MS.64          	15.17          	7.954
MS.65          	15.14          	7.982
MS.66          	15.11          	8.028
MS.67          	15.08          	8.034
MS.68          	15.05          	7.948
MS.69          	15.02          	7.938
MS.70          	14.99          	7.944
MS.71          	14.96          	7.916
MS.72          	14.93          	7.926
MS.73          	14.9           	7.926
MS.74          	14.87          	7.94
MS.75          	14.84          	7.962
MS.76          	14.81          	7.986
MS.77          	14.78          	7.94
MS.78          	14.752         	7.976
MS.79          	14.722         	7.968
MS.80          	14.693         	7.956
MS.81          	14.662         	7.94
MS.82          	14.635         	7.996
MS.83          	14.605         	8.059
MS.84          	14.575         	7.994
MS.85          	14.547         	8.004
MS.86          	14.517         	8.02
MS.87          	14.487         	7.992
MS.88          	14.46          	8.004
MS.89          	14.43          	8.039
MS.90          	14.403         	7.96
MS.91          	14.372         	8.02
MS.92          	14.345         	8.041
MS.93          	14.315         	7.998
MS.94          	14.287         	7.976
MS.95          	14.257         	7.998
MS.96          	14.23          	8.01
MS.97          	14.202         	7.978
MS.98          	14.172         	7.968
MS.99          	14.145         	7.992
MS.100         	14.117         	8.018
MS.101         	14.087         	7.992
MS.102         	14.06          	8.014
MS.103         	14.032         	7.98
MS.104         	14.005         	7.994
MS.105         	13.975         	7.992
MS.106         	13.947         	7.992
MS.107         	13.92          	8.002
MS.108         	13.892         	7.978
MS.109         	13.865         	8.014
MS.110         	13.837         	8.006
MS.111         	13.81          	7.992
MS.112         	13.782         	8.016
MS.113         	13.755         	8.026
MS.114         	13.727         	8.006
MS.115         	13.7           	8.002
MS.116         	13.672         	8.022
MS.117         	13.645         	7.966
MS.118         	13.617         	8.012
MS.119         	13.59          	8
MS.120         	13.562         	8.006
MS.121         	13.535         	8.051
MS.122         	13.51          	7.984
MS.123         	13.483         	8.004
MS.124         	13.455         	7.956
MS.125         	13.427         	8.018
MS.126         	13.403         	7.992
MS.127         	13.375         	7.94
MS.128         	13.347         	7.96
MS.129         	13.32          	7.966
MS.130         	13.295         	7.996
MS.131         	13.267         	7.964
MS.132         	13.242         	8.016
MS.133         	13.215         	7.962
MS.134         	13.188         	7.954
MS.135         	13.162         	8.053
MS.136         	13.135         	7.954
MS.137         	13.11          	7.964
MS.138         	13.082         	8.028
MS.139         	13.057         	7.988
MS.140         	13.032         	7.998
MS.141         	13.005         	7.984
MS.142         	12.98          	7.988
MS.143         	12.952         	7.978
MS.144         	12.927         	7.948
MS.145         	12.903         	8.014
MS.146         	12.875         	7.964
MS.147         	12.85          	7.968
MS.148         	12.825         	7.964
MS.149         	12.8           	7.952
MS.150         	12.773         	7.96
MS.151         	12.747         	7.998
MS.152         	12.722         	8.006
MS.153         	12.697         	7.968
MS.154         	12.672         	8.002
MS.155         	12.645         	7.91
MS.156         	12.62          	7.857
MS.157         	12.595         	7.857
MS.158         	12.57          	7.91
MS.159         	12.545         	7.92
MS.160         	12.52          	7.896
MS.161         	12.495         	7.835
MS.162         	12.47          	7.964
MS.163         	12.445         	7.954
MS.164         	12.42          	7.91
MS.165         	12.395         	7.885
MS.166         	12.37          	7.908
MS.167         	12.347         	7.666
MS.168         	12.322         	7.855
MS.169         	12.297         	7.871
MS.170         	12.273         	7.869
MS.171         	12.247         	7.898
MS.172         	12.222         	7.849
MS.173         	12.2           	7.881
MS.174         	12.175         	7.9
MS.175         	12.15          	7.555
MS.176         	12.125         	7.487
MS.177         	12.102         	7.757
MS.178         	12.077         	7.885
MS.179         	12.052         	7.797
MS.180         	12.03          	7.434
MS.181         	12.005         	7.446
MS.182         	11.983         	7.547
MS.183         	11.957         	7.471
MS.184         	11.932         	7.515
MS.185         	11.91          	7.497
MS.186         	11.885         	7.523
MS.187         	11.863         	7.42
MS.188         	11.837         	7.466
MS.189         	11.815         	7.481
MS.190         	11.79          	7.507
MS.191         	11.767         	7.527
MS.192         	11.745         	7.406
MS.193         	11.72          	7.444
MS.194         	11.697         	7.473
MS.195         	11.675         	7.412
MS.196         	11.65          	7.426
MS.197         	11.627         	7.418
MS.198         	11.605         	7.473
MS.199         	11.58          	7.261
MS.200         	11.557         	7.477
MS.201         	11.535         	7.446
MS.202         	11.512         	7.356
MS.203         	11.488         	7.315
MS.204         	11.465         	7.323
MS.205         	11.443         	7.301
MS.206         	11.42          	7.283
MS.207         	11.398         	7.398
MS.208         	11.375         	7.321
MS.209         	11.352         	7.323
MS.210         	11.33          	7.086
MS.211         	11.307         	7.178
MS.212         	11.282         	7.342
MS.213         	11.26          	7.446
MS.214         	11.238         	7.162
MS.215         	11.215         	6.995
MS.216         	11.195         	7.11
MS.217         	11.172         	7.037
MS.218         	11.15          	7.271
MS.219         	11.127         	7.122
MS.220         	11.105         	6.923
MS.221         	11.082         	7.094
MS.222         	11.06          	6.923
MS.223         	11.037         	7.064
MS.224         	11.015         	6.967
MS.225         	10.995         	6.832
MS.226         	10.972         	6.806
MS.227         	10.95          	6.852
MS.228         	10.927         	6.844
MS.229         	10.907         	6.713
MS.230         	10.885         	6.89
MS.231         	10.863         	6.8
MS.232         	10.84          	6.751
MS.233         	10.82          	6.713
MS.234         	10.797         	6.856
MS.235         	10.778         	6.671
MS.236         	10.755         	6.806
MS.237         	10.733         	6.647
MS.238         	10.712         	6.494
MS.239         	10.69          	6.729
MS.240         	10.67          	6.737
MS.241         	10.648         	6.506
MS.242         	10.627         	6.56
MS.243         	10.605         	6.52
MS.244         	10.585         	6.488
MS.245         	10.562         	6.518
MS.246         	10.542         	6.457
MS.247         	10.52          	6.415
MS.248         	10.5           	6.625
MS.249         	10.48          	6.588
MS.250         	10.457         	6.492
MS.251         	10.438         	6.441
MS.252         	10.415         	6.467
MS.253         	10.395         	6.498
MS.254         	10.375         	6.451
MS.255         	10.355         	6.284
MS.256         	10.332         	6.26
MS.257         	10.312         	6.341
MS.258         	10.292         	6.328
MS.259         	10.273         	6.371
MS.260         	10.25          	6.292
MS.261         	10.23          	6.288
MS.262         	10.21          	6.226
MS.263         	10.19          	6.258
MS.264         	10.17          	6.25
MS.265         	10.15          	6.117
MS.266         	10.127         	6.19
MS.267         	10.108         	6.294
MS.268         	10.087         	6.238
MS.269         	10.068         	6.123
MS.270         	10.047         	6.292
MS.271         	10.028         	6.185
MS.272         	10.007         	6.065
MS.273         	9.988          	6.028
MS.274         	9.967          	6.012
MS.275         	9.948          	5.968
MS.276         	9.927          	6.065
MS.277         	9.907          	5.885
MS.278         	9.887          	5.976
MS.279         	9.867          	5.845
MS.280         	9.85           	5.799
MS.281         	9.83           	5.897
MS.282         	9.81           	5.956
MS.283         	9.79           	5.883
MS.284         	9.77           	5.734
MS.285         	9.75           	5.696
MS.286         	9.733          	5.763
MS.287         	9.712          	5.763
MS.288         	9.693          	5.642
MS.289         	9.672          	5.75
MS.290         	9.655          	5.646
MS.291         	9.635          	5.67
MS.292         	9.615          	5.658
MS.293         	9.595          	5.499
MS.294         	9.577          	5.648
MS.295         	9.557          	5.547
MS.296         	9.537          	5.452
MS.297         	9.52           	5.601
MS.298         	9.5            	5.523
MS.299         	9.483          	5.765
MS.300         	9.462          	5.583
MS.301         	9.445          	5.613
MS.302         	9.425          	5.539
MS.303         	9.405          	5.513
MS.304         	9.387          	5.263
MS.305         	9.367          	5.188
MS.306         	9.35           	5.237
MS.307         	9.33           	5.114
MS.308         	9.312          	5.243
MS.309         	9.295          	5.168
MS.310         	9.275          	5.225
MS.311         	9.257          	5.199
MS.312         	9.238          	5.188
MS.313         	9.22           	5.001
MS.314         	9.202          	5.118
MS.315         	9.182          	5.134
MS.316         	9.165          	4.935
MS.317         	9.148          	5.003
MS.318         	9.127          	4.832
MS.319         	9.11           	5.009
MS.320         	9.092          	4.882
MS.321         	9.073          	4.729
MS.322         	9.055          	4.725
MS.323         	9.037          	4.826
MS.324         	9.02           	4.985
MS.325         	9              	4.784
MS.326         	8.983          	4.673
MS.327         	8.965          	4.808
MS.328         	8.948          	4.639
MS.329         	8.93           	4.842
MS.330         	8.912          	4.494
MS.331         	8.895          	4.524
MS.332         	8.875          	4.538
MS.333         	8.858          	4.504
MS.334         	8.84           	4.387
MS.335         	8.823          	4.455
MS.336         	8.805          	4.484
MS.337         	8.787          	4.518
MS.338         	8.77           	4.475
MS.339         	8.752          	4.385
MS.340         	8.735          	4.413
MS.341         	8.717          	4.159
MS.342         	8.7            	4.147
MS.343         	8.682          	4.242
MS.344         	8.665          	4.332
MS.345         	8.648          	4.27
MS.346         	8.63           	4.23
MS.347         	8.613          	4.268
MS.348         	8.597          	4.238
MS.349         	8.58           	4.304
MS.350         	8.562          	4.397
MS.351         	8.545          	4.25
MS.352         	8.528          	4.153
MS.353         	8.51           	4.061
MS.354         	8.495          	4.161
MS.355         	8.477          	4.234
MS.356         	8.46           	4.065
MS.357         	8.443          	3.938
MS.358         	8.427          	4.091
MS.359         	8.41           	4.03
MS.360         	8.392          	3.887
MS.361         	8.375          	3.885
MS.362         	8.36           	3.859
MS.363         	8.342          	3.891
MS.364         	8.325          	3.863
MS.365         	8.31           	3.797
MS.366         	8.292          	3.664
MS.367         	8.275          	3.887
MS.368         	8.26           	3.857
MS.369         	8.242          	3.7
MS.370         	8.227          	3.652
MS.371         	8.21           	3.698
MS.372         	8.193          	3.537
MS.373         	8.177          	3.648
MS.374         	8.16           	3.521
MS.375         	8.145          	3.575
MS.376         	8.127          	3.478
MS.377         	8.113          	3.517
MS.378         	8.095          	3.454
MS.379         	8.08           	3.267
MS.380         	8.062          	3.47
MS.381         	8.047          	3.337
MS.382         	8.033          	3.392
MS.383         	8.015          	3.43
MS.384         	8              	3.378
MS.385         	7.982          	3.37
MS.386         	7.967          	3.315
MS.387         	7.952          	3.231
MS.388         	7.935          	3.384
MS.389         	7.92           	3.299
MS.390         	7.905          	3.098
MS.391         	7.887          	3.092
MS.392         	7.872          	3.182
MS.393         	7.857          	3.235
MS.394         	7.84           	3.118
MS.395         	7.825          	3.051
MS.396         	7.81           	3.108
MS.397         	7.795          	3.072
MS.398         	7.777          	2.973
MS.399         	7.762          	3.136
MS.400         	7.747          	3.043
MS.401         	7.732          	3.043
MS.402         	7.717          	2.872
MS.403         	7.7            	3.013
MS.404         	7.685          	2.902
MS.405         	7.67           	2.822
MS.406         	7.655          	2.886
MS.407         	7.64           	2.965
MS.408         	7.625          	2.769
MS.409         	7.61           	2.816
MS.410         	7.595          	2.721
MS.411         	7.58           	2.784
MS.412         	7.562          	2.816
MS.413         	7.547          	2.84
MS.414         	7.532          	2.707
MS.415         	7.517          	2.822
MS.416         	7.503          	2.707
MS.417         	7.487          	2.677
MS.418         	7.472          	2.616
MS.419         	7.457          	2.737
MS.420         	7.442          	2.705
MS.421         	7.427          	2.546
MS.422         	7.415          	2.717
MS.423         	7.4            	2.568
MS.424         	7.385          	2.562
MS.425         	7.37           	2.405
MS.426         	7.355          	2.447
MS.427         	7.34           	2.459
MS.428         	7.325          	2.437
MS.429         	7.31           	2.3
MS.430         	7.295          	2.254
MS.431         	7.282          	2.3
MS.432         	7.267          	2.232
MS.433         	7.253          	2.193
MS.434         	7.237          	2.147
MS.435         	7.222          	2.125
MS.436         	7.21           	2.062
MS.437         	7.195          	2.024
MS.438         	7.18           	2.199
MS.439         	7.165          	2.087
MS.440         	7.152          	2.062
MS.441         	7.137          	2.091
MS.442         	7.122          	2.177
MS.443         	7.11           	2.087
MS.444         	7.095          	1.972
MS.445         	7.08           	2.083
MS.446         	7.067          	2.113
MS.447         	7.052          	1.903
MS.448         	7.037          	2.05
MS.449         	7.025          	1.889
MS.450         	7.01           	1.97
MS.451         	6.995          	2.095
MS.452         	6.983          	2.004
MS.453         	6.967          	2.073
MS.454         	6.955          	1.996
MS.455         	6.94           	1.946
MS.456         	6.927          	1.851
MS.457         	6.912          	1.899
MS.458         	6.9            	1.992
MS.459         	6.885          	1.994
MS.460         	6.872          	1.821
MS.461         	6.858          	1.974
MS.462         	6.845          	1.853
MS.463         	6.83           	1.893
MS.464         	6.817          	1.831
MS.465         	6.802          	1.789
MS.466         	6.79           	1.867
MS.467         	6.775          	1.813
MS.468         	6.762          	1.734
MS.469         	6.747          	1.704
MS.470         	6.735          	1.682
MS.471         	6.722          	1.72
MS.472         	6.707          	1.609
MS.473         	6.695          	1.722
MS.474         	6.682          	1.553
MS.475         	6.668          	1.736
MS.476         	6.655          	1.611
MS.477         	6.642          	1.627
MS.478         	6.628          	1.569
MS.479         	6.615          	1.581
MS.480         	6.602          	1.569
MS.481         	6.587          	1.537
MS.482         	6.575          	1.571
MS.483         	6.562          	1.454
MS.484         	6.55           	1.545
MS.485         	6.535          	1.386
MS.486         	6.523          	1.478
MS.487         	6.51           	1.478
MS.488         	6.497          	1.474
MS.489         	6.485          	1.446
MS.490         	6.47           	1.444
MS.491         	6.457          	1.39
MS.492         	6.445          	1.42
MS.493         	6.432          	1.354
MS.494         	6.42           	1.414
MS.495         	6.407          	1.327
MS.496         	6.395          	1.362
MS.497         	6.38           	1.295
MS.498         	6.367          	1.372
MS.499         	6.355          	1.372
MS.500         	6.342          	1.309
MS.501         	6.33           	1.37
