File:              	C:\Qtrac\Data\Daniel M Sørensen\MScan multicentre study\Data from centres\Oslo\Processed data\SZC00525C.QZD
Name:              	NO.OSL.NC.11.2
Protocol:          	MSCAN-R2
Date:              	25/5/20
Start time:        	16:44:21
Age:               	45
Sex:               	M
Temperature:       	32.9
S/R sites:         	TA
NC/disease:        	NC11
Operator:          	SZ
Comments:          	Test2
M-SCAN DATA (8.8-2.3m)
Scanpts: 76, 91, 673, 681
Stim. (mA)     	Amp. (mV)
MS.1           	34             	8.747
MS.2           	34             	8.695
MS.3           	34             	8.735
MS.4           	34             	8.711
MS.5           	34             	8.697
MS.6           	34             	8.719
MS.7           	34             	8.715
MS.8           	34             	8.693
MS.9           	34             	8.729
MS.10          	34             	8.747
MS.11          	34             	8.715
MS.12          	34             	8.723
MS.13          	34             	8.733
MS.14          	34             	8.758
MS.15          	34             	8.731
MS.16          	34             	8.719
MS.17          	34             	8.717
MS.18          	34             	8.723
MS.19          	34             	8.745
MS.20          	34             	8.723
MS.21          	34             	8.723
MS.22          	34             	8.752
MS.23          	34             	8.703
MS.24          	33.865         	8.655
MS.25          	33.798         	8.693
MS.26          	33.73          	8.794
MS.27          	33.662         	8.756
MS.28          	33.595         	8.747
MS.29          	33.528         	8.764
MS.30          	33.46          	8.745
MS.31          	33.392         	8.76
MS.32          	33.327         	8.766
MS.33          	33.26          	8.754
MS.34          	33.193         	8.76
MS.35          	33.127         	8.721
MS.36          	33.06          	8.743
MS.37          	32.995         	8.737
MS.38          	32.93          	8.721
MS.39          	32.862         	8.77
MS.40          	32.798         	8.715
MS.41          	32.732         	8.695
MS.42          	32.667         	8.715
MS.43          	32.603         	8.725
MS.44          	32.537         	8.729
MS.45          	32.472         	8.707
MS.46          	32.407         	8.713
MS.47          	32.342         	8.729
MS.48          	32.278         	8.735
MS.49          	32.212         	8.743
MS.50          	32.147         	8.725
MS.51          	32.085         	8.731
MS.52          	32.02          	8.768
MS.53          	31.955         	8.764
MS.54          	31.892         	8.703
MS.55          	31.827         	8.752
MS.56          	31.765         	8.669
MS.57          	31.702         	8.75
MS.58          	31.637         	8.731
MS.59          	31.575         	8.723
MS.60          	31.512         	8.739
MS.61          	31.448         	8.764
MS.62          	31.385         	8.741
MS.63          	31.323         	8.764
MS.64          	31.26          	8.735
MS.65          	31.198         	8.737
MS.66          	31.135         	8.76
MS.67          	31.073         	8.772
MS.68          	31.012         	8.588
MS.69          	30.95          	8.731
MS.70          	30.887         	8.705
MS.71          	30.825         	8.76
MS.72          	30.765         	8.721
MS.73          	30.702         	8.739
MS.74          	30.642         	8.743
MS.75          	30.58          	8.756
MS.76          	30.52          	8.743
MS.77          	30.457         	8.745
MS.78          	30.397         	8.725
MS.79          	30.337         	8.77
MS.80          	30.275         	8.725
MS.81          	30.215         	8.731
MS.82          	30.155         	8.717
MS.83          	30.095         	8.727
MS.84          	30.035         	8.764
MS.85          	29.975         	8.735
MS.86          	29.915         	8.745
MS.87          	29.855         	8.731
MS.88          	29.795         	8.735
MS.89          	29.735         	8.721
MS.90          	29.677         	8.683
MS.91          	29.617         	8.747
MS.92          	29.557         	8.705
MS.93          	29.5           	8.709
MS.94          	29.44          	8.697
MS.95          	29.382         	8.703
MS.96          	29.323         	8.663
MS.97          	29.265         	8.679
MS.98          	29.205         	8.689
MS.99          	29.147         	8.741
MS.100         	29.09          	8.687
MS.101         	29.03          	8.661
MS.102         	28.972         	8.697
MS.103         	28.915         	8.689
MS.104         	28.858         	8.691
MS.105         	28.8           	8.679
MS.106         	28.743         	8.699
MS.107         	28.685         	8.717
MS.108         	28.627         	8.731
MS.109         	28.57          	8.693
MS.110         	28.512         	8.723
MS.111         	28.455         	8.695
MS.112         	28.4           	8.679
MS.113         	28.342         	8.669
MS.114         	28.285         	8.685
MS.115         	28.23          	8.675
MS.116         	28.172         	8.687
MS.117         	28.118         	8.693
MS.118         	28.06          	8.689
MS.119         	28.005         	8.663
MS.120         	27.948         	8.665
MS.121         	27.892         	8.703
MS.122         	27.837         	8.675
MS.123         	27.78          	8.677
MS.124         	27.725         	8.675
MS.125         	27.67          	8.643
MS.126         	27.615         	8.699
MS.127         	27.56          	8.649
MS.128         	27.505         	8.657
MS.129         	27.45          	8.661
MS.130         	27.395         	8.693
MS.131         	27.34          	8.693
MS.132         	27.285         	8.669
MS.133         	27.23          	8.689
MS.134         	27.177         	8.633
MS.135         	27.122         	8.681
MS.136         	27.067         	8.663
MS.137         	27.015         	8.695
MS.138         	26.96          	8.649
MS.139         	26.905         	8.693
MS.140         	26.852         	8.659
MS.141         	26.8           	8.677
MS.142         	26.745         	8.681
MS.143         	26.692         	8.685
MS.144         	26.637         	8.635
MS.145         	26.585         	8.667
MS.146         	26.532         	8.635
MS.147         	26.48          	8.635
MS.148         	26.425         	8.607
MS.149         	26.372         	8.655
MS.150         	26.32          	8.615
MS.151         	26.267         	8.661
MS.152         	26.215         	8.663
MS.153         	26.162         	8.627
MS.154         	26.11          	8.609
MS.155         	26.06          	8.611
MS.156         	26.007         	8.651
MS.157         	25.955         	8.602
MS.158         	25.903         	8.645
MS.159         	25.85          	8.629
MS.160         	25.8           	8.621
MS.161         	25.747         	8.604
MS.162         	25.698         	8.594
MS.163         	25.645         	8.582
MS.164         	25.595         	8.611
MS.165         	25.542         	8.602
MS.166         	25.493         	8.592
MS.167         	25.44          	8.59
MS.168         	25.39          	8.578
MS.169         	25.34          	8.576
MS.170         	25.288         	8.598
MS.171         	25.237         	8.59
MS.172         	25.188         	8.617
MS.173         	25.137         	8.576
MS.174         	25.087         	8.613
MS.175         	25.038         	8.566
MS.176         	24.987         	8.564
MS.177         	24.938         	8.584
MS.178         	24.887         	8.609
MS.179         	24.837         	8.588
MS.180         	24.788         	8.586
MS.181         	24.737         	8.534
MS.182         	24.69          	8.566
MS.183         	24.64          	8.564
MS.184         	24.59          	8.609
MS.185         	24.542         	8.6
MS.186         	24.493         	8.568
MS.187         	24.442         	8.544
MS.188         	24.395         	8.56
MS.189         	24.345         	8.631
MS.190         	24.297         	8.514
MS.191         	24.247         	8.445
MS.192         	24.2           	8.558
MS.193         	24.153         	8.5
MS.194         	24.102         	8.52
MS.195         	24.055         	8.534
MS.196         	24.007         	8.596
MS.197         	23.96          	8.433
MS.198         	23.913         	8.453
MS.199         	23.862         	8.504
MS.200         	23.815         	8.508
MS.201         	23.767         	8.433
MS.202         	23.72          	8.411
MS.203         	23.672         	8.488
MS.204         	23.625         	8.401
MS.205         	23.58          	8.407
MS.206         	23.532         	8.407
MS.207         	23.485         	8.357
MS.208         	23.438         	8.371
MS.209         	23.39          	8.367
MS.210         	23.345         	8.365
MS.211         	23.297         	8.407
MS.212         	23.25          	8.345
MS.213         	23.205         	8.373
MS.214         	23.157         	8.371
MS.215         	23.112         	8.31
MS.216         	23.065         	8.377
MS.217         	23.02          	8.329
MS.218         	22.975         	8.314
MS.219         	22.927         	8.29
MS.220         	22.882         	8.369
MS.221         	22.837         	8.345
MS.222         	22.79          	8.288
MS.223         	22.745         	8.272
MS.224         	22.7           	8.316
MS.225         	22.655         	8.268
MS.226         	22.61          	8.228
MS.227         	22.565         	8.306
MS.228         	22.52          	8.222
MS.229         	22.475         	8.266
MS.230         	22.43          	8.27
MS.231         	22.385         	8.127
MS.232         	22.34          	8.127
MS.233         	22.295         	8.131
MS.234         	22.25          	8.167
MS.235         	22.205         	8.101
MS.236         	22.163         	8.067
MS.237         	22.118         	8.083
MS.238         	22.073         	8.083
MS.239         	22.03          	8.075
MS.240         	21.985         	8.069
MS.241         	21.94          	8.107
MS.242         	21.897         	7.992
MS.243         	21.852         	7.962
MS.244         	21.81          	8.049
MS.245         	21.765         	7.96
MS.246         	21.722         	7.984
MS.247         	21.68          	7.982
MS.248         	21.635         	7.968
MS.249         	21.592         	7.966
MS.250         	21.55          	7.881
MS.251         	21.507         	7.962
MS.252         	21.462         	7.849
MS.253         	21.42          	7.867
MS.254         	21.377         	7.898
MS.255         	21.335         	7.871
MS.256         	21.292         	7.869
MS.257         	21.25          	7.809
MS.258         	21.208         	7.863
MS.259         	21.165         	7.827
MS.260         	21.122         	7.809
MS.261         	21.08          	7.72
MS.262         	21.038         	7.829
MS.263         	20.997         	7.789
MS.264         	20.955         	7.771
MS.265         	20.913         	7.704
MS.266         	20.87          	7.755
MS.267         	20.83          	7.785
MS.268         	20.788         	7.722
MS.269         	20.745         	7.68
MS.270         	20.705         	7.763
MS.271         	20.663         	7.672
MS.272         	20.622         	7.664
MS.273         	20.58          	7.755
MS.274         	20.54          	7.734
MS.275         	20.497         	7.652
MS.276         	20.458         	7.726
MS.277         	20.417         	7.694
MS.278         	20.375         	7.718
MS.279         	20.335         	7.648
MS.280         	20.295         	7.62
MS.281         	20.255         	7.595
MS.282         	20.212         	7.614
MS.283         	20.172         	7.505
MS.284         	20.132         	7.666
MS.285         	20.092         	7.626
MS.286         	20.052         	7.559
MS.287         	20.012         	7.646
MS.288         	19.972         	7.603
MS.289         	19.932         	7.593
MS.290         	19.892         	7.583
MS.291         	19.852         	7.587
MS.292         	19.812         	7.575
MS.293         	19.775         	7.509
MS.294         	19.735         	7.557
MS.295         	19.695         	7.515
MS.296         	19.655         	7.38
MS.297         	19.615         	7.434
MS.298         	19.577         	7.499
MS.299         	19.538         	7.442
MS.300         	19.5           	7.376
MS.301         	19.46          	7.477
MS.302         	19.42          	7.412
MS.303         	19.382         	7.36
MS.304         	19.342         	7.249
MS.305         	19.305         	7.346
MS.306         	19.267         	7.376
MS.307         	19.227         	7.317
MS.308         	19.19          	7.354
MS.309         	19.15          	7.301
MS.310         	19.112         	7.251
MS.311         	19.075         	7.132
MS.312         	19.038         	7.164
MS.313         	18.997         	7.164
MS.314         	18.96          	7.048
MS.315         	18.922         	7.126
MS.316         	18.885         	7.229
MS.317         	18.847         	7.039
MS.318         	18.81          	6.987
MS.319         	18.772         	7.078
MS.320         	18.735         	6.963
MS.321         	18.698         	6.917
MS.322         	18.66          	6.963
MS.323         	18.622         	6.854
MS.324         	18.585         	6.907
MS.325         	18.547         	6.923
MS.326         	18.51          	6.804
MS.327         	18.475         	6.741
MS.328         	18.438         	6.798
MS.329         	18.4           	6.711
MS.330         	18.362         	6.608
MS.331         	18.327         	6.617
MS.332         	18.29          	6.584
MS.333         	18.253         	6.504
MS.334         	18.217         	6.598
MS.335         	18.18          	6.524
MS.336         	18.145         	6.439
MS.337         	18.108         	6.459
MS.338         	18.073         	6.433
MS.339         	18.035         	6.351
MS.340         	18             	6.288
MS.341         	17.965         	6.222
MS.342         	17.927         	6.113
MS.343         	17.892         	6.21
MS.344         	17.858         	6.302
MS.345         	17.82          	6.147
MS.346         	17.785         	6.179
MS.347         	17.75          	6.159
MS.348         	17.715         	6.157
MS.349         	17.677         	6.117
MS.350         	17.642         	6.032
MS.351         	17.608         	5.922
MS.352         	17.573         	6.055
MS.353         	17.538         	5.787
MS.354         	17.503         	6.01
MS.355         	17.467         	5.885
MS.356         	17.432         	5.716
MS.357         	17.397         	5.869
MS.358         	17.362         	5.706
MS.359         	17.327         	5.573
MS.360         	17.295         	5.593
MS.361         	17.26          	5.738
MS.362         	17.225         	5.436
MS.363         	17.19          	5.525
MS.364         	17.155         	5.545
MS.365         	17.122         	5.344
MS.366         	17.087         	5.257
MS.367         	17.052         	5.273
MS.368         	17.02          	5.404
MS.369         	16.985         	5.251
MS.370         	16.952         	5.241
MS.371         	16.917         	5.118
MS.372         	16.885         	5.162
MS.373         	16.85          	5.084
MS.374         	16.817         	5.207
MS.375         	16.782         	4.965
MS.376         	16.75          	5.078
MS.377         	16.715         	4.921
MS.378         	16.682         	5.043
MS.379         	16.65          	4.86
MS.380         	16.615         	4.89
MS.381         	16.583         	4.661
MS.382         	16.55          	4.77
MS.383         	16.517         	4.703
MS.384         	16.483         	4.735
MS.385         	16.45          	4.56
MS.386         	16.417         	4.427
MS.387         	16.385         	4.467
MS.388         	16.352         	4.351
MS.389         	16.32          	4.508
MS.390         	16.288         	4.431
MS.391         	16.255         	4.328
MS.392         	16.222         	4.244
MS.393         	16.19          	4.32
MS.394         	16.157         	4.254
MS.395         	16.125         	4.332
MS.396         	16.092         	4.202
MS.397         	16.06          	4.214
MS.398         	16.028         	4.075
MS.399         	15.997         	4.089
MS.400         	15.965         	4.057
MS.401         	15.932         	4.046
MS.402         	15.9           	4.085
MS.403         	15.87          	4.018
MS.404         	15.837         	4.061
MS.405         	15.805         	3.899
MS.406         	15.775         	3.909
MS.407         	15.742         	3.958
MS.408         	15.71          	3.887
MS.409         	15.68          	3.839
MS.410         	15.648         	3.877
MS.411         	15.617         	3.758
MS.412         	15.585         	3.654
MS.413         	15.555         	3.63
MS.414         	15.523         	3.652
MS.415         	15.492         	3.674
MS.416         	15.462         	3.662
MS.417         	15.43          	3.754
MS.418         	15.4           	3.569
MS.419         	15.37          	3.621
MS.420         	15.337         	3.545
MS.421         	15.307         	3.501
MS.422         	15.277         	3.48
MS.423         	15.247         	3.46
MS.424         	15.215         	3.444
MS.425         	15.185         	3.378
MS.426         	15.155         	3.422
MS.427         	15.125         	3.404
MS.428         	15.095         	3.217
MS.429         	15.065         	3.297
MS.430         	15.035         	3.269
MS.431         	15.005         	3.257
MS.432         	14.975         	3.263
MS.433         	14.945         	3.188
MS.434         	14.915         	3.261
MS.435         	14.885         	3.233
MS.436         	14.855         	3.12
MS.437         	14.825         	3.053
MS.438         	14.795         	3.134
MS.439         	14.767         	3.049
MS.440         	14.737         	3.07
MS.441         	14.707         	2.983
MS.442         	14.677         	2.933
MS.443         	14.65          	2.878
MS.444         	14.62          	2.842
MS.445         	14.59          	2.796
MS.446         	14.56          	2.86
MS.447         	14.532         	2.735
MS.448         	14.502         	2.886
MS.449         	14.475         	2.81
MS.450         	14.445         	2.689
MS.451         	14.417         	2.703
MS.452         	14.387         	2.667
MS.453         	14.358         	2.532
MS.454         	14.33          	2.689
MS.455         	14.302         	2.554
MS.456         	14.273         	2.492
MS.457         	14.245         	2.6
MS.458         	14.215         	2.528
MS.459         	14.188         	2.524
MS.460         	14.16          	2.395
MS.461         	14.13          	2.417
MS.462         	14.102         	2.308
MS.463         	14.075         	2.274
MS.464         	14.047         	2.22
MS.465         	14.017         	2.246
MS.466         	13.99          	2.238
MS.467         	13.962         	2.147
MS.468         	13.935         	2.171
MS.469         	13.907         	2.224
MS.470         	13.877         	2.121
MS.471         	13.85          	2.079
MS.472         	13.822         	2.044
MS.473         	13.795         	1.952
MS.474         	13.767         	2.087
MS.475         	13.74          	2.034
MS.476         	13.712         	2.201
MS.477         	13.685         	1.934
MS.478         	13.657         	1.95
MS.479         	13.63          	1.871
MS.480         	13.605         	1.887
MS.481         	13.577         	1.879
MS.482         	13.55          	1.795
MS.483         	13.523         	1.774
MS.484         	13.495         	1.678
MS.485         	13.467         	1.706
MS.486         	13.443         	1.742
MS.487         	13.415         	1.732
MS.488         	13.387         	1.686
MS.489         	13.36          	1.613
MS.490         	13.335         	1.597
MS.491         	13.307         	1.575
MS.492         	13.282         	1.591
MS.493         	13.255         	1.454
MS.494         	13.227         	1.559
MS.495         	13.202         	1.509
MS.496         	13.175         	1.426
MS.497         	13.15          	1.438
MS.498         	13.122         	1.499
MS.499         	13.097         	1.404
MS.500         	13.07          	1.325
