File:              	C:\Qtrac\Data\Daniel M Sørensen\MScan multicentre study\Data from centres\Bucharest\Processed data\TDLC00828F.QZD
Name:              	RO.BU.NC.6.1
Protocol:          	MSCAN-R2
Date:              	28/8/20
Start time:        	14:00:55
Age:               	48
Sex:               	F
Temperature:       	36.1
S/R sites:         	TA
NC/disease:        	NC
Operator:          	TL
Comments:          	RONC6.1.
M-SCAN DATA (5.4-1.5m)
Scanpts: 37, 41, 415, 436
Stim. (mA)     	Amp. (mV)
MS.1           	20.5           	3.68
MS.2           	20.5           	3.7
MS.3           	20.5           	3.664
MS.4           	20.5           	3.67
MS.5           	20.5           	3.648
MS.6           	20.5           	3.646
MS.7           	20.5           	3.642
MS.8           	20.5           	3.636
MS.9           	20.5           	3.638
MS.10          	20.5           	3.648
MS.11          	20.5           	3.66
MS.12          	20.5           	3.644
MS.13          	20.5           	3.658
MS.14          	20.5           	3.66
MS.15          	20.5           	3.662
MS.16          	20.5           	3.654
MS.17          	20.5           	3.658
MS.18          	20.5           	3.666
MS.19          	20.5           	3.658
MS.20          	20.5           	3.688
MS.21          	20.5           	3.648
MS.22          	20.5           	3.684
MS.23          	20.5           	3.662
MS.24          	20.417         	3.666
MS.25          	20.377         	3.66
MS.26          	20.337         	3.66
MS.27          	20.295         	3.64
MS.28          	20.255         	3.674
MS.29          	20.215         	3.67
MS.30          	20.175         	3.674
MS.31          	20.135         	3.67
MS.32          	20.095         	3.63
MS.33          	20.055         	3.666
MS.34          	20.015         	3.638
MS.35          	19.975         	3.68
MS.36          	19.935         	3.67
MS.37          	19.895         	3.654
MS.38          	19.855         	3.654
MS.39          	19.815         	3.644
MS.40          	19.775         	3.644
MS.41          	19.735         	3.658
MS.42          	19.695         	3.634
MS.43          	19.657         	3.642
MS.44          	19.618         	3.662
MS.45          	19.577         	3.664
MS.46          	19.54          	3.636
MS.47          	19.5           	3.662
MS.48          	19.46          	3.597
MS.49          	19.422         	3.621
MS.50          	19.382         	3.603
MS.51          	19.345         	3.617
MS.52          	19.305         	3.597
MS.53          	19.267         	3.628
MS.54          	19.23          	3.605
MS.55          	19.19          	3.65
MS.56          	19.153         	3.666
MS.57          	19.115         	3.603
MS.58          	19.075         	3.609
MS.59          	19.038         	3.585
MS.60          	19             	3.555
MS.61          	18.962         	3.615
MS.62          	18.925         	3.581
MS.63          	18.885         	3.621
MS.64          	18.847         	3.656
MS.65          	18.81          	3.601
MS.66          	18.772         	3.617
MS.67          	18.735         	3.611
MS.68          	18.698         	3.696
MS.69          	18.66          	3.601
MS.70          	18.622         	3.646
MS.71          	18.585         	3.607
MS.72          	18.55          	3.648
MS.73          	18.512         	3.595
MS.74          	18.475         	3.595
MS.75          	18.438         	3.676
MS.76          	18.403         	3.658
MS.77          	18.365         	3.591
MS.78          	18.327         	3.603
MS.79          	18.29          	3.591
MS.80          	18.255         	3.609
MS.81          	18.217         	3.579
MS.82          	18.182         	3.579
MS.83          	18.145         	3.549
MS.84          	18.11          	3.599
MS.85          	18.073         	3.595
MS.86          	18.038         	3.579
MS.87          	18             	3.559
MS.88          	17.965         	3.583
MS.89          	17.93          	3.579
MS.90          	17.892         	3.595
MS.91          	17.858         	3.591
MS.92          	17.823         	3.63
MS.93          	17.785         	3.557
MS.94          	17.75          	3.563
MS.95          	17.715         	3.543
MS.96          	17.68          	3.581
MS.97          	17.645         	3.559
MS.98          	17.61          	3.585
MS.99          	17.575         	3.581
MS.100         	17.54          	3.527
MS.101         	17.505         	3.547
MS.102         	17.47          	3.537
MS.103         	17.435         	3.539
MS.104         	17.4           	3.48
MS.105         	17.365         	3.48
MS.106         	17.33          	3.507
MS.107         	17.295         	3.527
MS.108         	17.26          	3.521
MS.109         	17.225         	3.555
MS.110         	17.192         	3.448
MS.111         	17.157         	3.414
MS.112         	17.122         	3.428
MS.113         	17.09          	3.484
MS.114         	17.055         	3.468
MS.115         	17.02          	3.48
MS.116         	16.987         	3.476
MS.117         	16.952         	3.436
MS.118         	16.917         	3.424
MS.119         	16.885         	3.472
MS.120         	16.85          	3.442
MS.121         	16.817         	3.428
MS.122         	16.785         	3.45
MS.123         	16.75          	3.412
MS.124         	16.717         	3.398
MS.125         	16.682         	3.384
MS.126         	16.65          	3.412
MS.127         	16.618         	3.454
MS.128         	16.583         	3.382
MS.129         	16.55          	3.412
MS.130         	16.517         	3.432
MS.131         	16.485         	3.364
MS.132         	16.452         	3.386
MS.133         	16.417         	3.36
MS.134         	16.385         	3.335
MS.135         	16.352         	3.346
MS.136         	16.32          	3.329
MS.137         	16.288         	3.267
MS.138         	16.255         	3.301
MS.139         	16.222         	3.297
MS.140         	16.19          	3.309
MS.141         	16.157         	3.289
MS.142         	16.125         	3.305
MS.143         	16.092         	3.265
MS.144         	16.062         	3.277
MS.145         	16.03          	3.19
MS.146         	15.997         	3.207
MS.147         	15.965         	3.273
MS.148         	15.932         	3.227
MS.149         	15.902         	3.253
MS.150         	15.87          	3.233
MS.151         	15.837         	3.267
MS.152         	15.807         	3.247
MS.153         	15.775         	3.243
MS.154         	15.742         	3.237
MS.155         	15.712         	3.239
MS.156         	15.68          	3.223
MS.157         	15.65          	3.172
MS.158         	15.617         	3.201
MS.159         	15.587         	3.225
MS.160         	15.555         	3.198
MS.161         	15.525         	3.146
MS.162         	15.492         	3.158
MS.163         	15.462         	3.112
MS.164         	15.432         	3.148
MS.165         	15.4           	3.019
MS.166         	15.37          	3.174
MS.167         	15.34          	3.11
MS.168         	15.307         	3.092
MS.169         	15.277         	3.162
MS.170         	15.247         	3.096
MS.171         	15.217         	3.124
MS.172         	15.188         	2.993
MS.173         	15.157         	2.979
MS.174         	15.125         	3.057
MS.175         	15.095         	3.045
MS.176         	15.065         	2.969
MS.177         	15.035         	2.993
MS.178         	15.005         	2.898
MS.179         	14.975         	2.914
MS.180         	14.945         	2.937
MS.181         	14.915         	2.886
MS.182         	14.885         	2.88
MS.183         	14.858         	2.929
MS.184         	14.827         	2.933
MS.185         	14.797         	2.945
MS.186         	14.767         	2.854
MS.187         	14.737         	2.751
MS.188         	14.707         	2.84
MS.189         	14.68          	2.848
MS.190         	14.65          	2.701
MS.191         	14.62          	2.826
MS.192         	14.59          	2.679
MS.193         	14.562         	2.598
MS.194         	14.532         	2.721
MS.195         	14.505         	2.645
MS.196         	14.475         	2.679
MS.197         	14.445         	2.61
MS.198         	14.417         	2.701
MS.199         	14.387         	2.695
MS.200         	14.36          	2.723
MS.201         	14.33          	2.604
MS.202         	14.302         	2.572
MS.203         	14.273         	2.526
MS.204         	14.245         	2.596
MS.205         	14.217         	2.584
MS.206         	14.188         	2.62
MS.207         	14.16          	2.524
MS.208         	14.132         	2.556
MS.209         	14.102         	2.54
MS.210         	14.075         	2.483
MS.211         	14.047         	2.465
MS.212         	14.02          	2.465
MS.213         	13.99          	2.51
MS.214         	13.962         	2.494
MS.215         	13.935         	2.395
MS.216         	13.907         	2.419
MS.217         	13.88          	2.393
MS.218         	13.852         	2.357
MS.219         	13.825         	2.328
MS.220         	13.797         	2.367
MS.221         	13.77          	2.351
MS.222         	13.742         	2.381
MS.223         	13.715         	2.363
MS.224         	13.688         	2.296
MS.225         	13.66          	2.316
MS.226         	13.632         	2.294
MS.227         	13.605         	2.32
MS.228         	13.577         	2.234
MS.229         	13.55          	2.302
MS.230         	13.523         	2.246
MS.231         	13.497         	2.203
MS.232         	13.47          	2.187
MS.233         	13.443         	2.193
MS.234         	13.415         	2.195
MS.235         	13.39          	2.125
MS.236         	13.362         	2.199
MS.237         	13.335         	2.06
MS.238         	13.307         	2.288
MS.239         	13.282         	2.052
MS.240         	13.255         	2.036
MS.241         	13.23          	1.97
MS.242         	13.202         	2.032
MS.243         	13.177         	2.026
MS.244         	13.15          	1.98
MS.245         	13.122         	1.915
MS.246         	13.097         	2.062
MS.247         	13.072         	1.96
MS.248         	13.045         	2.004
MS.249         	13.02          	1.879
MS.250         	12.992         	1.95
MS.251         	12.967         	1.897
MS.252         	12.943         	1.867
MS.253         	12.915         	1.855
MS.254         	12.89          	1.827
MS.255         	12.865         	1.873
MS.256         	12.837         	1.913
MS.257         	12.812         	1.682
MS.258         	12.787         	1.742
MS.259         	12.762         	1.704
MS.260         	12.735         	1.704
MS.261         	12.71          	1.664
MS.262         	12.685         	1.625
MS.263         	12.66          	1.613
MS.264         	12.635         	1.652
MS.265         	12.61          	1.652
MS.266         	12.585         	1.597
MS.267         	12.56          	1.565
MS.268         	12.532         	1.503
MS.269         	12.507         	1.593
MS.270         	12.483         	1.454
MS.271         	12.457         	1.531
MS.272         	12.435         	1.497
MS.273         	12.41          	1.513
MS.274         	12.385         	1.406
MS.275         	12.36          	1.42
MS.276         	12.335         	1.398
MS.277         	12.31          	1.38
MS.278         	12.285         	1.432
MS.279         	12.26          	1.36
MS.280         	12.238         	1.323
MS.281         	12.212         	1.307
MS.282         	12.188         	1.235
MS.283         	12.162         	1.281
MS.284         	12.14          	1.283
MS.285         	12.115         	1.208
MS.286         	12.09          	1.118
MS.287         	12.068         	1.174
MS.288         	12.042         	1.134
MS.289         	12.017         	1.1
MS.290         	11.995         	1.068
MS.291         	11.97          	1.043
MS.292         	11.947         	1.074
MS.293         	11.922         	0.991
MS.294         	11.898         	1.039
MS.295         	11.875         	0.997
MS.296         	11.85          	0.983
MS.297         	11.827         	0.991
MS.298         	11.805         	0.927
MS.299         	11.78          	0.91
MS.300         	11.757         	0.824
MS.301         	11.733         	0.927
MS.302         	11.71          	0.9
MS.303         	11.688         	0.856
MS.304         	11.662         	0.848
MS.305         	11.64          	0.844
MS.306         	11.617         	0.81
MS.307         	11.592         	0.832
MS.308         	11.57          	0.759
MS.309         	11.547         	0.786
MS.310         	11.525         	0.767
MS.311         	11.5           	0.689
MS.312         	11.477         	0.755
MS.313         	11.455         	0.717
MS.314         	11.432         	0.655
MS.315         	11.41          	0.641
MS.316         	11.387         	0.596
MS.317         	11.363         	0.504
MS.318         	11.34          	0.58
MS.319         	11.318         	0.554
MS.320         	11.295         	0.524
MS.321         	11.273         	0.508
MS.322         	11.25          	0.514
MS.323         	11.227         	0.502
MS.324         	11.205         	0.475
MS.325         	11.182         	0.433
MS.326         	11.16          	0.479
MS.327         	11.137         	0.401
MS.328         	11.117         	0.437
MS.329         	11.095         	0.294
MS.330         	11.073         	0.3
MS.331         	11.05          	0.348
MS.332         	11.028         	0.365
MS.333         	11.005         	0.32
MS.334         	10.985         	0.344
MS.335         	10.962         	0.268
MS.336         	10.94          	0.254
MS.337         	10.917         	0.264
MS.338         	10.898         	0.272
MS.339         	10.875         	0.29
MS.340         	10.852         	0.199
MS.341         	10.83          	0.236
MS.342         	10.81          	0.222
MS.343         	10.787         	0.175
MS.344         	10.767         	0.177
MS.345         	10.745         	0.22
MS.346         	10.722         	0.153
MS.347         	10.702         	0.155
MS.348         	10.68          	0.177
MS.349         	10.66          	0.222
MS.350         	10.637         	0.171
MS.351         	10.617         	0.181
MS.352         	10.595         	0.125
MS.353         	10.575         	0.165
MS.354         	10.552         	0.109
MS.355         	10.532         	0.153
MS.356         	10.51          	0.125
MS.357         	10.49          	0.093
MS.358         	10.47          	0.103
MS.359         	10.448         	0.127
MS.360         	10.427         	0.07
MS.361         	10.407         	0.093
MS.362         	10.385         	0.087
MS.363         	10.365         	0.099
MS.364         	10.345         	0.07
MS.365         	10.323         	0.087
MS.366         	10.302         	0.117
MS.367         	10.282         	0.109
MS.368         	10.262         	0.083
MS.369         	10.24          	0.07
MS.370         	10.22          	0.06
MS.371         	10.2           	0.077
MS.372         	10.18          	0.066
MS.373         	10.16          	0.054
MS.374         	10.14          	0.054
MS.375         	10.12          	0.079
MS.376         	10.1           	0.068
MS.377         	10.077         	0.083
MS.378         	10.057         	0.07
MS.379         	10.037         	0.073
MS.380         	10.017         	0.058
MS.381         	9.997          	0.056
MS.382         	9.977          	0.054
MS.383         	9.957          	0.048
MS.384         	9.938          	0.05
MS.385         	9.917          	0.056
MS.386         	9.9            	0.058
MS.387         	9.88           	0.038
MS.388         	9.86           	0.046
MS.389         	9.84           	0.046
MS.390         	9.82           	0.036
MS.391         	9.8            	0.038
MS.392         	9.78           	0.048
MS.393         	9.762          	0.056
MS.394         	9.742          	0.04
MS.395         	9.722          	0.048
MS.396         	9.702          	0.044
MS.397         	9.682          	0.034
MS.398         	9.665          	0.032
MS.399         	9.645          	0.038
MS.400         	9.625          	0.034
MS.401         	9.608          	0.036
MS.402         	9.587          	0.032
MS.403         	9.568          	0.034
MS.404         	9.55           	0.034
MS.405         	9.53           	0.034
MS.406         	9.51           	0.036
MS.407         	9.492          	0.028
MS.408         	9.472          	0.024
MS.409         	9.455          	0.03
MS.410         	9.435          	0.028
MS.411         	9.415          	0.028
MS.412         	9.398          	0.024
MS.413         	9.377          	0.028
MS.414         	9.36           	0.026
MS.415         	9.34           	0.026
MS.416         	9.323          	0.024
MS.417         	9.305          	0.022
MS.418         	9.285          	0.026
MS.419         	9.267          	0.026
MS.420         	9.247          	0.026
MS.421         	9.23           	0.026
MS.422         	9.21           	0.028
MS.423         	9.193          	0.03
MS.424         	9.175          	0.028
MS.425         	9.155          	0.026
MS.426         	9.137          	0.028
MS.427         	9.12           	0.022
MS.428         	9.102          	0.024
MS.429         	9.082          	0.024
MS.430         	9.065          	0.026
MS.431         	9.047          	0.028
MS.432         	9.03           	0.03
MS.433         	9.01           	0.02
MS.434         	8.992          	0.028
MS.435         	8.975          	0.024
MS.436         	8.957          	0.026
DERIVED EXCITABILITY VARIABLES
Program = QTracP 3/4/2020
Threshold method = 6 (optimised for CAP, using data for present condition only)
SR method = 1 (using actual data values)
6.                 	0.000               	Peak response\(mV)
9.                 	36.1                	Temperature ( C)
17.                	48                  	Age (years)
18.                	2                   	Sex (M=1, F=2)

EXTRA VARIABLES

MScPeak(mV) = 3.63
MScS5(mA) = 10.72
MScS50(mA) = 12.83
MScS95(mA) = 16.89
MScNSteps = 2
MScSteps(%) = 4.4
MScStepMax(%) = 2.3
MScD50 = 54
MScSlope = 4.44
MSFPeakAmp(mV) = 3.62
MSFNUnits = 179
MSFMeanUnitAmp(uV) = 20.3
MSFHuntTime(m) = 2.18
MSFError(%) = 0.956
MSFNLarge = 51.53
MSFMedianAmp(%) = 0.471
MSFMedianAmp(mV) = 0.0171
MSFHalfAmpAmp(%) = 0.547
MSFHalfAmpAmp(mV) = 0.0198
MSFLargestAmp(%) = 2.16
MSFLargestAmp(mV) = 0.0782
MSFMeanRS(%) = 2
MSFOpts = 10106121
MScDuration(min) = 3.9
MSFTraces = 400
MSFSizeLimit(uV) = 9.1
MSFLimitType = 1
MSFSmallestAmp(uV) = 9.16

EXTRA WAVEFORMS


!MScan Model
!179
	1	9.59	0.26	2
	2	9.78	0.54	2.4
	3	10.26	0.7	2
	4	10.41	0.65	2
	5	10.48	0.51	2
	6	10.56	0.48	2
	7	10.64	0.57	2
	8	10.7	0.74	2
	9	10.75	0.39	2
	10	10.79	0.55	2
	11	10.83	0.49	2
	12	10.88	0.4	2
	13	10.92	0.52	2
	14	10.94	0.37	2
	15	10.97	0.4	2
	16	11	0.55	2
	17	11.02	0.51	2
	18	11.05	0.47	2
	19	11.07	0.53	2
	20	11.1	0.38	2
	21	11.13	0.49	2
	22	11.15	0.44	2
	23	11.17	0.39	2
	24	11.19	0.39	2
	25	11.21	0.41	2
	26	11.23	0.49	2
	27	11.25	0.47	2
	28	11.27	0.48	2
	29	11.28	0.37	2
	30	11.3	0.34	2
	31	11.31	0.36	2
	32	11.32	0.36	2
	33	11.34	0.36	2
	34	11.35	0.4	2
	35	11.37	0.32	2
	36	11.38	0.27	2
	37	11.39	0.27	2
	38	11.4	0.28	2
	39	11.41	0.28	2
	40	11.43	0.37	2
	41	11.45	0.4	2
	42	11.47	0.28	2
	43	11.48	0.29	2
	44	11.49	0.28	2
	45	11.5	0.28	2
	46	11.51	0.41	2
	47	11.53	0.44	2
	48	11.55	0.44	2
	49	11.57	0.35	2
	50	11.58	0.36	2
	51	11.6	0.33	2
	52	11.62	0.31	2
	53	11.63	0.3	2
	54	11.65	0.31	2
	55	11.66	0.33	2
	56	11.68	0.32	2
	57	11.69	0.31	2
	58	11.71	0.29	2
	59	11.72	0.3	2
	60	11.74	0.28	2
	61	11.76	0.48	2
	62	11.79	0.47	2
	63	11.81	0.49	2
	64	11.82	0.25	2
	65	11.84	0.27	2
	66	11.85	0.29	2
	67	11.86	0.3	2
	68	11.88	0.29	2
	69	11.89	0.26	2
	70	11.91	0.3	2
	71	11.92	0.32	2
	72	11.93	0.33	2
	73	11.95	0.34	2
	74	11.96	0.34	2
	75	11.97	0.28	2
	76	11.99	0.45	2
	77	12.01	0.58	2
	78	12.03	0.38	2
	79	12.04	0.38	2
	80	12.07	0.61	2
	81	12.08	0.26	2
	82	12.09	0.26	2
	83	12.1	0.26	2
