File:              	C:\Qtrac\Data\Daniel M Sørensen\MScan multicentre study\Data from centres\Bucharest\Processed data\TDLC00210C.QZD
Name:              	RO.BU.NC.3.2
Protocol:          	MSCAN-R2
Date:              	10/2/20
Start time:        	14:15:09
Age:               	31
Sex:               	M
Temperature:       	36.8
S/R sites:         	TA
NC/disease:        	RONC3.2
Operator:          	TL
Comments:
M-SCAN DATA (8.9-2.3m)
Scanpts: 139, 145, 686, 699
Stim. (mA)     	Amp. (mV)
MS.1           	20             	4.953
MS.2           	20             	4.945
MS.3           	20             	4.953
MS.4           	20             	4.935
MS.5           	20             	4.961
MS.6           	20             	4.937
MS.7           	20             	4.947
MS.8           	20             	4.945
MS.9           	20             	4.947
MS.10          	20             	4.941
MS.11          	20             	4.949
MS.12          	20             	4.955
MS.13          	20             	4.939
MS.14          	20             	4.943
MS.15          	20             	4.937
MS.16          	20             	4.951
MS.17          	20             	4.927
MS.18          	20             	4.939
MS.19          	20             	4.939
MS.20          	20             	4.947
MS.21          	20             	4.941
MS.22          	20             	4.919
MS.23          	20             	4.931
MS.24          	19.92          	4.939
MS.25          	19.88          	4.947
MS.26          	19.84          	4.943
MS.27          	19.8           	4.937
MS.28          	19.762         	4.941
MS.29          	19.722         	4.917
MS.30          	19.682         	4.929
MS.31          	19.642         	4.927
MS.32          	19.605         	4.923
MS.33          	19.565         	4.919
MS.34          	19.525         	4.931
MS.35          	19.487         	4.921
MS.36          	19.448         	4.925
MS.37          	19.41          	4.929
MS.38          	19.37          	4.943
MS.39          	19.333         	4.931
MS.40          	19.292         	4.933
MS.41          	19.255         	4.941
MS.42          	19.215         	4.915
MS.43          	19.177         	4.925
MS.44          	19.14          	4.933
MS.45          	19.1           	4.931
MS.46          	19.062         	4.931
MS.47          	19.025         	4.937
MS.48          	18.987         	4.925
MS.49          	18.948         	4.925
MS.50          	18.91          	4.929
MS.51          	18.872         	4.937
MS.52          	18.835         	4.933
MS.53          	18.797         	4.923
MS.54          	18.76          	4.919
MS.55          	18.722         	4.925
MS.56          	18.685         	4.921
MS.57          	18.647         	4.911
MS.58          	18.61          	4.913
MS.59          	18.573         	4.913
MS.60          	18.535         	4.927
MS.61          	18.5           	4.921
MS.62          	18.462         	4.921
MS.63          	18.425         	4.902
MS.64          	18.387         	4.913
MS.65          	18.352         	4.917
MS.66          	18.315         	4.909
MS.67          	18.278         	4.913
MS.68          	18.243         	4.913
MS.69          	18.205         	4.915
MS.70          	18.17          	4.923
MS.71          	18.132         	4.929
MS.72          	18.097         	4.902
MS.73          	18.06          	4.909
MS.74          	18.025         	4.911
MS.75          	17.987         	4.909
MS.76          	17.952         	4.909
MS.77          	17.917         	4.919
MS.78          	17.88          	4.904
MS.79          	17.845         	4.915
MS.80          	17.81          	4.911
MS.81          	17.775         	4.902
MS.82          	17.737         	4.909
MS.83          	17.702         	4.906
MS.84          	17.667         	4.904
MS.85          	17.632         	4.902
MS.86          	17.597         	4.909
MS.87          	17.562         	4.892
MS.88          	17.528         	4.906
MS.89          	17.493         	4.898
MS.90          	17.458         	4.909
MS.91          	17.422         	4.911
MS.92          	17.387         	4.909
MS.93          	17.352         	4.915
MS.94          	17.317         	4.913
MS.95          	17.282         	4.9
MS.96          	17.247         	4.911
MS.97          	17.215         	4.898
MS.98          	17.18          	4.909
MS.99          	17.145         	4.913
MS.100         	17.11          	4.89
MS.101         	17.077         	4.909
MS.102         	17.042         	4.892
MS.103         	17.01          	4.894
MS.104         	16.975         	4.904
MS.105         	16.94          	4.876
MS.106         	16.907         	4.915
MS.107         	16.872         	4.898
MS.108         	16.84          	4.888
MS.109         	16.805         	4.896
MS.110         	16.772         	4.917
MS.111         	16.74          	4.909
MS.112         	16.705         	4.894
MS.113         	16.672         	4.894
MS.114         	16.637         	4.896
MS.115         	16.605         	4.898
MS.116         	16.573         	4.892
MS.117         	16.54          	4.892
MS.118         	16.505         	4.894
MS.119         	16.472         	4.909
MS.120         	16.44          	4.894
MS.121         	16.407         	4.894
MS.122         	16.375         	4.925
MS.123         	16.342         	4.898
MS.124         	16.31          	4.919
MS.125         	16.278         	4.911
MS.126         	16.245         	4.904
MS.127         	16.212         	4.911
MS.128         	16.18          	4.915
MS.129         	16.147         	4.911
MS.130         	16.115         	4.896
MS.131         	16.083         	4.904
MS.132         	16.05          	4.915
MS.133         	16.017         	4.917
MS.134         	15.985         	4.902
MS.135         	15.955         	4.906
MS.136         	15.922         	4.909
MS.137         	15.89          	4.898
MS.138         	15.86          	4.898
MS.139         	15.827         	4.898
MS.140         	15.795         	4.898
MS.141         	15.765         	4.906
MS.142         	15.733         	4.902
MS.143         	15.7           	4.904
MS.144         	15.67          	4.909
MS.145         	15.637         	4.906
MS.146         	15.608         	4.896
MS.147         	15.575         	4.904
MS.148         	15.545         	4.911
MS.149         	15.515         	4.919
MS.150         	15.483         	4.909
MS.151         	15.452         	4.909
MS.152         	15.42          	4.921
MS.153         	15.39          	4.919
MS.154         	15.36          	4.919
MS.155         	15.327         	4.917
MS.156         	15.297         	4.915
MS.157         	15.267         	4.909
MS.158         	15.237         	4.923
MS.159         	15.207         	4.917
MS.160         	15.175         	4.925
MS.161         	15.145         	4.909
MS.162         	15.115         	4.915
MS.163         	15.085         	4.915
MS.164         	15.055         	4.909
MS.165         	15.025         	4.884
MS.166         	14.995         	4.927
MS.167         	14.965         	4.874
MS.168         	14.935         	4.911
MS.169         	14.905         	4.919
MS.170         	14.875         	4.911
MS.171         	14.845         	4.88
MS.172         	14.818         	4.864
MS.173         	14.787         	4.866
MS.174         	14.757         	4.906
MS.175         	14.727         	4.874
MS.176         	14.697         	4.882
MS.177         	14.67          	4.915
MS.178         	14.64          	4.913
MS.179         	14.61          	4.913
MS.180         	14.58          	4.876
MS.181         	14.552         	4.88
MS.182         	14.523         	4.862
MS.183         	14.495         	4.906
MS.184         	14.465         	4.911
MS.185         	14.435         	4.921
MS.186         	14.407         	4.86
MS.187         	14.377         	4.868
MS.188         	14.35          	4.868
MS.189         	14.32          	4.862
MS.190         	14.292         	4.874
MS.191         	14.265         	4.828
MS.192         	14.235         	4.89
MS.193         	14.207         	4.862
MS.194         	14.177         	4.85
MS.195         	14.15          	4.854
MS.196         	14.122         	4.84
MS.197         	14.092         	4.86
MS.198         	14.065         	4.862
MS.199         	14.037         	4.846
MS.200         	14.01          	4.834
MS.201         	13.983         	4.818
MS.202         	13.952         	4.802
MS.203         	13.925         	4.85
MS.204         	13.898         	4.82
MS.205         	13.87          	4.8
MS.206         	13.842         	4.782
MS.207         	13.815         	4.806
MS.208         	13.787         	4.81
MS.209         	13.76          	4.796
MS.210         	13.733         	4.798
MS.211         	13.705         	4.776
MS.212         	13.677         	4.766
MS.213         	13.65          	4.816
MS.214         	13.622         	4.774
MS.215         	13.595         	4.727
MS.216         	13.568         	4.759
MS.217         	13.54          	4.729
MS.218         	13.515         	4.759
MS.219         	13.487         	4.788
MS.220         	13.46          	4.731
MS.221         	13.432         	4.709
MS.222         	13.407         	4.691
MS.223         	13.38          	4.689
MS.224         	13.352         	4.727
MS.225         	13.325         	4.701
MS.226         	13.3           	4.719
MS.227         	13.273         	4.685
MS.228         	13.247         	4.695
MS.229         	13.22          	4.683
MS.230         	13.193         	4.643
MS.231         	13.167         	4.709
MS.232         	13.14          	4.681
MS.233         	13.115         	4.681
MS.234         	13.087         	4.655
MS.235         	13.062         	4.657
MS.236         	13.035         	4.649
MS.237         	13.01          	4.627
MS.238         	12.985         	4.62
MS.239         	12.957         	4.61
MS.240         	12.932         	4.594
MS.241         	12.907         	4.622
MS.242         	12.88          	4.616
MS.243         	12.855         	4.582
MS.244         	12.83          	4.578
MS.245         	12.802         	4.576
MS.246         	12.778         	4.566
MS.247         	12.752         	4.562
MS.248         	12.727         	4.586
MS.249         	12.702         	4.556
MS.250         	12.675         	4.53
MS.251         	12.65          	4.536
MS.252         	12.625         	4.544
MS.253         	12.6           	4.564
MS.254         	12.575         	4.49
MS.255         	12.55          	4.477
MS.256         	12.525         	4.516
MS.257         	12.5           	4.455
MS.258         	12.475         	4.459
MS.259         	12.45          	4.482
MS.260         	12.425         	4.429
MS.261         	12.4           	4.461
MS.262         	12.375         	4.514
MS.263         	12.35          	4.453
MS.264         	12.325         	4.417
MS.265         	12.302         	4.419
MS.266         	12.278         	4.492
MS.267         	12.252         	4.377
MS.268         	12.227         	4.375
MS.269         	12.202         	4.379
MS.270         	12.18          	4.387
MS.271         	12.155         	4.421
MS.272         	12.13          	4.355
MS.273         	12.108         	4.363
MS.274         	12.082         	4.393
MS.275         	12.057         	4.328
MS.276         	12.035         	4.314
MS.277         	12.01          	4.304
MS.278         	11.985         	4.292
MS.279         	11.962         	4.347
MS.280         	11.938         	4.33
MS.281         	11.915         	4.29
MS.282         	11.89          	4.296
MS.283         	11.867         	4.212
MS.284         	11.842         	4.252
MS.285         	11.82          	4.268
MS.286         	11.795         	4.292
MS.287         	11.773         	4.21
MS.288         	11.747         	4.234
MS.289         	11.725         	4.226
MS.290         	11.702         	4.25
MS.291         	11.677         	4.131
MS.292         	11.655         	4.185
MS.293         	11.632         	4.163
MS.294         	11.608         	4.167
MS.295         	11.585         	4.135
MS.296         	11.562         	4.117
MS.297         	11.54          	4.095
MS.298         	11.515         	4.143
MS.299         	11.492         	4.077
MS.300         	11.47          	4.139
MS.301         	11.447         	4.028
MS.302         	11.425         	3.994
MS.303         	11.403         	3.922
MS.304         	11.377         	4.04
MS.305         	11.355         	4.038
MS.306         	11.332         	4.018
MS.307         	11.31          	3.944
MS.308         	11.287         	3.974
MS.309         	11.265         	3.944
MS.310         	11.242         	3.946
MS.311         	11.22          	3.893
MS.312         	11.197         	3.839
MS.313         	11.175         	3.905
MS.314         	11.153         	3.839
MS.315         	11.13          	3.807
MS.316         	11.108         	3.855
MS.317         	11.087         	3.839
MS.318         	11.065         	3.754
MS.319         	11.042         	3.811
MS.320         	11.02          	3.809
MS.321         	10.997         	3.738
MS.322         	10.975         	3.696
MS.323         	10.955         	3.764
MS.324         	10.932         	3.801
MS.325         	10.91          	3.714
MS.326         	10.887         	3.648
MS.327         	10.867         	3.63
MS.328         	10.845         	3.722
MS.329         	10.823         	3.615
MS.330         	10.802         	3.603
MS.331         	10.78          	3.68
MS.332         	10.76          	3.581
MS.333         	10.738         	3.621
MS.334         	10.715         	3.541
MS.335         	10.695         	3.603
MS.336         	10.672         	3.567
MS.337         	10.653         	3.585
MS.338         	10.63          	3.555
MS.339         	10.61          	3.537
MS.340         	10.587         	3.553
MS.341         	10.568         	3.541
MS.342         	10.545         	3.466
MS.343         	10.525         	3.452
MS.344         	10.502         	3.468
MS.345         	10.483         	3.464
MS.346         	10.462         	3.44
MS.347         	10.44          	3.346
MS.348         	10.42          	3.428
MS.349         	10.4           	3.398
MS.350         	10.377         	3.36
MS.351         	10.358         	3.402
MS.352         	10.337         	3.283
MS.353         	10.318         	3.311
MS.354         	10.295         	3.269
MS.355         	10.275         	3.257
MS.356         	10.255         	3.366
MS.357         	10.235         	3.333
MS.358         	10.212         	3.237
MS.359         	10.193         	3.327
MS.360         	10.172         	3.249
MS.361         	10.153         	3.225
MS.362         	10.132         	3.178
MS.363         	10.113         	3.231
MS.364         	10.092         	3.213
MS.365         	10.073         	3.162
MS.366         	10.052         	3.168
MS.367         	10.032         	3.102
MS.368         	10.012         	3.11
MS.369         	9.992          	3.096
MS.370         	9.972          	3.072
MS.371         	9.952          	3.11
MS.372         	9.932          	3.114
MS.373         	9.912          	2.997
MS.374         	9.892          	2.983
MS.375         	9.872          	2.957
MS.376         	9.852          	2.935
MS.377         	9.832          	2.949
MS.378         	9.812          	2.866
MS.379         	9.792          	2.921
MS.380         	9.775          	2.902
MS.381         	9.755          	2.822
MS.382         	9.735          	2.786
MS.383         	9.715          	2.745
MS.384         	9.695          	2.917
MS.385         	9.677          	2.755
MS.386         	9.657          	2.671
MS.387         	9.637          	2.641
MS.388         	9.62           	2.657
MS.389         	9.6            	2.58
MS.390         	9.58           	2.6
MS.391         	9.562          	2.624
MS.392         	9.542          	2.5
MS.393         	9.523          	2.494
MS.394         	9.505          	2.524
MS.395         	9.485          	2.471
MS.396         	9.465          	2.504
MS.397         	9.448          	2.544
MS.398         	9.427          	2.407
MS.399         	9.41           	2.381
MS.400         	9.39           	2.473
MS.401         	9.372          	2.346
MS.402         	9.352          	2.288
MS.403         	9.335          	2.363
MS.404         	9.315          	2.298
MS.405         	9.297          	2.328
MS.406         	9.28           	2.242
MS.407         	9.26           	2.298
MS.408         	9.242          	2.268
MS.409         	9.222          	2.193
MS.410         	9.205          	2.228
MS.411         	9.188          	2.195
MS.412         	9.167          	2.179
MS.413         	9.15           	2.179
MS.414         	9.132          	2.197
MS.415         	9.113          	2.077
MS.416         	9.095          	2.067
MS.417         	9.077          	2.087
MS.418         	9.057          	2.073
MS.419         	9.04           	1.962
MS.420         	9.023          	2.024
MS.421         	9.005          	1.907
MS.422         	8.988          	1.932
MS.423         	8.967          	1.924
MS.424         	8.95           	1.917
MS.425         	8.932          	1.958
MS.426         	8.915          	1.903
MS.427         	8.898          	1.825
MS.428         	8.88           	1.756
MS.429         	8.863          	1.74
MS.430         	8.845          	1.77
MS.431         	8.825          	1.795
MS.432         	8.807          	1.772
MS.433         	8.79           	1.754
MS.434         	8.773          	1.728
MS.435         	8.755          	1.69
MS.436         	8.738          	1.664
MS.437         	8.72           	1.613
MS.438         	8.702          	1.573
MS.439         	8.685          	1.605
MS.440         	8.67           	1.585
MS.441         	8.653          	1.549
MS.442         	8.635          	1.541
MS.443         	8.617          	1.513
MS.444         	8.6            	1.503
MS.445         	8.582          	1.446
MS.446         	8.565          	1.464
MS.447         	8.547          	1.37
MS.448         	8.53           	1.412
MS.449         	8.515          	1.39
MS.450         	8.497          	1.376
MS.451         	8.48           	1.378
MS.452         	8.462          	1.356
MS.453         	8.448          	1.249
MS.454         	8.43           	1.325
MS.455         	8.412          	1.285
MS.456         	8.395          	1.239
MS.457         	8.38           	1.259
MS.458         	8.363          	1.18
MS.459         	8.345          	1.174
MS.460         	8.33           	1.196
MS.461         	8.312          	1.217
MS.462         	8.295          	1.174
MS.463         	8.28           	1.176
MS.464         	8.262          	1.178
MS.465         	8.245          	1.092
MS.466         	8.23           	1.098
MS.467         	8.212          	1.086
MS.468         	8.198          	1.094
MS.469         	8.18           	1.16
MS.470         	8.165          	1.1
MS.471         	8.148          	1.039
MS.472         	8.132          	1.074
MS.473         	8.115          	1.009
MS.474         	8.1            	0.999
MS.475         	8.082          	0.997
MS.476         	8.068          	0.977
MS.477         	8.05           	0.965
MS.478         	8.035          	0.973
MS.479         	8.017          	0.987
MS.480         	8.002          	0.892
MS.481         	7.987          	0.979
MS.482         	7.97           	0.937
MS.483         	7.955          	0.818
MS.484         	7.938          	0.884
MS.485         	7.922          	0.88
MS.486         	7.907          	0.85
MS.487         	7.89           	0.858
MS.488         	7.875          	0.806
MS.489         	7.86           	0.788
MS.490         	7.845          	0.826
MS.491         	7.827          	0.846
MS.492         	7.812          	0.818
MS.493         	7.797          	0.777
MS.494         	7.782          	0.779
MS.495         	7.765          	0.705
MS.496         	7.75           	0.739
MS.497         	7.735          	0.671
MS.498         	7.72           	0.671
MS.499         	7.705          	0.608
MS.500         	7.688          	0.622
MS.501         	7.672          	0.632
