File:              	C:\Qtrac\Data\Daniel M Sørensen\MScan multicentre study\Data from centres\Bucharest\Processed data\TDLC00922C.QZD
Name:              	RO.BU.NC.7.2
Protocol:          	MSCAN-R2
Date:              	22/9/20
Start time:        	13:45:53
Age:               	48
Sex:               	F
Temperature:       	35.8
S/R sites:         	TA
NC/disease:        	NC
Operator:          	TL
Comments:          	RONC7.2.
M-SCAN DATA (7.9-2.1m)
Scanpts: 117, 120, 582, 589
Stim. (mA)     	Amp. (mV)
MS.1           	31.5           	3.168
MS.2           	31.5           	3.164
MS.3           	31.5           	3.158
MS.4           	31.5           	3.168
MS.5           	31.5           	3.164
MS.6           	31.5           	3.172
MS.7           	31.5           	3.164
MS.8           	31.5           	3.164
MS.9           	31.5           	3.188
MS.10          	31.5           	3.176
MS.11          	31.5           	3.178
MS.12          	31.5           	3.172
MS.13          	31.5           	3.174
MS.14          	31.5           	3.176
MS.15          	31.5           	3.182
MS.16          	31.5           	3.17
MS.17          	31.5           	3.164
MS.18          	31.5           	3.166
MS.19          	31.5           	3.164
MS.20          	31.5           	3.166
MS.21          	31.5           	3.17
MS.22          	31.5           	3.176
MS.23          	31.5           	3.176
MS.24          	31.375         	3.188
MS.25          	31.312         	3.174
MS.26          	31.25          	3.186
MS.27          	31.188         	3.19
MS.28          	31.125         	3.18
MS.29          	31.062         	3.186
MS.30          	31             	3.182
MS.31          	30.938         	3.186
MS.32          	30.875         	3.188
MS.33          	30.815         	3.172
MS.34          	30.752         	3.182
MS.35          	30.692         	3.18
MS.36          	30.63          	3.178
MS.37          	30.57          	3.19
MS.38          	30.507         	3.201
MS.39          	30.448         	3.19
MS.40          	30.385         	3.178
MS.41          	30.325         	3.192
MS.42          	30.265         	3.184
MS.43          	30.205         	3.186
MS.44          	30.145         	3.19
MS.45          	30.082         	3.186
MS.46          	30.022         	3.184
MS.47          	29.962         	3.178
MS.48          	29.903         	3.182
MS.49          	29.845         	3.186
MS.50          	29.785         	3.18
MS.51          	29.725         	3.174
MS.52          	29.665         	3.186
MS.53          	29.605         	3.174
MS.54          	29.547         	3.184
MS.55          	29.487         	3.19
MS.56          	29.43          	3.182
MS.57          	29.37          	3.184
MS.58          	29.312         	3.188
MS.59          	29.252         	3.18
MS.60          	29.195         	3.178
MS.61          	29.137         	3.19
MS.62          	29.077         	3.178
MS.63          	29.02          	3.192
MS.64          	28.962         	3.184
MS.65          	28.905         	3.176
MS.66          	28.847         	3.184
MS.67          	28.787         	3.188
MS.68          	28.73          	3.174
MS.69          	28.675         	3.186
MS.70          	28.618         	3.176
MS.71          	28.56          	3.184
MS.72          	28.502         	3.188
MS.73          	28.445         	3.174
MS.74          	28.387         	3.174
MS.75          	28.332         	3.186
MS.76          	28.275         	3.178
MS.77          	28.217         	3.174
MS.78          	28.162         	3.184
MS.79          	28.105         	3.168
MS.80          	28.05          	3.176
MS.81          	27.995         	3.186
MS.82          	27.938         	3.174
MS.83          	27.882         	3.176
MS.84          	27.827         	3.182
MS.85          	27.77          	3.174
MS.86          	27.715         	3.176
MS.87          	27.66          	3.182
MS.88          	27.605         	3.164
MS.89          	27.55          	3.17
MS.90          	27.495         	3.17
MS.91          	27.44          	3.166
MS.92          	27.385         	3.172
MS.93          	27.33          	3.178
MS.94          	27.275         	3.166
MS.95          	27.22          	3.166
MS.96          	27.167         	3.176
MS.97          	27.112         	3.166
MS.98          	27.057         	3.17
MS.99          	27.005         	3.164
MS.100         	26.95          	3.162
MS.101         	26.895         	3.166
MS.102         	26.842         	3.166
MS.103         	26.79          	3.176
MS.104         	26.735         	3.168
MS.105         	26.682         	3.164
MS.106         	26.627         	3.184
MS.107         	26.575         	3.156
MS.108         	26.522         	3.174
MS.109         	26.47          	3.17
MS.110         	26.417         	3.162
MS.111         	26.362         	3.172
MS.112         	26.31          	3.176
MS.113         	26.257         	3.164
MS.114         	26.205         	3.17
MS.115         	26.153         	3.176
MS.116         	26.102         	3.164
MS.117         	26.05          	3.168
MS.118         	25.997         	3.168
MS.119         	25.945         	3.168
MS.120         	25.892         	3.168
MS.121         	25.842         	3.17
MS.122         	25.79          	3.164
MS.123         	25.737         	3.162
MS.124         	25.688         	3.168
MS.125         	25.635         	3.174
MS.126         	25.585         	3.164
MS.127         	25.532         	3.168
MS.128         	25.483         	3.158
MS.129         	25.432         	3.164
MS.130         	25.38          	3.162
MS.131         	25.33          	3.164
MS.132         	25.28          	3.174
MS.133         	25.227         	3.16
MS.134         	25.177         	3.162
MS.135         	25.127         	3.168
MS.136         	25.077         	3.154
MS.137         	25.028         	3.162
MS.138         	24.977         	3.162
MS.139         	24.927         	3.162
MS.140         	24.877         	3.16
MS.141         	24.827         	3.16
MS.142         	24.778         	3.14
MS.143         	24.73          	3.152
MS.144         	24.68          	3.164
MS.145         	24.63          	3.15
MS.146         	24.58          	3.156
MS.147         	24.532         	3.168
MS.148         	24.483         	3.152
MS.149         	24.435         	3.158
MS.150         	24.385         	3.154
MS.151         	24.337         	3.152
MS.152         	24.288         	3.156
MS.153         	24.24          	3.164
MS.154         	24.19          	3.142
MS.155         	24.142         	3.156
MS.156         	24.095         	3.156
MS.157         	24.047         	3.152
MS.158         	23.997         	3.15
MS.159         	23.95          	3.168
MS.160         	23.903         	3.144
MS.161         	23.855         	3.15
MS.162         	23.807         	3.152
MS.163         	23.76          	3.116
MS.164         	23.712         	3.146
MS.165         	23.665         	3.154
MS.166         	23.618         	3.142
MS.167         	23.57          	3.156
MS.168         	23.522         	3.152
MS.169         	23.475         	3.114
MS.170         	23.43          	3.118
MS.171         	23.382         	3.12
MS.172         	23.335         	3.1
MS.173         	23.29          	3.11
MS.174         	23.243         	3.122
MS.175         	23.195         	3.146
MS.176         	23.15          	3.114
MS.177         	23.102         	3.116
MS.178         	23.057         	3.106
MS.179         	23.01          	3.148
MS.180         	22.965         	3.128
MS.181         	22.92          	3.098
MS.182         	22.872         	3.096
MS.183         	22.827         	3.108
MS.184         	22.782         	3.094
MS.185         	22.737         	3.102
MS.186         	22.692         	3.106
MS.187         	22.645         	3.092
MS.188         	22.6           	3.1
MS.189         	22.555         	3.098
MS.190         	22.51          	3.086
MS.191         	22.465         	3.108
MS.192         	22.42          	3.074
MS.193         	22.375         	3.102
MS.194         	22.33          	3.084
MS.195         	22.288         	3.076
MS.196         	22.243         	3.09
MS.197         	22.198         	3.09
MS.198         	22.153         	3.07
MS.199         	22.11          	3.092
MS.200         	22.065         	3.102
MS.201         	22.02          	3.074
MS.202         	21.977         	3.07
MS.203         	21.932         	3.053
MS.204         	21.89          	3.068
MS.205         	21.845         	3.082
MS.206         	21.802         	3.062
MS.207         	21.757         	3.06
MS.208         	21.715         	3.06
MS.209         	21.67          	3.06
MS.210         	21.627         	3.041
MS.211         	21.585         	3.055
MS.212         	21.542         	3.062
MS.213         	21.497         	3.07
MS.214         	21.455         	3.062
MS.215         	21.413         	3.062
MS.216         	21.37          	3.051
MS.217         	21.327         	3.047
MS.218         	21.285         	3.047
MS.219         	21.243         	3.039
MS.220         	21.2           	3.041
MS.221         	21.157         	3.035
MS.222         	21.115         	3.011
MS.223         	21.073         	3.043
MS.224         	21.03          	3.013
MS.225         	20.987         	2.997
MS.226         	20.948         	3.011
MS.227         	20.905         	2.997
MS.228         	20.862         	2.995
MS.229         	20.823         	2.991
MS.230         	20.78          	2.975
MS.231         	20.737         	2.969
MS.232         	20.698         	2.985
MS.233         	20.655         	2.965
MS.234         	20.615         	2.953
MS.235         	20.573         	2.941
MS.236         	20.532         	2.919
MS.237         	20.49          	2.937
MS.238         	20.45          	2.925
MS.239         	20.41          	2.908
MS.240         	20.368         	2.912
MS.241         	20.327         	2.921
MS.242         	20.288         	2.908
MS.243         	20.247         	2.925
MS.244         	20.205         	2.88
MS.245         	20.165         	2.898
MS.246         	20.125         	2.898
MS.247         	20.085         	2.89
MS.248         	20.045         	2.878
MS.249         	20.005         	2.896
MS.250         	19.965         	2.858
MS.251         	19.925         	2.852
MS.252         	19.885         	2.862
MS.253         	19.845         	2.836
MS.254         	19.805         	2.86
MS.255         	19.767         	2.846
MS.256         	19.727         	2.824
MS.257         	19.688         	2.79
MS.258         	19.647         	2.761
MS.259         	19.61          	2.727
MS.260         	19.57          	2.804
MS.261         	19.53          	2.771
MS.262         	19.493         	2.719
MS.263         	19.452         	2.675
MS.264         	19.415         	2.661
MS.265         	19.375         	2.675
MS.266         	19.337         	2.657
MS.267         	19.297         	2.651
MS.268         	19.26          	2.665
MS.269         	19.22          	2.568
MS.270         	19.182         	2.592
MS.271         	19.145         	2.637
MS.272         	19.105         	2.616
MS.273         	19.067         	2.618
MS.274         	19.03          	2.622
MS.275         	18.993         	2.61
MS.276         	18.952         	2.554
MS.277         	18.915         	2.6
MS.278         	18.877         	2.514
MS.279         	18.84          	2.479
MS.280         	18.802         	2.475
MS.281         	18.765         	2.473
MS.282         	18.727         	2.5
MS.283         	18.69          	2.536
MS.284         	18.653         	2.54
MS.285         	18.615         	2.457
MS.286         	18.577         	2.427
MS.287         	18.54          	2.409
MS.288         	18.505         	2.403
MS.289         	18.467         	2.421
MS.290         	18.43          	2.365
MS.291         	18.392         	2.393
MS.292         	18.358         	2.363
MS.293         	18.32          	2.357
MS.294         	18.282         	2.361
MS.295         	18.247         	2.369
MS.296         	18.21          	2.34
MS.297         	18.175         	2.342
MS.298         	18.137         	2.322
MS.299         	18.102         	2.292
MS.300         	18.065         	2.32
MS.301         	18.03          	2.282
MS.302         	17.993         	2.322
MS.303         	17.958         	2.3
MS.304         	17.92          	2.328
MS.305         	17.885         	2.274
MS.306         	17.85          	2.268
MS.307         	17.815         	2.23
MS.308         	17.778         	2.28
MS.309         	17.743         	2.274
MS.310         	17.708         	2.218
MS.311         	17.672         	2.193
MS.312         	17.637         	2.212
MS.313         	17.602         	2.171
MS.314         	17.567         	2.183
MS.315         	17.53          	2.149
MS.316         	17.495         	2.151
MS.317         	17.46          	2.139
MS.318         	17.427         	2.131
MS.319         	17.392         	2.101
MS.320         	17.358         	2.119
MS.321         	17.323         	2.276
MS.322         	17.288         	2.274
MS.323         	17.253         	2.28
MS.324         	17.217         	2.177
MS.325         	17.185         	2.109
MS.326         	17.15          	2.139
MS.327         	17.115         	2.143
MS.328         	17.083         	2.139
MS.329         	17.047         	2.121
MS.330         	17.012         	2.117
MS.331         	16.98          	2.129
MS.332         	16.945         	2.062
MS.333         	16.913         	2.085
MS.334         	16.878         	2.093
MS.335         	16.845         	2.105
MS.336         	16.81          	2.153
MS.337         	16.778         	2.147
MS.338         	16.743         	2.05
MS.339         	16.71          	2.056
MS.340         	16.675         	2.032
MS.341         	16.642         	2.046
MS.342         	16.61          	2.067
MS.343         	16.577         	2
MS.344         	16.542         	2
MS.345         	16.51          	2.014
MS.346         	16.477         	2.002
MS.347         	16.445         	1.952
MS.348         	16.413         	1.998
MS.349         	16.378         	1.972
MS.350         	16.345         	1.909
MS.351         	16.312         	1.867
MS.352         	16.28          	1.899
MS.353         	16.247         	1.881
MS.354         	16.215         	1.889
MS.355         	16.182         	1.831
MS.356         	16.15          	1.817
MS.357         	16.118         	1.833
MS.358         	16.087         	1.811
MS.359         	16.055         	1.803
MS.360         	16.022         	1.803
MS.361         	15.99          	1.791
MS.362         	15.957         	1.783
MS.363         	15.927         	1.714
MS.364         	15.895         	1.772
MS.365         	15.862         	1.742
MS.366         	15.83          	1.682
MS.367         	15.8           	1.652
MS.368         	15.767         	1.67
MS.369         	15.737         	1.615
MS.370         	15.705         	1.621
MS.371         	15.672         	1.638
MS.372         	15.642         	1.543
MS.373         	15.61          	1.623
MS.374         	15.58          	1.627
MS.375         	15.55          	1.545
MS.376         	15.517         	1.553
MS.377         	15.487         	1.507
MS.378         	15.455         	1.492
MS.379         	15.425         	1.533
MS.380         	15.395         	1.527
MS.381         	15.362         	1.525
MS.382         	15.332         	1.44
MS.383         	15.302         	1.43
MS.384         	15.273         	1.392
MS.385         	15.24          	1.382
MS.386         	15.21          	1.43
MS.387         	15.18          	1.39
MS.388         	15.15          	1.356
MS.389         	15.12          	1.341
MS.390         	15.09          	1.374
MS.391         	15.06          	1.352
MS.392         	15.03          	1.325
MS.393         	15             	1.277
MS.394         	14.97          	1.255
MS.395         	14.94          	1.239
MS.396         	14.91          	1.255
MS.397         	14.88          	1.269
MS.398         	14.85          	1.217
MS.399         	14.82          	1.202
MS.400         	14.79          	1.152
MS.401         	14.76          	1.198
MS.402         	14.733         	1.13
MS.403         	14.702         	1.096
MS.404         	14.672         	1.138
MS.405         	14.642         	1.041
MS.406         	14.615         	1.072
MS.407         	14.585         	1.047
MS.408         	14.555         	1.015
MS.409         	14.527         	1.003
MS.410         	14.497         	1.031
MS.411         	14.467         	0.989
MS.412         	14.44          	0.977
MS.413         	14.41          	0.977
MS.414         	14.382         	0.953
MS.415         	14.352         	0.89
MS.416         	14.325         	0.916
MS.417         	14.295         	0.872
MS.418         	14.267         	0.85
MS.419         	14.24          	0.872
MS.420         	14.21          	0.85
MS.421         	14.182         	0.858
MS.422         	14.155         	0.824
MS.423         	14.125         	0.808
MS.424         	14.097         	0.779
MS.425         	14.07          	0.753
MS.426         	14.04          	0.784
MS.427         	14.012         	0.779
MS.428         	13.985         	0.781
MS.429         	13.957         	0.677
MS.430         	13.93          	0.731
MS.431         	13.903         	0.717
MS.432         	13.872         	0.679
MS.433         	13.845         	0.705
MS.434         	13.818         	0.691
MS.435         	13.79          	0.659
MS.436         	13.762         	0.673
MS.437         	13.735         	0.632
MS.438         	13.707         	0.673
MS.439         	13.68          	0.592
MS.440         	13.653         	0.632
MS.441         	13.625         	0.651
MS.442         	13.6           	0.572
MS.443         	13.572         	0.667
MS.444         	13.545         	0.582
MS.445         	13.517         	0.564
MS.446         	13.49          	0.544
MS.447         	13.462         	0.554
MS.448         	13.438         	0.528
MS.449         	13.41          	0.493
MS.450         	13.382         	0.473
MS.451         	13.355         	0.52
MS.452         	13.33          	0.485
MS.453         	13.302         	0.489
MS.454         	13.278         	0.463
MS.455         	13.25          	0.467
MS.456         	13.222         	0.425
MS.457         	13.197         	0.455
MS.458         	13.17          	0.415
MS.459         	13.145         	0.433
MS.460         	13.117         	0.409
MS.461         	13.092         	0.435
MS.462         	13.065         	0.411
MS.463         	13.04          	0.373
MS.464         	13.012         	0.346
MS.465         	12.987         	0.346
MS.466         	12.962         	0.375
MS.467         	12.935         	0.361
MS.468         	12.91          	0.326
MS.469         	12.885         	0.32
MS.470         	12.858         	0.314
MS.471         	12.832         	0.334
MS.472         	12.807         	0.324
MS.473         	12.782         	0.278
MS.474         	12.755         	0.28
MS.475         	12.73          	0.272
MS.476         	12.705         	0.264
MS.477         	12.68          	0.272
MS.478         	12.655         	0.28
MS.479         	12.63          	0.298
MS.480         	12.602         	0.256
MS.481         	12.577         	0.258
MS.482         	12.552         	0.234
MS.483         	12.528         	0.238
MS.484         	12.502         	0.234
MS.485         	12.477         	0.226
MS.486         	12.452         	0.22
MS.487         	12.427         	0.214
MS.488         	12.403         	0.195
MS.489         	12.38          	0.216
MS.490         	12.355         	0.199
MS.491         	12.33          	0.173
MS.492         	12.305         	0.197
MS.493         	12.28          	0.177
MS.494         	12.255         	0.185
MS.495         	12.23          	0.181
MS.496         	12.207         	0.153
MS.497         	12.182         	0.179
MS.498         	12.157         	0.159
MS.499         	12.132         	0.173
MS.500         	12.11          	0.169
MS.501         	12.085         	0.135
