File:              	C:\Qtrac\Data\Daniel M Sørensen\MScan multicentre study\Data from centres\Bucharest\Processed data\TDLC01230C.QZD
Name:              	RO.BU.NC.9.1
Protocol:          	MSCAN-R2
Date:              	30/12/20
Start time:        	11:30:33
Age:               	35
Sex:               	F
Temperature:       	35.7
S/R sites:         	TA
NC/disease:        	NC9
Operator:          	TL
Comments:          	RO.NC.9.1.
M-SCAN DATA (9.6-1m)
Scanpts: 240, 255, 890, 895
Stim. (mA)     	Amp. (mV)
MS.1           	19.5           	4.969
MS.2           	19.5           	4.965
MS.3           	19.5           	4.971
MS.4           	19.5           	4.949
MS.5           	19.5           	4.941
MS.6           	19.5           	4.937
MS.7           	19.5           	4.937
MS.8           	19.5           	4.949
MS.9           	19.5           	4.943
MS.10          	19.5           	4.943
MS.11          	19.5           	4.923
MS.12          	19.5           	4.947
MS.13          	19.5           	4.949
MS.14          	19.5           	4.937
MS.15          	19.5           	4.943
MS.16          	19.5           	4.941
MS.17          	19.5           	4.937
MS.18          	19.5           	4.915
MS.19          	19.5           	4.955
MS.20          	19.5           	4.911
MS.21          	19.5           	4.925
MS.22          	19.5           	4.941
MS.23          	19.5           	4.939
MS.24          	19.422         	4.935
MS.25          	19.382         	4.943
MS.26          	19.345         	4.933
MS.27          	19.305         	5.013
MS.28          	19.267         	4.957
MS.29          	19.23          	4.947
MS.30          	19.19          	4.945
MS.31          	19.153         	4.935
MS.32          	19.115         	4.937
MS.33          	19.075         	4.941
MS.34          	19.038         	4.959
MS.35          	19             	4.945
MS.36          	18.962         	4.951
MS.37          	18.922         	4.949
MS.38          	18.885         	4.949
MS.39          	18.847         	4.961
MS.40          	18.81          	4.953
MS.41          	18.772         	4.953
MS.42          	18.735         	4.957
MS.43          	18.698         	4.949
MS.44          	18.66          	4.959
MS.45          	18.622         	4.943
MS.46          	18.585         	4.933
MS.47          	18.55          	4.929
MS.48          	18.512         	4.925
MS.49          	18.475         	4.949
MS.50          	18.438         	4.929
MS.51          	18.4           	4.943
MS.52          	18.365         	4.937
MS.53          	18.327         	4.945
MS.54          	18.29          	4.935
MS.55          	18.255         	4.937
MS.56          	18.217         	4.931
MS.57          	18.182         	4.933
MS.58          	18.145         	4.937
MS.59          	18.11          	4.933
MS.60          	18.073         	4.931
MS.61          	18.038         	4.935
MS.62          	18             	4.949
MS.63          	17.965         	4.933
MS.64          	17.93          	4.929
MS.65          	17.892         	4.931
MS.66          	17.858         	4.929
MS.67          	17.823         	4.941
MS.68          	17.785         	4.951
MS.69          	17.75          	4.929
MS.70          	17.715         	4.935
MS.71          	17.68          	4.943
MS.72          	17.645         	4.947
MS.73          	17.61          	4.947
MS.74          	17.575         	4.939
MS.75          	17.538         	4.937
MS.76          	17.503         	4.947
MS.77          	17.467         	4.945
MS.78          	17.435         	4.935
MS.79          	17.4           	4.939
MS.80          	17.365         	4.943
MS.81          	17.33          	4.935
MS.82          	17.295         	4.935
MS.83          	17.26          	4.927
MS.84          	17.225         	4.925
MS.85          	17.192         	4.929
MS.86          	17.157         	4.939
MS.87          	17.122         	4.935
MS.88          	17.087         	4.937
MS.89          	17.055         	4.927
MS.90          	17.02          	4.925
MS.91          	16.987         	4.929
MS.92          	16.952         	4.929
MS.93          	16.917         	4.937
MS.94          	16.885         	4.935
MS.95          	16.85          	4.939
MS.96          	16.817         	4.923
MS.97          	16.782         	4.927
MS.98          	16.75          	4.925
MS.99          	16.717         	4.902
MS.100         	16.682         	4.919
MS.101         	16.65          	4.939
MS.102         	16.618         	4.939
MS.103         	16.583         	4.929
MS.104         	16.55          	4.927
MS.105         	16.517         	4.929
MS.106         	16.485         	4.931
MS.107         	16.452         	4.933
MS.108         	16.417         	4.927
MS.109         	16.385         	4.939
MS.110         	16.352         	4.937
MS.111         	16.32          	4.937
MS.112         	16.288         	4.939
MS.113         	16.255         	4.933
MS.114         	16.222         	4.927
MS.115         	16.19          	4.931
MS.116         	16.157         	4.933
MS.117         	16.125         	4.933
MS.118         	16.092         	4.937
MS.119         	16.062         	4.929
MS.120         	16.03          	4.933
MS.121         	15.997         	4.935
MS.122         	15.965         	4.929
MS.123         	15.932         	4.931
MS.124         	15.902         	4.937
MS.125         	15.87          	4.939
MS.126         	15.837         	4.929
MS.127         	15.807         	4.951
MS.128         	15.775         	4.941
MS.129         	15.742         	4.933
MS.130         	15.712         	4.931
MS.131         	15.68          	4.927
MS.132         	15.65          	4.923
MS.133         	15.617         	4.927
MS.134         	15.587         	4.937
MS.135         	15.555         	4.925
MS.136         	15.525         	4.909
MS.137         	15.492         	4.913
MS.138         	15.462         	4.919
MS.139         	15.432         	4.945
MS.140         	15.4           	4.927
MS.141         	15.37          	4.902
MS.142         	15.34          	4.923
MS.143         	15.307         	4.913
MS.144         	15.277         	4.921
MS.145         	15.247         	4.927
MS.146         	15.217         	4.915
MS.147         	15.188         	4.9
MS.148         	15.155         	4.9
MS.149         	15.125         	4.906
MS.150         	15.095         	4.896
MS.151         	15.065         	4.894
MS.152         	15.035         	4.9
MS.153         	15.005         	4.904
MS.154         	14.975         	4.89
MS.155         	14.945         	4.896
MS.156         	14.915         	4.896
MS.157         	14.885         	4.9
MS.158         	14.855         	4.894
MS.159         	14.827         	4.898
MS.160         	14.797         	4.904
MS.161         	14.767         	4.9
MS.162         	14.737         	4.884
MS.163         	14.707         	4.906
MS.164         	14.68          	4.9
MS.165         	14.65          	4.898
MS.166         	14.62          	4.9
MS.167         	14.59          	4.904
MS.168         	14.562         	4.896
MS.169         	14.532         	4.904
MS.170         	14.505         	4.9
MS.171         	14.475         	4.898
MS.172         	14.445         	4.896
MS.173         	14.417         	4.898
MS.174         	14.387         	4.898
MS.175         	14.36          	4.886
MS.176         	14.33          	4.896
MS.177         	14.302         	4.894
MS.178         	14.273         	4.902
MS.179         	14.245         	4.9
MS.180         	14.217         	4.894
MS.181         	14.188         	4.884
MS.182         	14.16          	4.902
MS.183         	14.132         	4.898
MS.184         	14.102         	4.898
MS.185         	14.075         	4.979
MS.186         	14.047         	4.846
MS.187         	14.02          	4.886
MS.188         	13.99          	4.894
MS.189         	13.962         	4.892
MS.190         	13.935         	4.884
MS.191         	13.907         	4.888
MS.192         	13.88          	4.888
MS.193         	13.852         	4.9
MS.194         	13.825         	4.894
MS.195         	13.797         	4.904
MS.196         	13.77          	4.904
MS.197         	13.742         	4.898
MS.198         	13.715         	4.9
MS.199         	13.688         	4.906
MS.200         	13.66          	4.884
MS.201         	13.632         	4.888
MS.202         	13.605         	4.902
MS.203         	13.577         	4.9
MS.204         	13.55          	4.904
MS.205         	13.523         	4.898
MS.206         	13.495         	4.896
MS.207         	13.47          	4.902
MS.208         	13.443         	4.878
MS.209         	13.415         	4.872
MS.210         	13.387         	4.884
MS.211         	13.362         	4.886
MS.212         	13.335         	4.915
MS.213         	13.307         	4.894
MS.214         	13.282         	4.898
MS.215         	13.255         	4.882
MS.216         	13.23          	4.896
MS.217         	13.202         	4.884
MS.218         	13.175         	4.87
MS.219         	13.15          	4.872
MS.220         	13.122         	4.87
MS.221         	13.097         	4.884
MS.222         	13.07          	4.882
MS.223         	13.045         	4.884
MS.224         	13.02          	4.876
MS.225         	12.992         	4.898
MS.226         	12.967         	4.878
MS.227         	12.94          	4.872
MS.228         	12.915         	4.868
MS.229         	12.89          	4.882
MS.230         	12.862         	4.878
MS.231         	12.837         	4.89
MS.232         	12.812         	4.884
MS.233         	12.787         	4.896
MS.234         	12.76          	4.892
MS.235         	12.735         	4.874
MS.236         	12.71          	4.862
MS.237         	12.685         	4.884
MS.238         	12.66          	4.876
MS.239         	12.635         	4.86
MS.240         	12.61          	4.886
MS.241         	12.585         	4.886
MS.242         	12.557         	4.866
MS.243         	12.532         	4.872
MS.244         	12.507         	4.892
MS.245         	12.483         	4.89
MS.246         	12.457         	4.882
MS.247         	12.432         	4.896
MS.248         	12.41          	4.898
MS.249         	12.385         	4.882
MS.250         	12.36          	4.87
MS.251         	12.335         	4.888
MS.252         	12.31          	4.892
MS.253         	12.285         	4.882
MS.254         	12.26          	4.894
MS.255         	12.238         	4.902
MS.256         	12.212         	4.868
MS.257         	12.188         	4.868
MS.258         	12.162         	4.886
MS.259         	12.14          	4.9
MS.260         	12.115         	4.89
MS.261         	12.09          	4.902
MS.262         	12.065         	4.894
MS.263         	12.042         	4.89
MS.264         	12.017         	4.888
MS.265         	11.995         	4.874
MS.266         	11.97          	4.896
MS.267         	11.945         	4.884
MS.268         	11.922         	4.884
MS.269         	11.898         	4.886
MS.270         	11.875         	4.913
MS.271         	11.85          	4.911
MS.272         	11.827         	4.896
MS.273         	11.802         	4.892
MS.274         	11.78          	4.892
MS.275         	11.757         	4.89
MS.276         	11.733         	4.892
MS.277         	11.71          	4.88
MS.278         	11.685         	4.906
MS.279         	11.662         	4.878
MS.280         	11.64          	4.896
MS.281         	11.617         	4.884
MS.282         	11.592         	4.87
MS.283         	11.57          	4.892
MS.284         	11.547         	4.89
MS.285         	11.525         	4.876
MS.286         	11.5           	4.904
MS.287         	11.477         	4.89
MS.288         	11.455         	4.921
MS.289         	11.432         	4.898
MS.290         	11.41          	4.89
MS.291         	11.387         	4.886
MS.292         	11.363         	4.915
MS.293         	11.34          	4.906
MS.294         	11.318         	4.89
MS.295         	11.295         	4.943
MS.296         	11.273         	4.906
MS.297         	11.25          	4.882
MS.298         	11.227         	4.882
MS.299         	11.205         	4.89
MS.300         	11.182         	4.894
MS.301         	11.16          	4.909
MS.302         	11.137         	4.876
MS.303         	11.117         	4.89
MS.304         	11.095         	4.9
MS.305         	11.073         	4.87
MS.306         	11.05          	4.874
MS.307         	11.028         	4.862
MS.308         	11.005         	4.87
MS.309         	10.983         	4.868
MS.310         	10.962         	4.852
MS.311         	10.94          	4.846
MS.312         	10.917         	4.858
MS.313         	10.895         	4.846
MS.314         	10.875         	4.868
MS.315         	10.852         	4.842
MS.316         	10.83          	4.86
MS.317         	10.81          	4.846
MS.318         	10.787         	4.856
MS.319         	10.765         	4.862
MS.320         	10.745         	4.874
MS.321         	10.722         	4.87
MS.322         	10.702         	4.854
MS.323         	10.68          	4.874
MS.324         	10.66          	4.88
MS.325         	10.637         	4.868
MS.326         	10.617         	4.852
MS.327         	10.595         	4.86
MS.328         	10.575         	4.856
MS.329         	10.552         	4.834
MS.330         	10.532         	4.834
MS.331         	10.51          	4.862
MS.332         	10.49          	4.828
MS.333         	10.47          	4.814
MS.334         	10.448         	4.836
MS.335         	10.427         	4.834
MS.336         	10.407         	4.856
MS.337         	10.385         	4.834
MS.338         	10.365         	4.818
MS.339         	10.345         	4.83
MS.340         	10.323         	4.818
MS.341         	10.302         	4.842
MS.342         	10.282         	4.816
MS.343         	10.262         	4.834
MS.344         	10.24          	4.812
MS.345         	10.22          	4.812
MS.346         	10.2           	4.826
MS.347         	10.18          	4.838
MS.348         	10.16          	4.808
MS.349         	10.14          	4.802
MS.350         	10.12          	4.808
MS.351         	10.097         	4.802
MS.352         	10.077         	4.81
MS.353         	10.057         	4.796
MS.354         	10.037         	4.79
MS.355         	10.017         	4.79
MS.356         	9.997          	4.804
MS.357         	9.977          	4.796
MS.358         	9.957          	4.78
MS.359         	9.938          	4.802
MS.360         	9.917          	4.786
MS.361         	9.9            	4.804
MS.362         	9.88           	4.77
MS.363         	9.86           	4.79
MS.364         	9.84           	4.798
MS.365         	9.82           	4.778
MS.366         	9.8            	4.778
MS.367         	9.78           	4.782
MS.368         	9.76           	4.743
MS.369         	9.742          	4.737
MS.370         	9.722          	4.719
MS.371         	9.702          	4.772
MS.372         	9.682          	4.755
MS.373         	9.665          	4.745
MS.374         	9.645          	4.747
MS.375         	9.625          	4.703
MS.376         	9.605          	4.723
MS.377         	9.587          	4.719
MS.378         	9.568          	4.731
MS.379         	9.55           	4.725
MS.380         	9.53           	4.735
MS.381         	9.51           	4.705
MS.382         	9.492          	4.751
MS.383         	9.472          	4.717
MS.384         	9.452          	4.695
MS.385         	9.435          	4.749
MS.386         	9.415          	4.729
MS.387         	9.398          	4.691
MS.388         	9.377          	4.697
MS.389         	9.36           	4.689
MS.390         	9.34           	4.681
MS.391         	9.323          	4.695
MS.392         	9.302          	4.659
MS.393         	9.285          	4.675
MS.394         	9.267          	4.717
MS.395         	9.247          	4.629
MS.396         	9.23           	4.622
MS.397         	9.21           	4.645
MS.398         	9.193          	4.639
MS.399         	9.175          	4.649
MS.400         	9.155          	4.608
MS.401         	9.137          	4.59
MS.402         	9.12           	4.612
MS.403         	9.1            	4.602
MS.404         	9.082          	4.572
MS.405         	9.065          	4.58
MS.406         	9.047          	4.614
MS.407         	9.028          	4.576
MS.408         	9.01           	4.566
MS.409         	8.992          	4.572
MS.410         	8.975          	4.574
MS.411         	8.957          	4.544
MS.412         	8.94           	4.524
MS.413         	8.92           	4.542
MS.414         	8.903          	4.522
MS.415         	8.885          	4.55
MS.416         	8.867          	4.552
MS.417         	8.85           	4.522
MS.418         	8.832          	4.558
MS.419         	8.815          	4.538
MS.420         	8.797          	4.512
MS.421         	8.78           	4.51
MS.422         	8.762          	4.502
MS.423         	8.745          	4.522
MS.424         	8.727          	4.488
MS.425         	8.71           	4.526
MS.426         	8.693          	4.49
MS.427         	8.675          	4.51
MS.428         	8.658          	4.496
MS.429         	8.64           	4.486
MS.430         	8.622          	4.475
MS.431         	8.605          	4.524
MS.432         	8.587          	4.455
MS.433         	8.57           	4.465
MS.434         	8.555          	4.484
MS.435         	8.537          	4.459
MS.436         	8.52           	4.465
MS.437         	8.502          	4.419
MS.438         	8.485          	4.506
MS.439         	8.47           	4.544
MS.440         	8.452          	4.526
MS.441         	8.435          	4.564
MS.442         	8.417          	4.447
MS.443         	8.403          	4.49
MS.444         	8.385          	4.429
MS.445         	8.367          	4.486
MS.446         	8.35           	4.409
MS.447         	8.335          	4.453
MS.448         	8.318          	4.445
MS.449         	8.302          	4.379
MS.450         	8.285          	4.353
MS.451         	8.267          	4.324
MS.452         	8.252          	4.282
MS.453         	8.235          	4.31
MS.454         	8.217          	4.29
MS.455         	8.202          	4.318
MS.456         	8.185          	4.26
MS.457         	8.17           	4.294
MS.458         	8.153          	4.206
MS.459         	8.137          	4.49
MS.460         	8.12           	4.429
MS.461         	8.105          	4.413
MS.462         	8.087          	4.383
MS.463         	8.073          	4.345
MS.464         	8.055          	4.266
MS.465         	8.04           	4.326
MS.466         	8.025          	4.266
MS.467         	8.007          	4.2
MS.468         	7.992          	4.161
MS.469         	7.975          	4.161
MS.470         	7.96           	4.165
MS.471         	7.945          	4.165
MS.472         	7.927          	4.081
MS.473         	7.912          	4.149
MS.474         	7.898          	4.187
MS.475         	7.88           	4.113
MS.476         	7.865          	4.059
MS.477         	7.85           	4.05
MS.478         	7.832          	4.087
MS.479         	7.817          	4.034
MS.480         	7.802          	4.03
MS.481         	7.787          	4.006
MS.482         	7.77           	4.109
MS.483         	7.755          	4.316
MS.484         	7.74           	4.107
MS.485         	7.725          	3.972
MS.486         	7.71           	3.954
MS.487         	7.695          	4.01
MS.488         	7.677          	3.879
MS.489         	7.662          	3.901
MS.490         	7.648          	3.855
MS.491         	7.632          	3.871
MS.492         	7.617          	3.918
MS.493         	7.602          	3.825
MS.494         	7.587          	3.861
MS.495         	7.572          	3.793
MS.496         	7.557          	3.783
MS.497         	7.543          	3.823
MS.498         	7.527          	3.791
MS.499         	7.512          	3.771
MS.500         	7.497          	3.712
MS.501         	7.482          	3.702
