File:              	C:\Qtrac\Data\Daniel M Sørensen\MScan multicentre study\Data from centres\Bucharest\Processed data\TDLC00130C.QZD
Name:              	RO.BU.NC.3.1
Protocol:          	MSCAN-R2
Date:              	30/1/20
Start time:        	14:32:12
Age:               	31
Sex:               	M
Temperature:       	36.8
S/R sites:         	TA
NC/disease:        	RONC3.1
Operator:          	TL
Comments:
M-SCAN DATA (8.2-2.1m)
Scanpts: 10, 15, 568, 582
Stim. (mA)     	Amp. (mV)
MS.1           	29.5           	5.293
MS.2           	29.5           	5.291
MS.3           	29.5           	5.291
MS.4           	29.5           	5.283
MS.5           	29.5           	5.285
MS.6           	29.5           	5.277
MS.7           	29.5           	5.277
MS.8           	29.5           	5.271
MS.9           	29.5           	5.275
MS.10          	29.5           	5.277
MS.11          	29.5           	5.277
MS.12          	29.5           	5.275
MS.13          	29.5           	5.281
MS.14          	29.5           	5.285
MS.15          	29.5           	5.269
MS.16          	29.5           	5.271
MS.17          	29.5           	5.281
MS.18          	29.5           	5.271
MS.19          	29.5           	5.269
MS.20          	29.5           	5.275
MS.21          	29.5           	5.275
MS.22          	29.5           	5.283
MS.23          	29.5           	5.281
MS.24          	29.382         	5.275
MS.25          	29.323         	5.283
MS.26          	29.265         	5.261
MS.27          	29.207         	5.279
MS.28          	29.147         	5.277
MS.29          	29.09          	5.275
MS.30          	29.032         	5.257
MS.31          	28.972         	5.257
MS.32          	28.915         	5.259
MS.33          	28.858         	5.251
MS.34          	28.8           	5.267
MS.35          	28.743         	5.273
MS.36          	28.685         	5.247
MS.37          	28.627         	5.261
MS.38          	28.57          	5.251
MS.39          	28.512         	5.233
MS.40          	28.457         	5.241
MS.41          	28.4           	5.239
MS.42          	28.342         	5.241
MS.43          	28.287         	5.241
MS.44          	28.23          	5.251
MS.45          	28.172         	5.249
MS.46          	28.118         	5.243
MS.47          	28.06          	5.233
MS.48          	28.005         	5.225
MS.49          	27.95          	5.227
MS.50          	27.892         	5.233
MS.51          	27.837         	5.227
MS.52          	27.782         	5.235
MS.53          	27.727         	5.233
MS.54          	27.67          	5.239
MS.55          	27.615         	5.227
MS.56          	27.56          	5.225
MS.57          	27.505         	5.229
MS.58          	27.45          	5.229
MS.59          	27.395         	5.237
MS.60          	27.34          	5.219
MS.61          	27.287         	5.227
MS.62          	27.233         	5.215
MS.63          	27.177         	5.213
MS.64          	27.122         	5.207
MS.65          	27.07          	5.209
MS.66          	27.015         	5.211
MS.67          	26.96          	5.225
MS.68          	26.907         	5.203
MS.69          	26.852         	5.201
MS.70          	26.8           	5.207
MS.71          	26.745         	5.215
MS.72          	26.692         	5.213
MS.73          	26.64          	5.205
MS.74          	26.585         	5.211
MS.75          	26.532         	5.199
MS.76          	26.48          	5.209
MS.77          	26.427         	5.209
MS.78          	26.375         	5.205
MS.79          	26.323         	5.213
MS.80          	26.27          	5.193
MS.81          	26.217         	5.164
MS.82          	26.165         	5.19
MS.83          	26.112         	5.184
MS.84          	26.06          	5.186
MS.85          	26.007         	5.193
MS.86          	25.955         	5.188
MS.87          	25.903         	5.186
MS.88          	25.852         	5.184
MS.89          	25.8           	5.184
MS.90          	25.75          	5.17
MS.91          	25.698         	5.176
MS.92          	25.645         	5.174
MS.93          	25.595         	5.184
MS.94          	25.542         	5.162
MS.95          	25.493         	5.154
MS.96          	25.442         	5.178
MS.97          	25.39          	5.186
MS.98          	25.34          	5.174
MS.99          	25.29          	5.176
MS.100         	25.24          	5.156
MS.101         	25.188         	5.176
MS.102         	25.137         	5.154
MS.103         	25.087         	5.156
MS.104         	25.038         	5.16
MS.105         	24.987         	5.166
MS.106         	24.938         	5.156
MS.107         	24.887         	5.156
MS.108         	24.837         	5.142
MS.109         	24.788         	5.106
MS.110         	24.74          	5.138
MS.111         	24.69          	5.152
MS.112         	24.64          	5.132
MS.113         	24.59          	5.132
MS.114         	24.542         	5.148
MS.115         	24.493         	5.13
MS.116         	24.445         	5.134
MS.117         	24.395         	5.138
MS.118         	24.347         	5.134
MS.119         	24.297         	5.122
MS.120         	24.25          	5.112
MS.121         	24.2           	5.138
MS.122         	24.153         	5.096
MS.123         	24.105         	5.108
MS.124         	24.055         	5.104
MS.125         	24.007         	5.106
MS.126         	23.96          	5.088
MS.127         	23.913         	5.104
MS.128         	23.865         	5.084
MS.129         	23.817         	5.058
MS.130         	23.77          	5.078
MS.131         	23.722         	5.094
MS.132         	23.675         	5.056
MS.133         	23.627         	5.058
MS.134         	23.58          	5.054
MS.135         	23.532         	5.058
MS.136         	23.485         	5.056
MS.137         	23.438         	5.052
MS.138         	23.392         	5.066
MS.139         	23.345         	5.035
MS.140         	23.297         	5.041
MS.141         	23.252         	5.043
MS.142         	23.205         	5.031
MS.143         	23.16          	5.029
MS.144         	23.112         	5.011
MS.145         	23.067         	5.023
MS.146         	23.02          	5.033
MS.147         	22.975         	5.021
MS.148         	22.927         	5.013
MS.149         	22.882         	5.017
MS.150         	22.837         	5.013
MS.151         	22.792         	5.027
MS.152         	22.745         	4.995
MS.153         	22.7           	5.013
MS.154         	22.655         	4.971
MS.155         	22.61          	4.995
MS.156         	22.565         	5.011
MS.157         	22.52          	4.983
MS.158         	22.475         	4.979
MS.159         	22.43          	4.987
MS.160         	22.385         	4.963
MS.161         	22.34          	4.967
MS.162         	22.295         	4.995
MS.163         	22.25          	4.989
MS.164         	22.207         	4.965
MS.165         	22.163         	4.959
MS.166         	22.118         	4.973
MS.167         	22.073         	4.957
MS.168         	22.03          	4.943
MS.169         	21.985         	4.9
MS.170         	21.942         	4.917
MS.171         	21.897         	4.961
MS.172         	21.855         	4.937
MS.173         	21.81          	4.906
MS.174         	21.767         	4.917
MS.175         	21.722         	4.906
MS.176         	21.68          	4.941
MS.177         	21.637         	4.896
MS.178         	21.592         	4.896
MS.179         	21.55          	4.896
MS.180         	21.507         	4.88
MS.181         	21.465         	4.896
MS.182         	21.422         	4.88
MS.183         	21.377         	4.884
MS.184         	21.335         	4.88
MS.185         	21.292         	4.876
MS.186         	21.25          	4.856
MS.187         	21.208         	4.786
MS.188         	21.165         	4.852
MS.189         	21.122         	4.846
MS.190         	21.083         	4.788
MS.191         	21.04          	4.888
MS.192         	20.997         	4.747
MS.193         	20.955         	4.796
MS.194         	20.913         	4.862
MS.195         	20.872         	4.804
MS.196         	20.83          	4.842
MS.197         	20.788         	4.844
MS.198         	20.747         	4.816
MS.199         	20.705         	4.854
MS.200         	20.665         	4.824
MS.201         	20.622         	4.826
MS.202         	20.583         	4.768
MS.203         	20.54          	4.814
MS.204         	20.5           	4.802
MS.205         	20.458         	4.77
MS.206         	20.417         	4.753
MS.207         	20.377         	4.79
MS.208         	20.335         	4.745
MS.209         	20.295         	4.808
MS.210         	20.255         	4.77
MS.211         	20.215         	4.776
MS.212         	20.175         	4.808
MS.213         	20.132         	4.731
MS.214         	20.092         	4.802
MS.215         	20.052         	4.713
MS.216         	20.012         	4.729
MS.217         	19.972         	4.713
MS.218         	19.932         	4.747
MS.219         	19.892         	4.757
MS.220         	19.852         	4.711
MS.221         	19.815         	4.733
MS.222         	19.775         	4.713
MS.223         	19.735         	4.703
MS.224         	19.695         	4.778
MS.225         	19.655         	4.695
MS.226         	19.618         	4.679
MS.227         	19.577         	4.721
MS.228         	19.538         	4.677
MS.229         	19.5           	4.699
MS.230         	19.46          	4.723
MS.231         	19.422         	4.671
MS.232         	19.382         	4.687
MS.233         	19.345         	4.659
MS.234         	19.305         	4.675
MS.235         	19.267         	4.681
MS.236         	19.227         	4.741
MS.237         	19.19          	4.681
MS.238         	19.153         	4.683
MS.239         	19.112         	4.608
MS.240         	19.075         	4.661
MS.241         	19.038         	4.663
MS.242         	19             	4.657
MS.243         	18.96          	4.697
MS.244         	18.922         	4.711
MS.245         	18.885         	4.659
MS.246         	18.847         	4.737
MS.247         	18.81          	4.659
MS.248         	18.772         	4.56
MS.249         	18.735         	4.695
MS.250         	18.698         	4.598
MS.251         	18.66          	4.633
MS.252         	18.622         	4.612
MS.253         	18.585         	4.6
MS.254         	18.547         	4.592
MS.255         	18.512         	4.58
MS.256         	18.475         	4.618
MS.257         	18.438         	4.604
MS.258         	18.4           	4.594
MS.259         	18.365         	4.546
MS.260         	18.327         	4.534
MS.261         	18.29          	4.528
MS.262         	18.255         	4.542
MS.263         	18.217         	4.514
MS.264         	18.18          	4.469
MS.265         	18.145         	4.6
MS.266         	18.108         	4.417
MS.267         	18.073         	4.457
MS.268         	18.038         	4.302
MS.269         	18             	4.349
MS.270         	17.965         	4.381
MS.271         	17.927         	4.28
MS.272         	17.892         	4.322
MS.273         	17.858         	4.274
MS.274         	17.82          	4.23
MS.275         	17.785         	4.316
MS.276         	17.75          	4.244
MS.277         	17.715         	4.079
MS.278         	17.68          	4.234
MS.279         	17.645         	4.276
MS.280         	17.608         	4.288
MS.281         	17.573         	4.258
MS.282         	17.538         	4.187
MS.283         	17.503         	4.298
MS.284         	17.467         	4.163
MS.285         	17.432         	4.173
MS.286         	17.397         	4.143
MS.287         	17.365         	4.157
MS.288         	17.33          	4.266
MS.289         	17.295         	4.195
MS.290         	17.26          	3.885
MS.291         	17.225         	4.046
MS.292         	17.19          	4.012
MS.293         	17.157         	4.139
MS.294         	17.122         	3.885
MS.295         	17.087         	3.99
MS.296         	17.055         	3.853
MS.297         	17.02          	4.052
MS.298         	16.985         	3.956
MS.299         	16.952         	3.976
MS.300         	16.917         	3.998
MS.301         	16.885         	3.883
MS.302         	16.85          	3.946
MS.303         	16.817         	3.835
MS.304         	16.782         	3.787
MS.305         	16.75          	3.96
MS.306         	16.717         	3.817
MS.307         	16.682         	3.742
MS.308         	16.65          	3.748
MS.309         	16.618         	3.623
MS.310         	16.583         	3.648
MS.311         	16.55          	3.775
MS.312         	16.517         	3.652
MS.313         	16.485         	3.569
MS.314         	16.45          	3.533
MS.315         	16.417         	3.474
MS.316         	16.385         	3.448
MS.317         	16.352         	3.535
MS.318         	16.32          	3.382
MS.319         	16.288         	3.346
MS.320         	16.255         	3.376
MS.321         	16.222         	3.507
MS.322         	16.19          	3.585
MS.323         	16.157         	3.394
MS.324         	16.125         	3.339
MS.325         	16.092         	3.348
MS.326         	16.06          	3.307
MS.327         	16.03          	3.19
MS.328         	15.997         	3.243
MS.329         	15.965         	3.323
MS.330         	15.932         	3.182
MS.331         	15.9           	3.227
MS.332         	15.87          	3.263
MS.333         	15.837         	3.178
MS.334         	15.805         	3.148
MS.335         	15.775         	2.882
MS.336         	15.742         	3.19
MS.337         	15.712         	2.933
MS.338         	15.68          	2.872
MS.339         	15.648         	2.949
MS.340         	15.617         	2.816
MS.341         	15.585         	3.053
MS.342         	15.555         	2.927
MS.343         	15.525         	2.751
MS.344         	15.492         	2.687
MS.345         	15.462         	2.822
MS.346         	15.43          	2.663
MS.347         	15.4           	2.806
MS.348         	15.37          	2.552
MS.349         	15.34          	2.614
MS.350         	15.307         	2.588
MS.351         	15.277         	2.769
MS.352         	15.247         	2.524
MS.353         	15.217         	2.576
MS.354         	15.185         	2.508
MS.355         	15.155         	2.54
MS.356         	15.125         	2.451
MS.357         	15.095         	2.387
MS.358         	15.065         	2.483
MS.359         	15.035         	2.286
MS.360         	15.005         	2.383
MS.361         	14.975         	2.292
MS.362         	14.945         	2.359
MS.363         	14.915         	2.278
MS.364         	14.885         	2.234
MS.365         	14.855         	2.322
MS.366         	14.825         	2.244
MS.367         	14.797         	2.312
MS.368         	14.767         	2.336
MS.369         	14.737         	2.195
MS.370         	14.707         	2.121
MS.371         	14.677         	2.133
MS.372         	14.65          	2.234
MS.373         	14.62          	2.05
MS.374         	14.59          	2.195
MS.375         	14.562         	2.147
MS.376         	14.532         	2.004
MS.377         	14.502         	1.96
MS.378         	14.475         	2.083
MS.379         	14.445         	2.058
MS.380         	14.417         	2.04
MS.381         	14.387         	1.978
MS.382         	14.36          	2.028
MS.383         	14.33          	1.974
MS.384         	14.302         	1.93
MS.385         	14.273         	2
MS.386         	14.245         	1.907
MS.387         	14.217         	2.004
MS.388         	14.188         	1.869
MS.389         	14.16          	1.799
MS.390         	14.13          	1.924
MS.391         	14.102         	1.893
MS.392         	14.075         	1.907
MS.393         	14.047         	1.829
MS.394         	14.017         	1.827
MS.395         	13.99          	1.696
MS.396         	13.962         	1.567
MS.397         	13.935         	1.779
MS.398         	13.907         	1.783
MS.399         	13.88          	1.635
MS.400         	13.852         	1.646
MS.401         	13.822         	1.67
MS.402         	13.795         	1.638
MS.403         	13.767         	1.573
MS.404         	13.74          	1.631
MS.405         	13.712         	1.557
MS.406         	13.685         	1.48
MS.407         	13.66          	1.726
MS.408         	13.632         	1.68
MS.409         	13.605         	1.565
MS.410         	13.577         	1.654
MS.411         	13.55          	1.36
MS.412         	13.523         	1.178
MS.413         	13.495         	1.531
MS.414         	13.47          	1.301
MS.415         	13.443         	1.339
MS.416         	13.415         	1.196
MS.417         	13.387         	1.206
MS.418         	13.362         	1.198
MS.419         	13.335         	1.265
MS.420         	13.307         	1.237
MS.421         	13.282         	1.17
MS.422         	13.255         	1.142
MS.423         	13.227         	1.219
MS.424         	13.202         	1.18
MS.425         	13.175         	1.204
MS.426         	13.15          	1.063
MS.427         	13.122         	1.001
MS.428         	13.097         	0.973
MS.429         	13.07          	1.017
MS.430         	13.045         	1.092
MS.431         	13.017         	0.916
MS.432         	12.992         	1.013
MS.433         	12.967         	0.9
MS.434         	12.94          	0.888
MS.435         	12.915         	0.85
MS.436         	12.89          	0.906
MS.437         	12.862         	0.904
MS.438         	12.837         	0.796
MS.439         	12.812         	0.935
MS.440         	12.787         	0.866
MS.441         	12.76          	0.765
MS.442         	12.735         	0.773
MS.443         	12.71          	0.826
MS.444         	12.685         	0.812
MS.445         	12.66          	0.826
MS.446         	12.635         	0.753
MS.447         	12.608         	0.856
MS.448         	12.582         	0.826
MS.449         	12.557         	0.771
MS.450         	12.532         	0.773
MS.451         	12.507         	0.711
MS.452         	12.483         	0.737
MS.453         	12.457         	0.725
MS.454         	12.432         	0.771
MS.455         	12.407         	0.721
MS.456         	12.385         	0.707
MS.457         	12.36          	0.576
MS.458         	12.335         	0.773
MS.459         	12.31          	0.703
MS.460         	12.285         	0.62
MS.461         	12.26          	0.638
MS.462         	12.235         	0.562
MS.463         	12.212         	0.626
MS.464         	12.188         	0.61
MS.465         	12.162         	0.606
MS.466         	12.137         	0.534
MS.467         	12.115         	0.624
MS.468         	12.09          	0.612
MS.469         	12.065         	0.502
MS.470         	12.042         	0.602
MS.471         	12.017         	0.516
MS.472         	11.995         	0.548
MS.473         	11.97          	0.552
MS.474         	11.945         	0.435
MS.475         	11.922         	0.477
MS.476         	11.898         	0.493
MS.477         	11.875         	0.522
MS.478         	11.85          	0.518
MS.479         	11.827         	0.52
MS.480         	11.802         	0.383
MS.481         	11.78          	0.437
MS.482         	11.757         	0.467
MS.483         	11.733         	0.451
MS.484         	11.71          	0.3
MS.485         	11.685         	0.363
MS.486         	11.662         	0.439
MS.487         	11.64          	0.433
MS.488         	11.615         	0.357
MS.489         	11.592         	0.3
MS.490         	11.57          	0.417
MS.491         	11.547         	0.431
MS.492         	11.523         	0.322
MS.493         	11.5           	0.286
MS.494         	11.477         	0.304
MS.495         	11.455         	0.314
MS.496         	11.432         	0.326
MS.497         	11.41          	0.34
MS.498         	11.385         	0.276
MS.499         	11.363         	0.207
MS.500         	11.34          	0.254
MS.501         	11.318         	0.222
