File:              	C:\Qtrac\Data\Daniel M Sørensen\MScan multicentre study\Data from centres\Odense\Processed data\TKC01007C.QZD
Name:              	DK.ODE.NC.5.1
Protocol:          	MSCAN-R2
Date:              	7/10/20
Start time:        	09:06:28
Age:               	62
Sex:               	F
Temperature:       	32.0
S/R sites:         	TA
NC/disease:        	NC
Operator:          	TK
Comments:
M-SCAN DATA (6.8-1.2m)
Scanpts: 9, 16, 540, 547
Stim. (mA)     	Amp. (mV)
MS.1           	15             	4.565
MS.2           	15.5           	4.689
MS.3           	15.5           	4.648
MS.4           	15.5           	4.662
MS.5           	15.5           	4.644
MS.6           	15.5           	4.666
MS.7           	15.5           	4.651
MS.8           	15.5           	4.627
MS.9           	15.5           	4.615
MS.10          	15.5           	4.636
MS.11          	15.5           	4.683
MS.12          	15.5           	4.647
MS.13          	15.5           	4.646
MS.14          	15.5           	4.697
MS.15          	15.5           	4.645
MS.16          	15.5           	4.628
MS.17          	15.5           	4.592
MS.18          	15.5           	4.603
MS.19          	15.5           	4.645
MS.20          	15.5           	4.669
MS.21          	15.5           	4.608
MS.22          	15.5           	4.63
MS.23          	15.5           	4.643
MS.24          	15.438         	4.689
MS.25          	15.407         	4.597
MS.26          	15.377         	4.592
MS.27          	15.345         	4.669
MS.28          	15.315         	4.695
MS.29          	15.285         	4.557
MS.30          	15.255         	4.619
MS.31          	15.222         	4.675
MS.32          	15.193         	4.588
MS.33          	15.162         	4.564
MS.34          	15.132         	4.606
MS.35          	15.102         	4.565
MS.36          	15.072         	4.548
MS.37          	15.042         	4.556
MS.38          	15.012         	4.551
MS.39          	14.983         	4.573
MS.40          	14.952         	4.572
MS.41          	14.922         	4.532
MS.42          	14.892         	4.598
MS.43          	14.862         	4.573
MS.44          	14.832         	4.597
MS.45          	14.802         	4.557
MS.46          	14.773         	4.58
MS.47          	14.745         	4.576
MS.48          	14.715         	4.577
MS.49          	14.685         	4.483
MS.50          	14.655         	4.543
MS.51          	14.627         	4.554
MS.52          	14.597         	4.575
MS.53          	14.568         	4.545
MS.54          	14.54          	4.576
MS.55          	14.51          	4.598
MS.56          	14.48          	4.54
MS.57          	14.452         	4.609
MS.58          	14.422         	4.61
MS.59          	14.395         	4.537
MS.60          	14.365         	4.627
MS.61          	14.337         	4.581
MS.62          	14.307         	4.609
MS.63          	14.28          	4.521
MS.64          	14.25          	4.567
MS.65          	14.222         	4.55
MS.66          	14.195         	4.568
MS.67          	14.165         	4.545
MS.68          	14.137         	4.63
MS.69          	14.11          	4.566
MS.70          	14.08          	4.532
MS.71          	14.052         	4.586
MS.72          	14.025         	4.619
MS.73          	13.997         	4.639
MS.74          	13.97          	4.597
MS.75          	13.94          	4.594
MS.76          	13.912         	4.572
MS.77          	13.885         	4.557
MS.78          	13.858         	4.625
MS.79          	13.83          	4.565
MS.80          	13.802         	4.563
MS.81          	13.775         	4.628
MS.82          	13.747         	4.539
MS.83          	13.72          	4.47
MS.84          	13.693         	4.633
MS.85          	13.665         	4.605
MS.86          	13.637         	4.575
MS.87          	13.61          	4.596
MS.88          	13.582         	4.649
MS.89          	13.555         	4.635
MS.90          	13.53          	4.638
MS.91          	13.502         	4.661
MS.92          	13.475         	4.64
MS.93          	13.447         	4.608
MS.94          	13.42          	4.561
MS.95          	13.395         	4.637
MS.96          	13.367         	4.565
MS.97          	13.34          	4.602
MS.98          	13.315         	4.57
MS.99          	13.287         	4.632
MS.100         	13.26          	4.531
MS.101         	13.235         	4.589
MS.102         	13.207         	4.615
MS.103         	13.182         	4.637
MS.104         	13.155         	4.633
MS.105         	13.13          	4.556
MS.106         	13.102         	4.461
MS.107         	13.077         	4.552
MS.108         	13.05          	4.559
MS.109         	13.025         	4.528
MS.110         	12.997         	4.526
MS.111         	12.972         	4.489
MS.112         	12.947         	4.529
MS.113         	12.92          	4.559
MS.114         	12.895         	4.517
MS.115         	12.87          	4.543
MS.116         	12.842         	4.526
MS.117         	12.818         	4.488
MS.118         	12.792         	4.509
MS.119         	12.767         	4.492
MS.120         	12.74          	4.499
MS.121         	12.715         	4.526
MS.122         	12.69          	4.501
MS.123         	12.665         	4.512
MS.124         	12.64          	4.543
MS.125         	12.615         	4.511
MS.126         	12.59          	4.522
MS.127         	12.565         	4.461
MS.128         	12.54          	4.508
MS.129         	12.515         	4.467
MS.130         	12.49          	4.501
MS.131         	12.465         	4.458
MS.132         	12.44          	4.404
MS.133         	12.415         	4.472
MS.134         	12.39          	4.48
MS.135         	12.365         	4.418
MS.136         	12.34          	4.448
MS.137         	12.315         	4.456
MS.138         	12.29          	4.475
MS.139         	12.265         	4.456
MS.140         	12.242         	4.431
MS.141         	12.217         	4.413
MS.142         	12.193         	4.393
MS.143         	12.167         	4.443
MS.144         	12.145         	4.409
MS.145         	12.12          	4.44
MS.146         	12.095         	4.438
MS.147         	12.072         	4.28
MS.148         	12.047         	4.377
MS.149         	12.023         	4.423
MS.150         	12             	4.507
MS.151         	11.975         	4.446
MS.152         	11.95          	4.435
MS.153         	11.927         	4.317
MS.154         	11.903         	4.355
MS.155         	11.88          	4.343
MS.156         	11.855         	4.409
MS.157         	11.832         	4.423
MS.158         	11.807         	4.36
MS.159         	11.785         	4.265
MS.160         	11.762         	4.312
MS.161         	11.738         	4.311
MS.162         	11.715         	4.273
MS.163         	11.69          	4.262
MS.164         	11.667         	4.291
MS.165         	11.645         	4.318
MS.166         	11.622         	4.29
MS.167         	11.597         	4.275
MS.168         	11.575         	4.202
MS.169         	11.552         	4.249
MS.170         	11.528         	4.247
MS.171         	11.505         	4.205
MS.172         	11.483         	4.186
MS.173         	11.46          	4.158
MS.174         	11.438         	4.209
MS.175         	11.415         	4.211
MS.176         	11.39          	4.274
MS.177         	11.367         	4.229
MS.178         	11.345         	4.167
MS.179         	11.322         	4.172
MS.180         	11.3           	4.198
MS.181         	11.278         	4.163
MS.182         	11.255         	4.164
MS.183         	11.233         	4.146
MS.184         	11.21          	4.162
MS.185         	11.188         	4.12
MS.186         	11.165         	4.165
MS.187         	11.142         	4.078
MS.188         	11.12          	4.124
MS.189         	11.1           	4.111
MS.190         	11.077         	4.103
MS.191         	11.055         	4.128
MS.192         	11.032         	4.092
MS.193         	11.01          	4.065
MS.194         	10.988         	4.117
MS.195         	10.967         	4.134
MS.196         	10.945         	4.031
MS.197         	10.922         	4.064
MS.198         	10.9           	3.945
MS.199         	10.88          	4.053
MS.200         	10.858         	4.119
MS.201         	10.835         	4.025
MS.202         	10.815         	3.975
MS.203         	10.792         	3.975
MS.204         	10.77          	4.096
MS.205         	10.75          	3.973
MS.206         	10.727         	4.017
MS.207         	10.707         	3.959
MS.208         	10.685         	4.009
MS.209         	10.662         	4.048
MS.210         	10.642         	3.998
MS.211         	10.62          	3.907
MS.212         	10.6           	3.932
MS.213         	10.577         	3.94
MS.214         	10.557         	3.881
MS.215         	10.537         	3.877
MS.216         	10.515         	3.799
MS.217         	10.495         	3.864
MS.218         	10.472         	3.851
MS.219         	10.452         	3.879
MS.220         	10.432         	3.934
MS.221         	10.41          	3.917
MS.222         	10.39          	3.894
MS.223         	10.37          	3.783
MS.224         	10.347         	3.792
MS.225         	10.327         	3.877
MS.226         	10.307         	3.775
MS.227         	10.287         	3.792
MS.228         	10.265         	3.771
MS.229         	10.245         	3.703
MS.230         	10.225         	3.847
MS.231         	10.205         	3.806
MS.232         	10.185         	3.714
MS.233         	10.165         	3.714
MS.234         	10.142         	3.669
MS.235         	10.122         	3.695
MS.236         	10.102         	3.765
MS.237         	10.082         	3.696
MS.238         	10.062         	3.718
MS.239         	10.042         	3.76
MS.240         	10.023         	3.676
MS.241         	10.002         	3.637
MS.242         	9.983          	3.679
MS.243         	9.962          	3.64
MS.244         	9.943          	3.593
MS.245         	9.922          	3.633
MS.246         	9.903          	3.644
MS.247         	9.882          	3.598
MS.248         	9.863          	3.608
MS.249         	9.842          	3.586
MS.250         	9.825          	3.506
MS.251         	9.805          	3.578
MS.252         	9.785          	3.533
MS.253         	9.765          	3.536
MS.254         	9.745          	3.51
MS.255         	9.727          	3.585
MS.256         	9.707          	3.386
MS.257         	9.688          	3.456
MS.258         	9.667          	3.45
MS.259         	9.65           	3.497
MS.260         	9.63           	3.526
MS.261         	9.61           	3.506
MS.262         	9.59           	3.629
MS.263         	9.573          	3.46
MS.264         	9.552          	3.53
MS.265         	9.532          	3.466
MS.266         	9.515          	3.367
MS.267         	9.495          	3.398
MS.268         	9.477          	3.388
MS.269         	9.457          	3.569
MS.270         	9.44           	3.548
MS.271         	9.42           	3.384
MS.272         	9.4            	3.539
MS.273         	9.382          	3.433
MS.274         	9.363          	3.356
MS.275         	9.345          	3.218
MS.276         	9.327          	3.466
MS.277         	9.307          	3.268
MS.278         	9.29           	3.376
MS.279         	9.27           	3.427
MS.280         	9.252          	3.287
MS.281         	9.233          	3.394
MS.282         	9.215          	3.367
MS.283         	9.198          	3.375
MS.284         	9.177          	3.428
MS.285         	9.16           	3.27
MS.286         	9.142          	3.289
MS.287         	9.122          	3.32
MS.288         	9.105          	3.261
MS.289         	9.087          	3.212
MS.290         	9.07           	3.272
MS.291         	9.05           	3.023
MS.292         	9.033          	3.157
MS.293         	9.015          	3.161
MS.294         	8.997          	3.132
MS.295         	8.977          	3.116
MS.296         	8.96           	3.09
MS.297         	8.943          	3.173
MS.298         	8.925          	3.033
MS.299         	8.908          	2.906
MS.300         	8.89           	2.996
MS.301         	8.872          	2.977
MS.302         	8.852          	2.9
MS.303         	8.835          	2.83
MS.304         	8.818          	2.866
MS.305         	8.8            	2.84
MS.306         	8.783          	2.804
MS.307         	8.765          	2.86
MS.308         	8.747          	2.717
MS.309         	8.73           	2.881
MS.310         	8.712          	2.831
MS.311         	8.695          	2.693
MS.312         	8.677          	2.703
MS.313         	8.66           	2.832
MS.314         	8.642          	2.689
MS.315         	8.627          	2.556
MS.316         	8.61           	2.531
MS.317         	8.592          	2.56
MS.318         	8.575          	2.585
MS.319         	8.557          	2.604
MS.320         	8.54           	2.465
MS.321         	8.523          	2.424
MS.322         	8.507          	2.404
MS.323         	8.49           	2.511
MS.324         	8.472          	2.383
MS.325         	8.455          	2.41
MS.326         	8.44           	2.23
MS.327         	8.422          	2.441
MS.328         	8.405          	2.411
MS.329         	8.387          	2.339
MS.330         	8.372          	2.37
MS.331         	8.355          	2.303
MS.332         	8.337          	2.437
MS.333         	8.323          	2.296
MS.334         	8.305          	2.287
MS.335         	8.287          	2.203
MS.336         	8.273          	2.15
MS.337         	8.255          	2.261
MS.338         	8.238          	2.15
MS.339         	8.222          	2.203
MS.340         	8.205          	2.173
MS.341         	8.19           	2.213
MS.342         	8.172          	2.149
MS.343         	8.158          	2.127
MS.344         	8.14           	2.084
MS.345         	8.125          	2.128
MS.346         	8.108          	2.075
MS.347         	8.092          	2.031
MS.348         	8.075          	1.916
MS.349         	8.06           	1.993
MS.350         	8.042          	1.973
MS.351         	8.028          	1.97
MS.352         	8.01           	1.909
MS.353         	7.995          	1.998
MS.354         	7.98           	1.924
MS.355         	7.962          	1.941
MS.356         	7.947          	1.989
MS.357         	7.932          	1.855
MS.358         	7.915          	1.799
MS.359         	7.9            	1.918
MS.360         	7.885          	1.891
MS.361         	7.867          	1.707
MS.362         	7.852          	1.786
MS.363         	7.837          	1.764
MS.364         	7.82           	1.919
MS.365         	7.805          	1.786
MS.366         	7.79           	1.742
MS.367         	7.775          	1.724
MS.368         	7.76           	1.661
MS.369         	7.742          	1.589
MS.370         	7.727          	1.7
MS.371         	7.712          	1.667
MS.372         	7.697          	1.652
MS.373         	7.682          	1.59
MS.374         	7.668          	1.594
MS.375         	7.65           	1.626
MS.376         	7.635          	1.649
MS.377         	7.62           	1.516
MS.378         	7.605          	1.591
MS.379         	7.59           	1.662
MS.380         	7.575          	1.599
MS.381         	7.56           	1.501
MS.382         	7.545          	1.639
MS.383         	7.53           	1.522
MS.384         	7.515          	1.526
MS.385         	7.5            	1.529
MS.386         	7.485          	1.484
MS.387         	7.47           	1.563
MS.388         	7.455          	1.534
MS.389         	7.44           	1.398
MS.390         	7.425          	1.368
MS.391         	7.41           	1.307
MS.392         	7.395          	1.337
MS.393         	7.38           	1.294
MS.394         	7.365          	1.351
MS.395         	7.35           	1.175
MS.396         	7.337          	1.27
MS.397         	7.322          	1.378
MS.398         	7.307          	1.151
MS.399         	7.293          	1.19
MS.400         	7.277          	1.302
MS.401         	7.262          	1.358
MS.402         	7.25           	1.169
MS.403         	7.235          	1.254
MS.404         	7.22           	1.168
MS.405         	7.205          	1.226
MS.406         	7.19           	1.1
MS.407         	7.177          	1.072
MS.408         	7.162          	1.174
MS.409         	7.148          	1.219
MS.410         	7.132          	1.022
MS.411         	7.12           	1.089
MS.412         	7.105          	1.091
MS.413         	7.09           	1.066
MS.414         	7.077          	1.288
MS.415         	7.062          	1.021
MS.416         	7.047          	1.093
MS.417         	7.035          	1.014
MS.418         	7.02           	0.879
MS.419         	7.007          	0.991
MS.420         	6.992          	0.941
MS.421         	6.977          	0.946
MS.422         	6.965          	1.003
MS.423         	6.95           	0.93
MS.424         	6.938          	0.955
MS.425         	6.922          	0.867
MS.426         	6.91           	0.782
MS.427         	6.895          	0.835
MS.428         	6.882          	0.891
MS.429         	6.867          	0.849
MS.430         	6.855          	0.759
MS.431         	6.84           	0.825
MS.432         	6.827          	0.86
MS.433         	6.812          	0.725
MS.434         	6.8            	0.718
MS.435         	6.785          	0.783
MS.436         	6.773          	0.688
MS.437         	6.757          	0.812
MS.438         	6.745          	0.709
MS.439         	6.733          	0.776
MS.440         	6.717          	0.643
MS.441         	6.705          	0.771
MS.442         	6.692          	0.671
MS.443         	6.677          	0.632
MS.444         	6.665          	0.587
MS.445         	6.652          	0.676
MS.446         	6.637          	0.595
MS.447         	6.625          	0.565
MS.448         	6.612          	0.484
MS.449         	6.597          	0.606
MS.450         	6.585          	0.536
MS.451         	6.572          	0.516
MS.452         	6.56           	0.422
MS.453         	6.545          	0.435
MS.454         	6.532          	0.512
MS.455         	6.52           	0.48
MS.456         	6.507          	0.532
MS.457         	6.492          	0.493
MS.458         	6.48           	0.341
MS.459         	6.467          	0.278
MS.460         	6.455          	0.274
MS.461         	6.442          	0.215
MS.462         	6.43           	0.191
MS.463         	6.418          	0.323
MS.464         	6.402          	0.291
MS.465         	6.39           	0.157
MS.466         	6.378          	0.386
MS.467         	6.365          	0.295
MS.468         	6.352          	0.24
MS.469         	6.34           	0.123
MS.470         	6.327          	0.109
MS.471         	6.315          	0.119
MS.472         	6.302          	0.099
MS.473         	6.29           	0.069
MS.474         	6.277          	0.288
MS.475         	6.265          	0.168
MS.476         	6.253          	0.158
MS.477         	6.24           	0.149
MS.478         	6.227          	0.074
MS.479         	6.215          	0.084
MS.480         	6.202          	0.153
MS.481         	6.19           	0.151
MS.482         	6.177          	0.083
MS.483         	6.165          	0.085
MS.484         	6.152          	0.057
MS.485         	6.14           	0.11
MS.486         	6.128          	0.122
MS.487         	6.115          	0.05
MS.488         	6.102          	0.018
MS.489         	6.09           	0.065
MS.490         	6.08           	0.052
MS.491         	6.067          	0.073
MS.492         	6.055          	0.007
MS.493         	6.043          	0.065
MS.494         	6.03           	0.007
MS.495         	6.017          	0.007
MS.496         	6.007          	0.043
MS.497         	5.995          	0.024
MS.498         	5.983          	0.006
MS.499         	5.97           	0.041
MS.500         	5.957          	0.045
MS.501         	5.947          	0.021
