File:              	C:\Qtrac\Data\Daniel M Sørensen\MScan multicentre study\Data from centres\Odense\Processed data\TKC00221C.QZD
Name:              	DK.ODE.NC.2.1
Protocol:          	MSCAN-R2
Date:              	21/2/20
Start time:        	11:54:33
Age:               	74
Sex:               	M
Temperature:       	32.1
S/R sites:         	TA
NC/disease:        	NC
Operator:          	TK
Comments:
M-SCAN DATA (8.6-1.3m)
Scanpts: 84, 91, 742, 748
Stim. (mA)     	Amp. (mV)
MS.1           	24             	4.097
MS.2           	24             	4.139
MS.3           	24             	4.153
MS.4           	24             	4.123
MS.5           	24             	4.048
MS.6           	24             	4.095
MS.7           	24             	4.185
MS.8           	24             	4.095
MS.9           	24             	4.171
MS.10          	24             	4.071
MS.11          	24             	4.113
MS.12          	24             	4.151
MS.13          	24             	4.063
MS.14          	24             	4.119
MS.15          	24             	4.081
MS.16          	24             	4.135
MS.17          	24             	4.165
MS.18          	24             	4.145
MS.19          	24             	4.145
MS.20          	24             	4.131
MS.21          	24             	4.123
MS.22          	24             	4.157
MS.23          	24             	4.129
MS.24          	23.905         	4.141
MS.25          	23.858         	4.113
MS.26          	23.807         	4.193
MS.27          	23.76          	4.113
MS.28          	23.712         	4.139
MS.29          	23.665         	4.173
MS.30          	23.62          	4.143
MS.31          	23.573         	4.155
MS.32          	23.525         	4.121
MS.33          	23.477         	4.218
MS.34          	23.43          	4.079
MS.35          	23.385         	4.161
MS.36          	23.337         	4.123
MS.37          	23.29          	4.163
MS.38          	23.245         	4.187
MS.39          	23.198         	4.171
MS.40          	23.153         	4.165
MS.41          	23.105         	4.185
MS.42          	23.06          	4.147
MS.43          	23.012         	4.125
MS.44          	22.967         	4.167
MS.45          	22.92          	4.218
MS.46          	22.875         	4.085
MS.47          	22.83          	4.187
MS.48          	22.785         	4.177
MS.49          	22.737         	4.181
MS.50          	22.692         	4.183
MS.51          	22.647         	4.206
MS.52          	22.602         	4.216
MS.53          	22.557         	4.214
MS.54          	22.512         	4.167
MS.55          	22.467         	4.206
MS.56          	22.422         	4.165
MS.57          	22.377         	4.202
MS.58          	22.332         	4.22
MS.59          	22.288         	4.228
MS.60          	22.243         	4.181
MS.61          	22.2           	4.218
MS.62          	22.155         	4.204
MS.63          	22.11          	4.232
MS.64          	22.067         	4.191
MS.65          	22.022         	4.234
MS.66          	21.977         	4.244
MS.67          	21.935         	4.246
MS.68          	21.89          	4.206
MS.69          	21.847         	4.234
MS.70          	21.802         	4.252
MS.71          	21.76          	4.252
MS.72          	21.715         	4.212
MS.73          	21.672         	4.258
MS.74          	21.63          	4.262
MS.75          	21.585         	4.014
MS.76          	21.542         	4.216
MS.77          	21.5           	4.222
MS.78          	21.458         	4.292
MS.79          	21.415         	4.224
MS.80          	21.372         	4.294
MS.81          	21.327         	4.282
MS.82          	21.285         	4.28
MS.83          	21.243         	4.274
MS.84          	21.2           	4.246
MS.85          	21.157         	4.306
MS.86          	21.118         	4.306
MS.87          	21.075         	4.266
MS.88          	21.032         	4.234
MS.89          	20.99          	4.306
MS.90          	20.948         	4.264
MS.91          	20.907         	4.226
MS.92          	20.865         	4.288
MS.93          	20.823         	4.304
MS.94          	20.78          	4.278
MS.95          	20.74          	4.258
MS.96          	20.698         	4.278
MS.97          	20.657         	4.185
MS.98          	20.615         	4.258
MS.99          	20.575         	4.22
MS.100         	20.532         	4.252
MS.101         	20.493         	4.23
MS.102         	20.452         	3.996
MS.103         	20.41          	4.236
MS.104         	20.37          	4.294
MS.105         	20.33          	4.204
MS.106         	20.288         	4.067
MS.107         	20.247         	4.181
MS.108         	20.208         	4.312
MS.109         	20.167         	4.081
MS.110         	20.127         	3.962
MS.111         	20.087         	4.226
MS.112         	20.047         	4.228
MS.113         	20.007         	3.96
MS.114         	19.967         	4.087
MS.115         	19.927         	4.028
MS.116         	19.887         	3.982
MS.117         	19.847         	3.992
MS.118         	19.807         	3.966
MS.119         	19.767         	4.002
MS.120         	19.727         	4.05
MS.121         	19.69          	4.018
MS.122         	19.65          	4.069
MS.123         	19.61          	3.934
MS.124         	19.57          	3.922
MS.125         	19.532         	4.022
MS.126         	19.493         	3.99
MS.127         	19.455         	4.008
MS.128         	19.415         	3.948
MS.129         	19.377         	4.004
MS.130         	19.337         	3.916
MS.131         	19.3           	3.909
MS.132         	19.26          	3.98
MS.133         	19.222         	3.942
MS.134         	19.182         	3.954
MS.135         	19.145         	3.938
MS.136         	19.108         	4.024
MS.137         	19.067         	3.903
MS.138         	19.03          	3.875
MS.139         	18.993         	3.932
MS.140         	18.955         	3.978
MS.141         	18.917         	3.885
MS.142         	18.88          	3.936
MS.143         	18.842         	3.966
MS.144         	18.802         	3.998
MS.145         	18.765         	3.932
MS.146         	18.727         	3.911
MS.147         	18.69          	3.966
MS.148         	18.655         	3.926
MS.149         	18.618         	3.891
MS.150         	18.58          	3.889
MS.151         	18.542         	3.926
MS.152         	18.505         	3.984
MS.153         	18.467         	3.956
MS.154         	18.432         	3.984
MS.155         	18.395         	3.982
MS.156         	18.358         	3.966
MS.157         	18.32          	3.974
MS.158         	18.285         	3.966
MS.159         	18.247         	3.946
MS.160         	18.212         	3.962
MS.161         	18.175         	3.96
MS.162         	18.137         	3.968
MS.163         	18.102         	3.95
MS.164         	18.067         	3.956
MS.165         	18.03          	3.94
MS.166         	17.995         	3.938
MS.167         	17.958         	3.924
MS.168         	17.922         	3.984
MS.169         	17.887         	3.964
MS.170         	17.85          	3.944
MS.171         	17.815         	3.968
MS.172         	17.78          	3.996
MS.173         	17.745         	3.96
MS.174         	17.708         	3.99
MS.175         	17.672         	3.944
MS.176         	17.637         	3.954
MS.177         	17.602         	4.002
MS.178         	17.567         	3.94
MS.179         	17.532         	3.964
MS.180         	17.497         	3.956
MS.181         	17.462         	3.976
MS.182         	17.427         	4
MS.183         	17.392         	3.938
MS.184         	17.358         	3.936
MS.185         	17.323         	4.004
MS.186         	17.288         	3.99
MS.187         	17.255         	3.946
MS.188         	17.22          	3.976
MS.189         	17.185         	3.96
MS.190         	17.15          	4.002
MS.191         	17.118         	3.924
MS.192         	17.083         	4.006
MS.193         	17.047         	4.008
MS.194         	17.015         	3.942
MS.195         	16.98          	4.03
MS.196         	16.948         	4.004
MS.197         	16.913         	3.956
MS.198         	16.878         	3.99
MS.199         	16.845         	3.994
MS.200         	16.812         	3.976
MS.201         	16.778         	3.97
MS.202         	16.745         	3.984
MS.203         	16.71          	4.002
MS.204         	16.677         	3.956
MS.205         	16.645         	3.994
MS.206         	16.61          	4.036
MS.207         	16.577         	3.988
MS.208         	16.545         	3.962
MS.209         	16.512         	3.986
MS.210         	16.477         	3.986
MS.211         	16.445         	3.964
MS.212         	16.413         	3.98
MS.213         	16.38          	4.02
MS.214         	16.347         	3.992
MS.215         	16.315         	3.988
MS.216         	16.282         	3.966
MS.217         	16.25          	4.04
MS.218         	16.217         	3.994
MS.219         	16.185         	4.01
MS.220         	16.153         	4
MS.221         	16.12          	3.911
MS.222         	16.087         	3.94
MS.223         	16.055         	3.994
MS.224         	16.022         	3.974
MS.225         	15.992         	3.94
MS.226         	15.96          	4.022
MS.227         	15.927         	3.897
MS.228         	15.895         	3.93
MS.229         	15.865         	3.994
MS.230         	15.832         	3.976
MS.231         	15.8           	3.924
MS.232         	15.77          	3.998
MS.233         	15.737         	3.976
MS.234         	15.705         	3.936
MS.235         	15.675         	3.901
MS.236         	15.642         	3.934
MS.237         	15.612         	3.92
MS.238         	15.58          	3.94
MS.239         	15.55          	3.942
MS.240         	15.52          	3.924
MS.241         	15.487         	3.94
MS.242         	15.457         	3.918
MS.243         	15.425         	3.879
MS.244         	15.395         	3.956
MS.245         	15.365         	3.946
MS.246         	15.332         	3.845
MS.247         	15.302         	3.899
MS.248         	15.273         	3.899
MS.249         	15.242         	3.934
MS.250         	15.212         	3.873
MS.251         	15.18          	3.891
MS.252         	15.15          	3.984
MS.253         	15.12          	3.863
MS.254         	15.09          	3.976
MS.255         	15.06          	3.883
MS.256         	15.03          	3.855
MS.257         	15             	3.907
MS.258         	14.97          	3.837
MS.259         	14.94          	3.865
MS.260         	14.91          	3.964
MS.261         	14.88          	4.018
MS.262         	14.85          	3.897
MS.263         	14.82          	3.869
MS.264         	14.792         	3.901
MS.265         	14.762         	3.857
MS.266         	14.733         	3.869
MS.267         	14.702         	3.916
MS.268         	14.672         	3.914
MS.269         	14.645         	3.914
MS.270         	14.615         	3.889
MS.271         	14.585         	3.857
MS.272         	14.557         	3.845
MS.273         	14.527         	3.863
MS.274         	14.497         	3.924
MS.275         	14.47          	3.847
MS.276         	14.44          	3.877
MS.277         	14.412         	3.779
MS.278         	14.382         	3.791
MS.279         	14.355         	3.909
MS.280         	14.325         	3.899
MS.281         	14.297         	3.779
MS.282         	14.267         	3.843
MS.283         	14.24          	3.897
MS.284         	14.212         	3.797
MS.285         	14.182         	3.869
MS.286         	14.155         	3.791
MS.287         	14.127         	3.811
MS.288         	14.097         	3.813
MS.289         	14.07          	3.75
MS.290         	14.042         	3.795
MS.291         	14.015         	3.734
MS.292         	13.985         	3.746
MS.293         	13.957         	3.611
MS.294         	13.93          	3.762
MS.295         	13.903         	3.807
MS.296         	13.875         	3.754
MS.297         	13.847         	3.642
MS.298         	13.82          	3.795
MS.299         	13.792         	3.605
MS.300         	13.765         	3.678
MS.301         	13.737         	3.607
MS.302         	13.71          	3.791
MS.303         	13.682         	3.662
MS.304         	13.655         	3.748
MS.305         	13.627         	3.654
MS.306         	13.6           	3.648
MS.307         	13.572         	3.609
MS.308         	13.545         	3.64
MS.309         	13.517         	3.706
MS.310         	13.492         	3.634
MS.311         	13.465         	3.66
MS.312         	13.438         	3.638
MS.313         	13.41          	3.748
MS.314         	13.385         	3.652
MS.315         	13.358         	3.591
MS.316         	13.33          	3.66
MS.317         	13.305         	3.642
MS.318         	13.278         	3.619
MS.319         	13.25          	3.587
MS.320         	13.225         	3.617
MS.321         	13.197         	3.539
MS.322         	13.172         	3.521
MS.323         	13.145         	3.531
MS.324         	13.12          	3.537
MS.325         	13.092         	3.549
MS.326         	13.068         	3.468
MS.327         	13.04          	3.386
MS.328         	13.015         	3.458
MS.329         	12.987         	3.565
MS.330         	12.962         	3.36
MS.331         	12.938         	3.525
MS.332         	12.91          	3.426
MS.333         	12.885         	3.368
MS.334         	12.86          	3.35
MS.335         	12.832         	3.321
MS.336         	12.807         	3.35
MS.337         	12.782         	3.352
MS.338         	12.757         	3.35
MS.339         	12.73          	3.295
MS.340         	12.705         	3.299
MS.341         	12.68          	3.313
MS.342         	12.655         	3.333
MS.343         	12.63          	3.341
MS.344         	12.605         	3.315
MS.345         	12.58          	3.269
MS.346         	12.555         	3.265
MS.347         	12.53          	3.346
MS.348         	12.505         	3.269
MS.349         	12.48          	3.291
MS.350         	12.455         	3.241
MS.351         	12.43          	3.295
MS.352         	12.405         	3.319
MS.353         	12.38          	3.257
MS.354         	12.355         	3.176
MS.355         	12.33          	3.233
MS.356         	12.305         	3.249
MS.357         	12.28          	3.249
MS.358         	12.257         	3.267
MS.359         	12.233         	3.301
MS.360         	12.207         	3.201
MS.361         	12.182         	3.265
MS.362         	12.16          	3.188
MS.363         	12.135         	3.182
MS.364         	12.11          	3.186
MS.365         	12.085         	3.217
MS.366         	12.062         	3.164
MS.367         	12.037         	3.223
MS.368         	12.012         	3.194
MS.369         	11.99          	3.205
MS.370         	11.965         	3.16
MS.371         	11.943         	3.184
MS.372         	11.917         	3.253
MS.373         	11.895         	3.182
MS.374         	11.87          	3.176
MS.375         	11.847         	3.16
MS.376         	11.822         	3.122
MS.377         	11.8           	3.178
MS.378         	11.775         	3.166
MS.379         	11.752         	3.102
MS.380         	11.73          	3.201
MS.381         	11.705         	3.174
MS.382         	11.682         	3.132
MS.383         	11.657         	3.207
MS.384         	11.635         	3.17
MS.385         	11.613         	3.198
MS.386         	11.59          	3.12
MS.387         	11.565         	3.172
MS.388         	11.542         	3.136
MS.389         	11.52          	3.182
MS.390         	11.497         	3.16
MS.391         	11.472         	3.16
MS.392         	11.45          	3.14
MS.393         	11.427         	3.116
MS.394         	11.405         	3.176
MS.395         	11.382         	3.192
MS.396         	11.36          	3.186
MS.397         	11.337         	3.188
MS.398         	11.315         	3.198
MS.399         	11.292         	3.15
MS.400         	11.27          	3.158
MS.401         	11.247         	3.182
MS.402         	11.225         	3.17
MS.403         	11.202         	3.14
MS.404         	11.18          	3.104
MS.405         	11.157         	3.076
MS.406         	11.135         	3.158
MS.407         	11.113         	3.098
MS.408         	11.09          	3.142
MS.409         	11.068         	3.092
MS.410         	11.045         	3.144
MS.411         	11.023         	3.084
MS.412         	11.002         	3.106
MS.413         	10.98          	3.057
MS.414         	10.957         	3.166
MS.415         	10.935         	3.126
MS.416         	10.915         	3.047
MS.417         	10.892         	3.066
MS.418         	10.87          	3.06
MS.419         	10.85          	3.068
MS.420         	10.827         	3.08
MS.421         	10.805         	3.057
MS.422         	10.785         	3.124
MS.423         	10.762         	3.051
MS.424         	10.74          	3.094
MS.425         	10.72          	2.973
MS.426         	10.698         	2.963
MS.427         	10.677         	3.021
MS.428         	10.655         	2.995
MS.429         	10.635         	3.045
MS.430         	10.613         	3.057
MS.431         	10.592         	3.076
MS.432         	10.57          	3.055
MS.433         	10.55          	3.005
MS.434         	10.528         	3.009
MS.435         	10.507         	3.011
MS.436         	10.485         	3.003
MS.437         	10.465         	2.921
MS.438         	10.445         	2.949
MS.439         	10.422         	2.939
MS.440         	10.403         	2.957
MS.441         	10.382         	2.995
MS.442         	10.36          	2.914
MS.443         	10.34          	2.87
MS.444         	10.32          	2.91
MS.445         	10.3           	2.862
MS.446         	10.278         	2.846
MS.447         	10.257         	2.864
MS.448         	10.238         	2.747
MS.449         	10.217         	2.78
MS.450         	10.198         	2.959
MS.451         	10.175         	2.842
MS.452         	10.155         	2.84
MS.453         	10.135         	2.864
MS.454         	10.115         	2.647
MS.455         	10.095         	2.8
MS.456         	10.075         	2.808
MS.457         	10.055         	2.618
MS.458         	10.035         	2.743
MS.459         	10.015         	2.792
MS.460         	9.995          	2.496
MS.461         	9.975          	2.506
MS.462         	9.955          	2.796
MS.463         	9.935          	2.804
MS.464         	9.915          	2.502
MS.465         	9.895          	2.564
MS.466         	9.875          	2.494
MS.467         	9.855          	2.765
MS.468         	9.835          	2.538
MS.469         	9.818          	2.389
MS.470         	9.797          	2.373
MS.471         	9.778          	2.322
MS.472         	9.757          	2.445
MS.473         	9.738          	2.415
MS.474         	9.717          	2.401
MS.475         	9.7            	2.381
MS.476         	9.68           	2.413
MS.477         	9.66           	2.425
MS.478         	9.64           	2.294
MS.479         	9.622          	2.201
MS.480         	9.602          	2.395
MS.481         	9.582          	2.308
MS.482         	9.565          	2.294
MS.483         	9.545          	2.31
MS.484         	9.525          	2.246
MS.485         	9.507          	2.189
MS.486         	9.488          	2.232
MS.487         	9.47           	2.171
MS.488         	9.45           	2.429
MS.489         	9.432          	2.256
MS.490         	9.412          	2.165
MS.491         	9.395          	2.199
MS.492         	9.375          	2.179
MS.493         	9.358          	2.091
MS.494         	9.337          	2.23
MS.495         	9.32           	2.087
MS.496         	9.3            	2.105
MS.497         	9.283          	2.065
MS.498         	9.262          	2.187
MS.499         	9.245          	2.026
MS.500         	9.225          	2.109
MS.501         	9.207          	1.998
