File:              	C:\Qtrac\Data\Daniel M Sørensen\MScan multicentre study\Data from centres\Odense\Processed data\TKC01104C.QZD
Name:              	DK.ODE.NC.8.1
Protocol:          	MSCAN-R2
Date:              	4/11/20
Start time:        	09:25:02
Age:               	46
Sex:               	M
Temperature:       	30.9
S/R sites:         	TA
NC/disease:        	NC
Operator:          	TK
Comments:
M-SCAN DATA (5.9-1.2m)
Scanpts: 30, 35, 445, 453
Stim. (mA)     	Amp. (mV)
MS.1           	10             	5.565
MS.2           	10             	5.573
MS.3           	10             	5.523
MS.4           	10             	5.507
MS.5           	10             	5.523
MS.6           	10             	5.491
MS.7           	10             	5.519
MS.8           	10             	5.585
MS.9           	10             	5.495
MS.10          	10             	5.551
MS.11          	10             	5.509
MS.12          	10             	5.458
MS.13          	10             	5.466
MS.14          	10             	5.495
MS.15          	10             	5.442
MS.16          	10             	5.547
MS.17          	10             	5.503
MS.18          	10             	5.505
MS.19          	10             	5.489
MS.20          	10             	5.47
MS.21          	10             	5.517
MS.22          	10             	5.507
MS.23          	10             	5.515
MS.24          	9.96           	5.489
MS.25          	9.94           	5.523
MS.26          	9.92           	5.483
MS.27          	9.9            	5.581
MS.28          	9.88           	5.533
MS.29          	9.86           	5.497
MS.30          	9.84           	5.543
MS.31          	9.823          	5.491
MS.32          	9.802          	5.495
MS.33          	9.782          	5.511
MS.34          	9.762          	5.543
MS.35          	9.742          	5.497
MS.36          	9.725          	5.495
MS.37          	9.705          	5.485
MS.38          	9.685          	5.525
MS.39          	9.665          	5.507
MS.40          	9.648          	5.493
MS.41          	9.627          	5.483
MS.42          	9.608          	5.557
MS.43          	9.587          	5.553
MS.44          	9.57           	5.509
MS.45          	9.55           	5.472
MS.46          	9.532          	5.561
MS.47          	9.512          	5.529
MS.48          	9.492          	5.489
MS.49          	9.475          	5.446
MS.50          	9.455          	5.466
MS.51          	9.438          	5.525
MS.52          	9.417          	5.515
MS.53          	9.4            	5.479
MS.54          	9.38           	5.505
MS.55          	9.363          	5.485
MS.56          	9.342          	5.477
MS.57          	9.325          	5.468
MS.58          	9.305          	5.529
MS.59          	9.287          	5.487
MS.60          	9.267          	5.46
MS.61          	9.25           	5.493
MS.62          	9.23           	5.454
MS.63          	9.212          	5.474
MS.64          	9.195          	5.464
MS.65          	9.175          	5.456
MS.66          	9.158          	5.462
MS.67          	9.14           	5.479
MS.68          	9.12           	5.45
MS.69          	9.102          	5.456
MS.70          	9.085          	5.481
MS.71          	9.068          	5.489
MS.72          	9.047          	5.434
MS.73          	9.03           	5.418
MS.74          	9.012          	5.454
MS.75          	8.995          	5.509
MS.76          	8.975          	5.495
MS.77          	8.957          	5.503
MS.78          	8.94           	5.464
MS.79          	8.922          	5.444
MS.80          	8.905          	5.333
MS.81          	8.887          	5.446
MS.82          	8.87           	5.505
MS.83          	8.852          	5.382
MS.84          	8.835          	5.406
MS.85          	8.815          	5.392
MS.86          	8.797          	5.388
MS.87          	8.78           	5.456
MS.88          	8.762          	5.376
MS.89          	8.745          	5.348
MS.90          	8.727          	5.338
MS.91          	8.71           	5.374
MS.92          	8.693          	5.414
MS.93          	8.675          	5.382
MS.94          	8.66           	5.305
MS.95          	8.642          	5.327
MS.96          	8.625          	5.388
MS.97          	8.608          	5.267
MS.98          	8.59           	5.251
MS.99          	8.573          	5.299
MS.100         	8.555          	5.297
MS.101         	8.537          	5.174
MS.102         	8.523          	5.231
MS.103         	8.505          	5.237
MS.104         	8.488          	5.285
MS.105         	8.47           	5.291
MS.106         	8.452          	5.273
MS.107         	8.438          	5.245
MS.108         	8.42           	5.291
MS.109         	8.403          	5.231
MS.110         	8.385          	5.237
MS.111         	8.37           	5.19
MS.112         	8.352          	5.229
MS.113         	8.335          	5.223
MS.114         	8.32           	5.215
MS.115         	8.302          	5.229
MS.116         	8.285          	5.217
MS.117         	8.27           	5.188
MS.118         	8.252          	5.174
MS.119         	8.238          	5.227
MS.120         	8.22           	5.14
MS.121         	8.202          	5.166
MS.122         	8.188          	5.164
MS.123         	8.17           	5.162
MS.124         	8.155          	5.098
MS.125         	8.137          	5.14
MS.126         	8.122          	5.118
MS.127         	8.105          	5.092
MS.128         	8.09           	5.128
MS.129         	8.073          	5.108
MS.130         	8.057          	5.122
MS.131         	8.04           	5.176
MS.132         	8.025          	5.162
MS.133         	8.01           	5.082
MS.134         	7.992          	4.987
MS.135         	7.977          	5.005
MS.136         	7.96           	5.088
MS.137         	7.945          	5.072
MS.138         	7.93           	5.029
MS.139         	7.912          	4.9
MS.140         	7.898          	4.882
MS.141         	7.882          	4.814
MS.142         	7.865          	4.88
MS.143         	7.85           	4.806
MS.144         	7.835          	4.818
MS.145         	7.82           	4.949
MS.146         	7.802          	4.866
MS.147         	7.787          	4.868
MS.148         	7.773          	4.826
MS.149         	7.757          	4.701
MS.150         	7.742          	4.763
MS.151         	7.725          	4.862
MS.152         	7.71           	4.689
MS.153         	7.695          	4.717
MS.154         	7.68           	4.631
MS.155         	7.665          	4.598
MS.156         	7.65           	4.77
MS.157         	7.635          	4.695
MS.158         	7.617          	4.556
MS.159         	7.602          	4.721
MS.160         	7.587          	4.516
MS.161         	7.572          	4.477
MS.162         	7.557          	4.443
MS.163         	7.543          	4.496
MS.164         	7.527          	4.377
MS.165         	7.512          	4.395
MS.166         	7.497          	4.443
MS.167         	7.482          	4.451
MS.168         	7.467          	4.365
MS.169         	7.452          	4.316
MS.170         	7.438          	4.463
MS.171         	7.422          	4.391
MS.172         	7.407          	4.159
MS.173         	7.392          	4.308
MS.174         	7.378          	4.238
MS.175         	7.365          	4.324
MS.176         	7.35           	4.242
MS.177         	7.335          	4.27
MS.178         	7.32           	4.262
MS.179         	7.305          	4.169
MS.180         	7.29           	4.111
MS.181         	7.275          	4.282
MS.182         	7.262          	4.191
MS.183         	7.247          	4.087
MS.184         	7.233          	4.185
MS.185         	7.217          	4.105
MS.186         	7.202          	4.107
MS.187         	7.19           	4.115
MS.188         	7.175          	4.034
MS.189         	7.16           	4.03
MS.190         	7.145          	3.948
MS.191         	7.132          	4.145
MS.192         	7.117          	4.048
MS.193         	7.102          	4.044
MS.194         	7.09           	3.936
MS.195         	7.075          	3.793
MS.196         	7.06           	3.861
MS.197         	7.047          	3.92
MS.198         	7.032          	3.962
MS.199         	7.017          	3.928
MS.200         	7.005          	3.889
MS.201         	6.99           	3.978
MS.202         	6.977          	3.964
MS.203         	6.962          	3.847
MS.204         	6.95           	3.724
MS.205         	6.935          	3.783
MS.206         	6.92           	3.799
MS.207         	6.907          	3.865
MS.208         	6.892          	3.73
MS.209         	6.88           	3.738
MS.210         	6.865          	3.718
MS.211         	6.852          	3.857
MS.212         	6.837          	3.648
MS.213         	6.825          	3.738
MS.214         	6.812          	3.71
MS.215         	6.797          	3.682
MS.216         	6.785          	3.611
MS.217         	6.77           	3.611
MS.218         	6.757          	3.595
MS.219         	6.742          	3.589
MS.220         	6.73           	3.551
MS.221         	6.717          	3.625
MS.222         	6.702          	3.47
MS.223         	6.69           	3.428
MS.224         	6.677          	3.478
MS.225         	6.662          	3.478
MS.226         	6.65           	3.489
MS.227         	6.637          	3.529
MS.228         	6.622          	3.462
MS.229         	6.61           	3.275
MS.230         	6.597          	3.339
MS.231         	6.582          	3.327
MS.232         	6.57           	3.384
MS.233         	6.557          	3.376
MS.234         	6.545          	3.309
MS.235         	6.53           	3.277
MS.236         	6.517          	3.448
MS.237         	6.505          	3.37
MS.238         	6.492          	3.331
MS.239         	6.48           	3.219
MS.240         	6.465          	3.348
MS.241         	6.452          	3.003
MS.242         	6.44           	3.041
MS.243         	6.427          	2.981
MS.244         	6.415          	3.047
MS.245         	6.402          	3.033
MS.246         	6.39           	2.912
MS.247         	6.378          	3.015
MS.248         	6.362          	2.88
MS.249         	6.35           	2.951
MS.250         	6.338          	2.814
MS.251         	6.325          	2.846
MS.252         	6.312          	2.806
MS.253         	6.3            	2.753
MS.254         	6.287          	2.749
MS.255         	6.275          	2.804
MS.256         	6.262          	2.741
MS.257         	6.25           	2.739
MS.258         	6.237          	2.667
MS.259         	6.225          	2.63
MS.260         	6.213          	2.548
MS.261         	6.2            	2.608
MS.262         	6.188          	2.556
MS.263         	6.175          	2.516
MS.264         	6.162          	2.419
MS.265         	6.15           	2.417
MS.266         	6.137          	2.443
MS.267         	6.125          	2.449
MS.268         	6.115          	2.481
MS.269         	6.102          	2.395
MS.270         	6.09           	2.288
MS.271         	6.077          	2.326
MS.272         	6.065          	2.344
MS.273         	6.052          	2.129
MS.274         	6.04           	2.234
MS.275         	6.03           	2.288
MS.276         	6.017          	2.218
MS.277         	6.005          	2.23
MS.278         	5.992          	2.173
MS.279         	5.98           	2.161
MS.280         	5.97           	1.98
MS.281         	5.957          	2.026
MS.282         	5.945          	2.069
MS.283         	5.932          	1.855
MS.284         	5.922          	2
MS.285         	5.91           	1.954
MS.286         	5.898          	2.109
MS.287         	5.885          	2.014
MS.288         	5.875          	1.94
MS.289         	5.862          	1.869
MS.290         	5.85           	1.911
MS.291         	5.84           	1.932
MS.292         	5.827          	1.895
MS.293         	5.815          	1.714
MS.294         	5.805          	1.688
MS.295         	5.793          	1.754
MS.296         	5.78           	1.633
MS.297         	5.77           	1.748
MS.298         	5.757          	1.611
MS.299         	5.747          	1.674
MS.300         	5.735          	1.724
MS.301         	5.722          	1.724
MS.302         	5.713          	1.73
MS.303         	5.7            	1.543
MS.304         	5.69           	1.539
MS.305         	5.677          	1.434
MS.306         	5.668          	1.48
MS.307         	5.655          	1.434
MS.308         	5.645          	1.486
MS.309         	5.632          	1.492
MS.310         	5.622          	1.456
MS.311         	5.61           	1.402
MS.312         	5.6            	1.539
MS.313         	5.588          	1.426
MS.314         	5.577          	1.335
MS.315         	5.565          	1.412
MS.316         	5.555          	1.37
MS.317         	5.543          	1.378
MS.318         	5.532          	1.319
MS.319         	5.52           	1.347
MS.320         	5.51           	1.317
MS.321         	5.5            	1.313
MS.322         	5.487          	1.267
MS.323         	5.477          	1.267
MS.324         	5.465          	1.257
MS.325         	5.455          	1.275
MS.326         	5.445          	1.17
MS.327         	5.432          	1.253
MS.328         	5.422          	1.279
MS.329         	5.412          	1.188
MS.330         	5.4            	1.19
MS.331         	5.39           	1.245
MS.332         	5.38           	1.186
MS.333         	5.367          	1.156
MS.334         	5.358          	1.156
MS.335         	5.347          	1.225
MS.336         	5.338          	1.192
MS.337         	5.325          	1.166
MS.338         	5.315          	1.057
MS.339         	5.305          	1.13
MS.340         	5.295          	1.098
MS.341         	5.282          	0.989
MS.342         	5.273          	1.037
MS.343         	5.262          	0.961
MS.344         	5.253          	0.997
MS.345         	5.242          	0.937
MS.346         	5.23           	1.027
MS.347         	5.22           	1.047
MS.348         	5.21           	0.985
MS.349         	5.2            	0.949
MS.350         	5.19           	0.882
MS.351         	5.18           	1.027
MS.352         	5.168          	0.888
MS.353         	5.157          	0.951
MS.354         	5.148          	0.935
MS.355         	5.137          	0.888
MS.356         	5.128          	0.8
MS.357         	5.117          	0.941
MS.358         	5.108          	0.902
MS.359         	5.097          	0.931
MS.360         	5.088          	0.904
MS.361         	5.077          	0.947
MS.362         	5.065          	0.767
MS.363         	5.055          	0.854
MS.364         	5.045          	0.781
MS.365         	5.035          	0.759
MS.366         	5.025          	0.745
MS.367         	5.015          	0.854
MS.368         	5.005          	0.826
MS.369         	4.995          	0.61
MS.370         	4.985          	0.749
MS.371         	4.975          	0.711
MS.372         	4.965          	0.816
MS.373         	4.955          	0.616
MS.374         	4.945          	0.568
MS.375         	4.935          	0.675
MS.376         	4.927          	0.546
MS.377         	4.918          	0.544
MS.378         	4.907          	0.479
MS.379         	4.898          	0.586
MS.380         	4.887          	0.506
MS.381         	4.878          	0.584
MS.382         	4.867          	0.604
MS.383         	4.858          	0.445
MS.384         	4.847          	0.459
MS.385         	4.838          	0.441
MS.386         	4.827          	0.558
MS.387         	4.82           	0.457
MS.388         	4.81           	0.542
MS.389         	4.8            	0.612
MS.390         	4.79           	0.53
MS.391         	4.78           	0.33
MS.392         	4.77           	0.312
MS.393         	4.762          	0.336
MS.394         	4.753          	0.387
MS.395         	4.742          	0.487
MS.396         	4.733          	0.334
MS.397         	4.722          	0.354
MS.398         	4.715          	0.171
MS.399         	4.705          	0.314
MS.400         	4.695          	0.218
MS.401         	4.685          	0.334
MS.402         	4.677          	0.207
MS.403         	4.668          	0.201
MS.404         	4.657          	0.284
MS.405         	4.648          	0.238
MS.406         	4.64           	0.236
MS.407         	4.63           	0.097
MS.408         	4.62           	0.226
MS.409         	4.612          	0.151
MS.410         	4.602          	0.266
MS.411         	4.592          	0.077
MS.412         	4.585          	0.183
MS.413         	4.575          	0.147
MS.414         	4.565          	0.014
MS.415         	4.557          	0.07
MS.416         	4.548          	0.181
MS.417         	4.537          	0.026
MS.418         	4.53           	0.139
MS.419         	4.52           	0.052
MS.420         	4.512          	0.115
MS.421         	4.503          	0.036
MS.422         	4.492          	0.042
MS.423         	4.485          	0.087
MS.424         	4.475          	0.006
MS.425         	4.467          	0.05
MS.426         	4.457          	-0.002
MS.427         	4.447          	0.046
MS.428         	4.44           	0.016
MS.429         	4.43           	-0.022
MS.430         	4.423          	-0.024
MS.431         	4.412          	-0.002
MS.432         	4.405          	0.016
MS.433         	4.395          	-0.006
MS.434         	4.387          	-0.03
MS.435         	4.378          	-0.012
MS.436         	4.37           	-0.006
MS.437         	4.36           	0.097
MS.438         	4.352          	-0.016
MS.439         	4.342          	0.034
MS.440         	4.335          	-0.002
MS.441         	4.325          	0.016
MS.442         	4.318          	-0.006
MS.443         	4.307          	0.008
MS.444         	4.3            	0.016
MS.445         	4.293          	-0.004
MS.446         	4.282          	-0.056
MS.447         	4.275          	-0.038
MS.448         	4.265          	0.000
MS.449         	4.257          	0.008
MS.450         	4.247          	0.004
MS.451         	4.24           	-0.01
MS.452         	4.233          	-0.034
MS.453         	4.222          	-0.028
MS.454         	4.215          	0.042
MS.455         	4.207          	-0.006
MS.456         	4.197          	-0.002
MS.457         	4.19           	-0.03
MS.458         	4.18           	0.018
MS.459         	4.173          	-0.03
MS.460         	4.165          	0.012
MS.461         	4.155          	-0.024
MS.462         	4.148          	-0.024
MS.463         	4.14           	-0.004
MS.464         	4.132          	0.006
MS.465         	4.122          	-0.038
MS.466         	4.115          	-0.028
MS.467         	4.108          	-0.004
MS.468         	4.097          	0.036
MS.469         	4.09           	-0.002
MS.470         	4.082          	0.05
MS.471         	4.075          	0.018
MS.472         	4.065          	0.05
MS.473         	4.057          	-0.004
MS.474         	4.05           	-0.03
MS.475         	4.043          	0.046
MS.476         	4.032          	-0.064
MS.477         	4.025          	0.034
MS.478         	4.017          	0.089
MS.479         	4.01           	-0.01
MS.480         	4              	-0.004
MS.481         	3.992          	-0.02
MS.482         	3.985          	-0.04
MS.483         	3.977          	0.014
MS.484         	3.97           	0.024
MS.485         	3.962          	0.04
MS.486         	3.952          	0.000
MS.487         	3.945          	0.022
MS.488         	3.938          	-0.012
MS.489         	3.93           	0.008
MS.490         	3.922          	0.018
MS.491         	3.915          	0.044
MS.492         	3.908          	0.008
MS.493         	3.897          	0.004
MS.494         	3.89           	0.018
MS.495         	3.882          	-0.006
MS.496         	3.875          	0.000
MS.497         	3.867          	0.002
MS.498         	3.86           	-0.014
MS.499         	3.852          	0.024
MS.500         	3.845          	0.032
