File:              	C:\Qtrac\Data\Daniel M Sørensen\MScan multicentre study\Data from centres\Odense\Processed data\TKC00227A.QZD
Name:              	DK.ODE.NC.2.2
Protocol:          	MSCAN-R2
Date:              	27/2/20
Start time:        	11:47:24
Age:               	74
Sex:               	m
Temperature:       	32.0
S/R sites:         	TA
NC/disease:        	NC
Operator:          	TK
Comments:
M-SCAN DATA (9.9-1.1m)
Scanpts: 52, 63, 899, 920
Stim. (mA)     	Amp. (mV)
MS.1           	27             	5.225
MS.2           	27             	5.215
MS.3           	27             	5.235
MS.4           	27             	5.148
MS.5           	27             	5.164
MS.6           	27             	5.134
MS.7           	27             	5.201
MS.8           	27             	5.134
MS.9           	27             	5.18
MS.10          	27             	5.217
MS.11          	27             	5.233
MS.12          	27             	5.235
MS.13          	27             	5.152
MS.14          	27             	5.225
MS.15          	27             	5.182
MS.16          	27             	5.184
MS.17          	27             	5.168
MS.18          	27             	5.215
MS.19          	27             	5.309
MS.20          	27             	5.168
MS.21          	27             	5.166
MS.22          	27             	5.213
MS.23          	27             	5.297
MS.24          	26.892         	5.158
MS.25          	26.837         	5.231
MS.26          	26.785         	5.261
MS.27          	26.73          	5.146
MS.28          	26.677         	5.174
MS.29          	26.625         	5.162
MS.30          	26.573         	5.201
MS.31          	26.517         	5.253
MS.32          	26.465         	5.255
MS.33          	26.412         	5.215
MS.34          	26.36          	5.205
MS.35          	26.307         	5.188
MS.36          	26.255         	5.279
MS.37          	26.202         	5.154
MS.38          	26.15          	5.227
MS.39          	26.097         	5.205
MS.40          	26.045         	5.197
MS.41          	25.993         	5.239
MS.42          	25.94          	5.233
MS.43          	25.89          	5.207
MS.44          	25.837         	5.193
MS.45          	25.785         	5.229
MS.46          	25.735         	5.227
MS.47          	25.682         	5.225
MS.48          	25.632         	5.251
MS.49          	25.58          	5.253
MS.50          	25.53          	5.245
MS.51          	25.477         	5.247
MS.52          	25.427         	5.273
MS.53          	25.377         	5.273
MS.54          	25.325         	5.245
MS.55          	25.275         	5.241
MS.56          	25.225         	5.158
MS.57          	25.175         	5.217
MS.58          	25.125         	5.188
MS.59          	25.075         	5.217
MS.60          	25.025         	5.261
MS.61          	24.975         	5.148
MS.62          	24.925         	5.225
MS.63          	24.875         	5.263
MS.64          	24.825         	5.283
MS.65          	24.775         	5.265
MS.66          	24.725         	5.203
MS.67          	24.675         	5.267
MS.68          	24.627         	5.207
MS.69          	24.577         	5.229
MS.70          	24.528         	5.225
MS.71          	24.48          	5.237
MS.72          	24.43          	5.257
MS.73          	24.382         	5.327
MS.74          	24.332         	5.283
MS.75          	24.285         	5.259
MS.76          	24.235         	5.247
MS.77          	24.188         	5.267
MS.78          	24.14          	5.279
MS.79          	24.09          	5.237
MS.80          	24.042         	5.263
MS.81          	23.995         	5.223
MS.82          	23.948         	5.283
MS.83          	23.9           	5.162
MS.84          	23.85          	5.279
MS.85          	23.802         	5.277
MS.86          	23.755         	5.267
MS.87          	23.707         	5.287
MS.88          	23.66          	5.134
MS.89          	23.615         	5.142
MS.90          	23.567         	5.098
MS.91          	23.52          	5.305
MS.92          	23.472         	5.158
MS.93          	23.425         	5.19
MS.94          	23.38          	5.289
MS.95          	23.332         	5.16
MS.96          	23.285         	5.11
MS.97          	23.24          	5.193
MS.98          	23.192         	5.154
MS.99          	23.145         	5.126
MS.100         	23.1           	5.114
MS.101         	23.055         	5.213
MS.102         	23.007         	5.148
MS.103         	22.962         	5.358
MS.104         	22.915         	5.138
MS.105         	22.87          	5.144
MS.106         	22.825         	5.172
MS.107         	22.78          	5.148
MS.108         	22.733         	5.217
MS.109         	22.688         	5.303
MS.110         	22.642         	5.223
MS.111         	22.597         	5.223
MS.112         	22.552         	5.213
MS.113         	22.507         	5.211
MS.114         	22.462         	5.225
MS.115         	22.417         	5.273
MS.116         	22.372         	5.227
MS.117         	22.327         	5.215
MS.118         	22.282         	5.138
MS.119         	22.237         	5.195
MS.120         	22.195         	5.188
MS.121         	22.15          	5.156
MS.122         	22.105         	5.241
MS.123         	22.062         	5.184
MS.124         	22.017         	5.237
MS.125         	21.972         	5.176
MS.126         	21.93          	5.219
MS.127         	21.885         	5.257
MS.128         	21.842         	5.227
MS.129         	21.797         	5.247
MS.130         	21.755         	5.225
MS.131         	21.712         	5.209
MS.132         	21.667         	5.17
MS.133         	21.625         	5.215
MS.134         	21.583         	5.158
MS.135         	21.538         	5.207
MS.136         	21.495         	5.249
MS.137         	21.452         	5.209
MS.138         	21.41          	5.172
MS.139         	21.368         	5.18
MS.140         	21.325         	5.233
MS.141         	21.282         	5.215
MS.142         	21.24          	5.199
MS.143         	21.198         	5.197
MS.144         	21.155         	5.164
MS.145         	21.112         	5.164
MS.146         	21.07          	5.233
MS.147         	21.028         	5.132
MS.148         	20.985         	5.205
MS.149         	20.942         	5.217
MS.150         	20.903         	5.219
MS.151         	20.86          	5.201
MS.152         	20.817         	5.231
MS.153         	20.778         	5.126
MS.154         	20.735         	5.255
MS.155         	20.695         	5.082
MS.156         	20.653         	5.239
MS.157         	20.61          	5.223
MS.158         	20.57          	5.148
MS.159         	20.53          	5.056
MS.160         	20.487         	5.033
MS.161         	20.448         	5.027
MS.162         	20.405         	5.078
MS.163         	20.365         	5.062
MS.164         	20.325         	5.09
MS.165         	20.285         	5.052
MS.166         	20.243         	5.128
MS.167         	20.202         	5.094
MS.168         	20.163         	5.011
MS.169         	20.122         	5.056
MS.170         	20.083         	5.09
MS.171         	20.042         	5.084
MS.172         	20.002         	5.09
MS.173         	19.962         	5.09
MS.174         	19.922         	5.116
MS.175         	19.882         	5.054
MS.176         	19.842         	5.086
MS.177         	19.802         	5.092
MS.178         	19.762         	5.06
MS.179         	19.725         	5.043
MS.180         	19.685         	5.06
MS.181         	19.645         	5.112
MS.182         	19.605         	5.088
MS.183         	19.567         	5.072
MS.184         	19.528         	5.118
MS.185         	19.487         	5.064
MS.186         	19.45          	5.102
MS.187         	19.41          	5.136
MS.188         	19.372         	5.084
MS.189         	19.333         	4.947
MS.190         	19.295         	5.049
MS.191         	19.255         	5.086
MS.192         	19.217         	5.094
MS.193         	19.18          	4.929
MS.194         	19.14          	4.888
MS.195         	19.102         	5.106
MS.196         	19.065         	5.064
MS.197         	19.028         	4.965
MS.198         	18.987         	5.12
MS.199         	18.95          	4.927
MS.200         	18.913         	4.931
MS.201         	18.875         	4.979
MS.202         	18.837         	4.975
MS.203         	18.8           	5.114
MS.204         	18.762         	4.925
MS.205         	18.725         	5.072
MS.206         	18.688         	4.909
MS.207         	18.65          	5.001
MS.208         	18.612         	4.931
MS.209         	18.575         	4.917
MS.210         	18.538         	4.951
MS.211         	18.5           	4.947
MS.212         	18.465         	4.939
MS.213         	18.427         	4.943
MS.214         	18.39          	4.8
MS.215         	18.352         	4.848
MS.216         	18.317         	4.794
MS.217         	18.28          	4.86
MS.218         	18.245         	4.858
MS.219         	18.208         	4.842
MS.220         	18.17          	4.834
MS.221         	18.135         	4.864
MS.222         	18.097         	4.838
MS.223         	18.062         	4.753
MS.224         	18.028         	4.892
MS.225         	17.99          	4.868
MS.226         	17.955         	4.828
MS.227         	17.917         	4.804
MS.228         	17.882         	4.766
MS.229         	17.847         	4.806
MS.230         	17.812         	4.886
MS.231         	17.775         	4.78
MS.232         	17.74          	4.866
MS.233         	17.705         	4.812
MS.234         	17.67          	4.902
MS.235         	17.635         	4.896
MS.236         	17.6           	4.852
MS.237         	17.562         	4.822
MS.238         	17.528         	4.838
MS.239         	17.493         	4.856
MS.240         	17.458         	4.824
MS.241         	17.422         	4.782
MS.242         	17.39          	4.79
MS.243         	17.355         	4.79
MS.244         	17.32          	4.788
MS.245         	17.285         	4.794
MS.246         	17.25          	4.792
MS.247         	17.215         	4.786
MS.248         	17.182         	4.776
MS.249         	17.147         	4.778
MS.250         	17.112         	4.83
MS.251         	17.077         	4.649
MS.252         	17.045         	4.796
MS.253         	17.01          	4.695
MS.254         	16.977         	4.681
MS.255         	16.942         	4.768
MS.256         	16.91          	4.679
MS.257         	16.875         	4.792
MS.258         	16.842         	4.729
MS.259         	16.807         	4.735
MS.260         	16.775         	4.749
MS.261         	16.74          	4.707
MS.262         	16.708         	4.741
MS.263         	16.672         	4.719
MS.264         	16.64          	4.691
MS.265         	16.608         	4.719
MS.266         	16.575         	4.631
MS.267         	16.54          	4.669
MS.268         	16.507         	4.685
MS.269         	16.475         	4.729
MS.270         	16.442         	4.715
MS.271         	16.41          	4.741
MS.272         	16.378         	4.731
MS.273         	16.342         	4.721
MS.274         	16.31          	4.741
MS.275         	16.278         	4.719
MS.276         	16.245         	4.665
MS.277         	16.212         	4.697
MS.278         	16.18          	4.731
MS.279         	16.147         	4.675
MS.280         	16.118         	4.643
MS.281         	16.085         	4.679
MS.282         	16.052         	4.584
MS.283         	16.02          	4.685
MS.284         	15.987         	4.703
MS.285         	15.955         	4.655
MS.286         	15.925         	4.542
MS.287         	15.892         	4.697
MS.288         	15.86          	4.655
MS.289         	15.83          	4.598
MS.290         	15.797         	4.689
MS.291         	15.765         	4.546
MS.292         	15.735         	4.641
MS.293         	15.702         	4.58
MS.294         	15.672         	4.558
MS.295         	15.64          	4.59
MS.296         	15.61          	4.631
MS.297         	15.577         	4.556
MS.298         	15.547         	4.562
MS.299         	15.515         	4.526
MS.300         	15.485         	4.554
MS.301         	15.452         	4.661
MS.302         	15.422         	4.598
MS.303         	15.392         	4.637
MS.304         	15.36          	4.538
MS.305         	15.33          	4.709
MS.306         	15.3           	4.645
MS.307         	15.27          	4.598
MS.308         	15.237         	4.612
MS.309         	15.207         	4.616
MS.310         	15.177         	4.526
MS.311         	15.148         	4.57
MS.312         	15.117         	4.546
MS.313         	15.087         	4.447
MS.314         	15.057         	4.562
MS.315         	15.027         	4.568
MS.316         	14.997         	4.568
MS.317         	14.967         	4.284
MS.318         	14.938         	4.431
MS.319         	14.907         	4.244
MS.320         	14.877         	4.212
MS.321         	14.847         	4.278
MS.322         	14.818         	4.208
MS.323         	14.787         	4.228
MS.324         	14.757         	4.264
MS.325         	14.73          	4.246
MS.326         	14.7           	4.425
MS.327         	14.67          	4.218
MS.328         	14.64          	4.264
MS.329         	14.612         	4.254
MS.330         	14.582         	4.246
MS.331         	14.552         	4.228
MS.332         	14.525         	4.222
MS.333         	14.495         	4.195
MS.334         	14.467         	4.264
MS.335         	14.438         	4.278
MS.336         	14.407         	4.332
MS.337         	14.38          	4.254
MS.338         	14.35          	4.252
MS.339         	14.322         	4.266
MS.340         	14.295         	4.224
MS.341         	14.265         	4.071
MS.342         	14.237         	4.25
MS.343         	14.207         	4.234
MS.344         	14.18          	4.181
MS.345         	14.153         	4.083
MS.346         	14.122         	4.036
MS.347         	14.095         	4.294
MS.348         	14.068         	4.111
MS.349         	14.04          	4.075
MS.350         	14.01          	4.077
MS.351         	13.983         	4.167
MS.352         	13.955         	4.294
MS.353         	13.927         	3.887
MS.354         	13.9           	4.057
MS.355         	13.872         	4.115
MS.356         	13.842         	3.851
MS.357         	13.815         	3.869
MS.358         	13.787         	3.845
MS.359         	13.76          	3.855
MS.360         	13.733         	3.914
MS.361         	13.705         	3.873
MS.362         	13.677         	3.877
MS.363         	13.653         	3.811
MS.364         	13.625         	3.738
MS.365         	13.597         	3.853
MS.366         	13.57          	3.916
MS.367         	13.542         	3.831
MS.368         	13.515         	3.807
MS.369         	13.487         	3.817
MS.370         	13.462         	3.688
MS.371         	13.435         	3.718
MS.372         	13.407         	3.839
MS.373         	13.38          	3.652
MS.374         	13.355         	3.833
MS.375         	13.327         	3.658
MS.376         	13.3           	3.636
MS.377         	13.275         	3.829
MS.378         	13.247         	3.662
MS.379         	13.222         	3.67
MS.380         	13.195         	3.619
MS.381         	13.167         	3.621
MS.382         	13.142         	3.658
MS.383         	13.115         	3.607
MS.384         	13.09          	3.656
MS.385         	13.062         	3.71
MS.386         	13.037         	3.66
MS.387         	13.012         	3.648
MS.388         	12.985         	3.615
MS.389         	12.96          	3.573
MS.390         	12.932         	3.644
MS.391         	12.907         	3.563
MS.392         	12.882         	3.66
MS.393         	12.858         	3.658
MS.394         	12.83          	3.642
MS.395         	12.805         	3.535
MS.396         	12.78          	3.529
MS.397         	12.755         	3.595
MS.398         	12.727         	3.575
MS.399         	12.702         	3.571
MS.400         	12.677         	3.474
MS.401         	12.653         	3.529
MS.402         	12.627         	3.472
MS.403         	12.602         	3.426
MS.404         	12.577         	3.621
MS.405         	12.552         	3.38
MS.406         	12.528         	3.366
MS.407         	12.502         	3.376
MS.408         	12.477         	3.384
MS.409         	12.452         	3.424
MS.410         	12.427         	3.436
MS.411         	12.403         	3.398
MS.412         	12.377         	3.315
MS.413         	12.352         	3.239
MS.414         	12.327         	3.116
MS.415         	12.302         	3.249
MS.416         	12.278         	3.384
MS.417         	12.255         	3.372
MS.418         	12.23          	3.09
MS.419         	12.205         	3.154
MS.420         	12.18          	3.233
MS.421         	12.155         	3.096
MS.422         	12.132         	3.011
MS.423         	12.108         	2.985
MS.424         	12.082         	3.035
MS.425         	12.06          	3.025
MS.426         	12.035         	3.118
MS.427         	12.01          	3.152
MS.428         	11.988         	3.045
MS.429         	11.962         	3.017
MS.430         	11.94          	3.062
MS.431         	11.915         	2.969
MS.432         	11.892         	2.983
MS.433         	11.867         	3.057
MS.434         	11.845         	2.848
MS.435         	11.82          	2.874
MS.436         	11.797         	2.957
MS.437         	11.773         	2.749
MS.438         	11.75          	2.699
MS.439         	11.727         	2.953
MS.440         	11.702         	2.731
MS.441         	11.68          	2.88
MS.442         	11.655         	2.898
MS.443         	11.632         	2.914
MS.444         	11.61          	2.685
MS.445         	11.587         	2.63
MS.446         	11.562         	2.647
MS.447         	11.54          	2.653
MS.448         	11.517         	2.645
MS.449         	11.495         	2.902
MS.450         	11.47          	2.624
MS.451         	11.447         	2.649
MS.452         	11.425         	2.62
MS.453         	11.403         	2.371
MS.454         	11.38          	2.647
MS.455         	11.358         	2.618
MS.456         	11.335         	2.59
MS.457         	11.312         	2.449
MS.458         	11.29          	2.596
MS.459         	11.267         	2.514
MS.460         	11.245         	2.397
MS.461         	11.222         	2.457
MS.462         	11.2           	2.54
MS.463         	11.177         	2.361
MS.464         	11.155         	2.26
MS.465         	11.132         	2.425
MS.466         	11.11          	2.353
MS.467         	11.087         	2.203
MS.468         	11.065         	2.071
MS.469         	11.042         	2.25
MS.470         	11.023         	2.292
MS.471         	11             	2.236
MS.472         	10.977         	2.411
MS.473         	10.955         	2.27
MS.474         	10.932         	2.278
MS.475         	10.912         	2.093
MS.476         	10.89          	2.27
MS.477         	10.867         	1.762
MS.478         	10.847         	1.883
MS.479         	10.825         	1.986
MS.480         	10.802         	2.224
MS.481         	10.782         	1.585
MS.482         	10.76          	2
MS.483         	10.738         	1.734
MS.484         	10.717         	2.075
MS.485         	10.695         	1.883
MS.486         	10.675         	1.416
MS.487         	10.653         	1.309
MS.488         	10.632         	1.466
MS.489         	10.61          	1.642
MS.490         	10.59          	1.774
MS.491         	10.568         	1.706
MS.492         	10.547         	1.37
MS.493         	10.525         	1.358
MS.494         	10.505         	1.39
MS.495         	10.485         	1.362
MS.496         	10.462         	1.442
MS.497         	10.443         	1.358
MS.498         	10.42          	1.259
MS.499         	10.4           	1.319
MS.500         	10.38          	1.325
MS.501         	10.36          	1.269
