File:              	C:\Qtrac\Data\Daniel M Sørensen\MScan multicentre study\Data from centres\Odense\Processed data\TKC00218C.QZD
Name:              	DK.ODE.NC.1.1
Protocol:          	MSCAN-R2
Date:              	18/2/20
Start time:        	14:20:56
Age:               	32
Sex:               	M
Temperature:       	31.8
S/R sites:         	TA
NC/disease:        	NC
Operator:          	TK
Comments:
M-SCAN DATA (6.1-1m)
Scanpts: 29, 33, 533, 555
Stim. (mA)     	Amp. (mV)
MS.1           	10.5           	6.254
MS.2           	10.5           	6.258
MS.3           	10.5           	6.264
MS.4           	10.5           	6.264
MS.5           	10.5           	6.268
MS.6           	10.5           	6.246
MS.7           	10.5           	6.306
MS.8           	10.5           	6.177
MS.9           	10.5           	6.262
MS.10          	10.5           	6.256
MS.11          	10.5           	6.22
MS.12          	10.5           	6.165
MS.13          	10.5           	6.169
MS.14          	10.5           	6.185
MS.15          	10.5           	6.198
MS.16          	10.5           	6.266
MS.17          	10.5           	6.226
MS.18          	10.5           	6.236
MS.19          	10.5           	6.256
MS.20          	10.5           	6.226
MS.21          	10.5           	6.222
MS.22          	10.5           	6.304
MS.23          	10.5           	6.238
MS.24          	10.457         	6.218
MS.25          	10.438         	6.22
MS.26          	10.417         	6.226
MS.27          	10.395         	6.238
MS.28          	10.375         	6.218
MS.29          	10.355         	6.238
MS.30          	10.332         	6.198
MS.31          	10.312         	6.238
MS.32          	10.292         	6.232
MS.33          	10.273         	6.262
MS.34          	10.25          	6.188
MS.35          	10.23          	6.236
MS.36          	10.21          	6.214
MS.37          	10.19          	6.185
MS.38          	10.17          	6.198
MS.39          	10.15          	6.258
MS.40          	10.127         	6.226
MS.41          	10.108         	6.242
MS.42          	10.087         	6.206
MS.43          	10.068         	6.288
MS.44          	10.047         	6.208
MS.45          	10.028         	6.19
MS.46          	10.007         	6.212
MS.47          	9.988          	6.216
MS.48          	9.967          	6.306
MS.49          	9.948          	6.161
MS.50          	9.927          	6.258
MS.51          	9.907          	6.19
MS.52          	9.887          	6.21
MS.53          	9.867          	6.155
MS.54          	9.85           	6.234
MS.55          	9.83           	6.262
MS.56          	9.81           	6.22
MS.57          	9.79           	6.232
MS.58          	9.77           	6.22
MS.59          	9.75           	6.208
MS.60          	9.733          	6.22
MS.61          	9.712          	6.165
MS.62          	9.693          	6.155
MS.63          	9.672          	6.19
MS.64          	9.655          	6.252
MS.65          	9.635          	6.196
MS.66          	9.615          	6.157
MS.67          	9.595          	6.101
MS.68          	9.577          	6.165
MS.69          	9.557          	6.232
MS.70          	9.54           	6.196
MS.71          	9.52           	6.175
MS.72          	9.5            	6.083
MS.73          	9.483          	6.192
MS.74          	9.462          	6.165
MS.75          	9.445          	6.198
MS.76          	9.425          	6.214
MS.77          	9.405          	6.183
MS.78          	9.387          	6.185
MS.79          	9.367          	6.171
MS.80          	9.35           	6.23
MS.81          	9.332          	6.099
MS.82          	9.312          	6.149
MS.83          	9.295          	6.133
MS.84          	9.275          	6.143
MS.85          	9.257          	6.167
MS.86          	9.238          	6.111
MS.87          	9.22           	6.194
MS.88          	9.202          	6.129
MS.89          	9.182          	6.087
MS.90          	9.165          	6.109
MS.91          	9.148          	6.111
MS.92          	9.127          	6.099
MS.93          	9.11           	6.129
MS.94          	9.092          	6.125
MS.95          	9.073          	6.119
MS.96          	9.055          	6.149
MS.97          	9.037          	6.125
MS.98          	9.02           	6.077
MS.99          	9.002          	6.107
MS.100         	8.983          	6.101
MS.101         	8.965          	6.099
MS.102         	8.948          	6.077
MS.103         	8.93           	6.101
MS.104         	8.912          	6.123
MS.105         	8.895          	6.111
MS.106         	8.875          	6.109
MS.107         	8.858          	6.101
MS.108         	8.84           	6.105
MS.109         	8.823          	6.061
MS.110         	8.805          	6.079
MS.111         	8.787          	6.117
MS.112         	8.77           	6.081
MS.113         	8.752          	6.081
MS.114         	8.735          	6.04
MS.115         	8.717          	6.057
MS.116         	8.7            	6.026
MS.117         	8.682          	6.057
MS.118         	8.665          	6.032
MS.119         	8.648          	6.073
MS.120         	8.63           	6.115
MS.121         	8.615          	6.004
MS.122         	8.597          	6.065
MS.123         	8.58           	6.049
MS.124         	8.562          	5.974
MS.125         	8.545          	5.974
MS.126         	8.528          	6.047
MS.127         	8.51           	6.071
MS.128         	8.495          	5.986
MS.129         	8.477          	5.998
MS.130         	8.46           	5.99
MS.131         	8.443          	6.006
MS.132         	8.427          	5.906
MS.133         	8.41           	6.034
MS.134         	8.392          	5.908
MS.135         	8.375          	5.99
MS.136         	8.36           	5.93
MS.137         	8.342          	5.889
MS.138         	8.325          	5.895
MS.139         	8.31           	5.998
MS.140         	8.292          	5.841
MS.141         	8.275          	5.944
MS.142         	8.26           	5.895
MS.143         	8.242          	5.938
MS.144         	8.227          	6.012
MS.145         	8.21           	5.94
MS.146         	8.193          	5.875
MS.147         	8.177          	5.859
MS.148         	8.16           	5.897
MS.149         	8.145          	5.883
MS.150         	8.127          	5.849
MS.151         	8.113          	5.91
MS.152         	8.095          	5.791
MS.153         	8.08           	5.857
MS.154         	8.062          	5.853
MS.155         	8.047          	5.865
MS.156         	8.033          	5.914
MS.157         	8.015          	5.777
MS.158         	8              	5.7
MS.159         	7.982          	5.863
MS.160         	7.967          	5.668
MS.161         	7.952          	5.754
MS.162         	7.935          	5.771
MS.163         	7.92           	5.779
MS.164         	7.905          	5.738
MS.165         	7.887          	5.744
MS.166         	7.872          	5.767
MS.167         	7.857          	5.694
MS.168         	7.84           	5.744
MS.169         	7.825          	5.636
MS.170         	7.81           	5.609
MS.171         	7.795          	5.549
MS.172         	7.777          	5.63
MS.173         	7.762          	5.694
MS.174         	7.747          	5.577
MS.175         	7.732          	5.551
MS.176         	7.717          	5.66
MS.177         	7.7            	5.561
MS.178         	7.685          	5.477
MS.179         	7.67           	5.507
MS.180         	7.655          	5.491
MS.181         	7.64           	5.577
MS.182         	7.625          	5.519
MS.183         	7.61           	5.487
MS.184         	7.595          	5.448
MS.185         	7.58           	5.571
MS.186         	7.565          	5.404
MS.187         	7.547          	5.315
MS.188         	7.532          	5.402
MS.189         	7.517          	5.265
MS.190         	7.503          	5.39
MS.191         	7.487          	5.259
MS.192         	7.472          	5.213
MS.193         	7.457          	5.336
MS.194         	7.442          	5.275
MS.195         	7.43           	5.412
MS.196         	7.415          	5.307
MS.197         	7.4            	5.265
MS.198         	7.385          	5.162
MS.199         	7.37           	5.241
MS.200         	7.355          	5.217
MS.201         	7.34           	5.152
MS.202         	7.325          	5.118
MS.203         	7.31           	5.098
MS.204         	7.297          	4.987
MS.205         	7.282          	5.126
MS.206         	7.267          	5.003
MS.207         	7.253          	5.027
MS.208         	7.237          	5.076
MS.209         	7.222          	5.033
MS.210         	7.21           	4.886
MS.211         	7.195          	4.898
MS.212         	7.18           	5.062
MS.213         	7.165          	4.981
MS.214         	7.152          	4.882
MS.215         	7.137          	4.84
MS.216         	7.122          	4.945
MS.217         	7.11           	4.904
MS.218         	7.095          	4.846
MS.219         	7.08           	4.792
MS.220         	7.067          	4.86
MS.221         	7.052          	4.824
MS.222         	7.037          	4.784
MS.223         	7.025          	4.649
MS.224         	7.01           	4.633
MS.225         	6.995          	4.592
MS.226         	6.983          	4.578
MS.227         	6.967          	4.568
MS.228         	6.955          	4.637
MS.229         	6.94           	4.608
MS.230         	6.927          	4.542
MS.231         	6.912          	4.455
MS.232         	6.9            	4.375
MS.233         	6.885          	4.53
MS.234         	6.872          	4.343
MS.235         	6.858          	4.449
MS.236         	6.845          	4.361
MS.237         	6.83           	4.359
MS.238         	6.817          	4.332
MS.239         	6.802          	4.183
MS.240         	6.79           	4.31
MS.241         	6.775          	3.968
MS.242         	6.762          	4.077
MS.243         	6.75           	4.087
MS.244         	6.735          	4.044
MS.245         	6.722          	4.042
MS.246         	6.707          	3.942
MS.247         	6.695          	4.022
MS.248         	6.682          	3.994
MS.249         	6.668          	3.837
MS.250         	6.655          	3.775
MS.251         	6.642          	3.726
MS.252         	6.628          	3.813
MS.253         	6.615          	3.718
MS.254         	6.602          	3.686
MS.255         	6.59           	3.581
MS.256         	6.575          	3.623
MS.257         	6.562          	3.611
MS.258         	6.55           	3.577
MS.259         	6.537          	3.593
MS.260         	6.523          	3.476
MS.261         	6.51           	3.358
MS.262         	6.497          	3.491
MS.263         	6.485          	3.348
MS.264         	6.472          	3.291
MS.265         	6.457          	3.273
MS.266         	6.445          	3.319
MS.267         	6.432          	3.207
MS.268         	6.42           	3.156
MS.269         	6.407          	3.267
MS.270         	6.395          	3.257
MS.271         	6.382          	3.17
MS.272         	6.367          	3.192
MS.273         	6.355          	2.963
MS.274         	6.342          	3.029
MS.275         	6.33           	3.035
MS.276         	6.317          	3.035
MS.277         	6.305          	2.959
MS.278         	6.293          	2.953
MS.279         	6.28           	2.955
MS.280         	6.267          	2.761
MS.281         	6.255          	2.778
MS.282         	6.242          	2.919
MS.283         	6.23           	2.832
MS.284         	6.217          	2.711
MS.285         	6.205          	2.655
MS.286         	6.192          	2.624
MS.287         	6.18           	2.566
MS.288         	6.168          	2.568
MS.289         	6.155          	2.564
MS.290         	6.142          	2.62
MS.291         	6.13           	2.578
MS.292         	6.12           	2.544
MS.293         	6.108          	2.566
MS.294         	6.095          	2.441
MS.295         	6.082          	2.51
MS.296         	6.07           	2.516
MS.297         	6.057          	2.574
MS.298         	6.045          	2.304
MS.299         	6.035          	2.25
MS.300         	6.023          	2.294
MS.301         	6.01           	2.431
MS.302         	5.997          	2.27
MS.303         	5.985          	2.206
MS.304         	5.972          	2.208
MS.305         	5.963          	2.139
MS.306         	5.95           	2.113
MS.307         	5.938          	2.173
MS.308         	5.925          	2.073
MS.309         	5.915          	1.978
MS.310         	5.902          	1.998
MS.311         	5.89           	1.966
MS.312         	5.88           	1.996
MS.313         	5.867          	2.026
MS.314         	5.855          	1.885
MS.315         	5.842          	1.934
MS.316         	5.832          	1.829
MS.317         	5.82           	1.795
MS.318         	5.81           	1.77
MS.319         	5.797          	1.791
MS.320         	5.785          	1.698
MS.321         	5.775          	1.702
MS.322         	5.762          	1.64
MS.323         	5.75           	1.7
MS.324         	5.74           	1.621
MS.325         	5.727          	1.567
MS.326         	5.717          	1.613
MS.327         	5.705          	1.484
MS.328         	5.695          	1.597
MS.329         	5.682          	1.46
MS.330         	5.67           	1.42
MS.331         	5.66           	1.513
MS.332         	5.648          	1.583
MS.333         	5.637          	1.456
MS.334         	5.625          	1.436
MS.335         	5.615          	1.4
MS.336         	5.602          	1.378
MS.337         	5.592          	1.358
MS.338         	5.58           	1.464
MS.339         	5.57           	1.309
MS.340         	5.557          	1.321
MS.341         	5.547          	1.233
MS.342         	5.537          	1.206
MS.343         	5.525          	1.311
MS.344         	5.515          	1.352
MS.345         	5.503          	1.18
MS.346         	5.492          	1.245
MS.347         	5.483          	1.182
MS.348         	5.47           	1.136
MS.349         	5.46           	1.112
MS.350         	5.447          	1.142
MS.351         	5.438          	1.068
MS.352         	5.427          	1.041
MS.353         	5.415          	1.041
MS.354         	5.405          	1.132
MS.355         	5.395          	1.005
MS.356         	5.382          	0.979
MS.357         	5.372          	1.019
MS.358         	5.362          	0.935
MS.359         	5.352          	0.914
MS.360         	5.34           	0.914
MS.361         	5.33           	0.929
MS.362         	5.32           	0.902
MS.363         	5.31           	0.87
MS.364         	5.297          	0.81
MS.365         	5.287          	0.898
MS.366         	5.277          	0.769
MS.367         	5.267          	0.781
MS.368         	5.255          	0.876
MS.369         	5.245          	0.826
MS.370         	5.235          	0.779
MS.371         	5.225          	0.697
MS.372         	5.215          	0.804
MS.373         	5.202          	0.741
MS.374         	5.193          	0.697
MS.375         	5.182          	0.641
MS.376         	5.172          	0.661
MS.377         	5.162          	0.703
MS.378         	5.152          	0.61
MS.379         	5.142          	0.602
MS.380         	5.132          	0.667
MS.381         	5.12           	0.62
MS.382         	5.11           	0.582
MS.383         	5.1            	0.582
MS.384         	5.09           	0.568
MS.385         	5.08           	0.516
MS.386         	5.07           	0.55
MS.387         	5.06           	0.52
MS.388         	5.05           	0.546
MS.389         	5.04           	0.552
MS.390         	5.03           	0.534
MS.391         	5.02           	0.477
MS.392         	5.01           	0.487
MS.393         	5              	0.431
MS.394         	4.99           	0.451
MS.395         	4.98           	0.443
MS.396         	4.97           	0.443
MS.397         	4.96           	0.457
MS.398         	4.95           	0.491
MS.399         	4.94           	0.389
MS.400         	4.93           	0.421
MS.401         	4.92           	0.318
MS.402         	4.91           	0.411
MS.403         	4.9            	0.365
MS.404         	4.89           	0.391
MS.405         	4.88           	0.326
MS.406         	4.872          	0.318
MS.407         	4.862          	0.29
MS.408         	4.852          	0.365
MS.409         	4.842          	0.336
MS.410         	4.832          	0.292
MS.411         	4.822          	0.264
MS.412         	4.812          	0.228
MS.413         	4.802          	0.272
MS.414         	4.795          	0.268
MS.415         	4.785          	0.258
MS.416         	4.775          	0.218
MS.417         	4.765          	0.209
MS.418         	4.755          	0.302
MS.419         	4.747          	0.199
MS.420         	4.737          	0.224
MS.421         	4.727          	0.171
MS.422         	4.717          	0.193
MS.423         	4.707          	0.205
MS.424         	4.7            	0.228
MS.425         	4.69           	0.127
MS.426         	4.68           	0.161
MS.427         	4.67           	0.147
MS.428         	4.662          	0.157
MS.429         	4.652          	0.161
MS.430         	4.642          	0.129
MS.431         	4.635          	0.121
MS.432         	4.625          	0.145
MS.433         	4.615          	0.135
MS.434         	4.605          	0.105
MS.435         	4.597          	0.103
MS.436         	4.588          	0.145
MS.437         	4.577          	0.097
MS.438         	4.57           	0.157
MS.439         	4.56           	0.095
MS.440         	4.55           	0.073
MS.441         	4.543          	0.091
MS.442         	4.532          	0.073
MS.443         	4.525          	0.06
MS.444         	4.515          	0.103
MS.445         	4.505          	0.097
MS.446         	4.497          	0.064
MS.447         	4.487          	0.064
MS.448         	4.48           	0.05
MS.449         	4.47           	0.085
MS.450         	4.46           	0.03
MS.451         	4.452          	0.101
MS.452         	4.443          	0.06
MS.453         	4.435          	0.016
MS.454         	4.425          	0.075
MS.455         	4.418          	-0.002
MS.456         	4.407          	0.042
MS.457         	4.4            	0.046
MS.458         	4.39           	0.042
MS.459         	4.382          	0.006
MS.460         	4.372          	0.036
MS.461         	4.365          	0.022
MS.462         	4.355          	0.022
MS.463         	4.347          	0.064
MS.464         	4.338          	0.008
MS.465         	4.33           	0.036
MS.466         	4.32           	0.028
MS.467         	4.312          	-0.008
MS.468         	4.302          	0.016
MS.469         	4.295          	-0.006
MS.470         	4.285          	-0.022
MS.471         	4.277          	0.026
MS.472         	4.27           	-0.008
MS.473         	4.26           	0.026
MS.474         	4.253          	0.014
MS.475         	4.242          	0.03
MS.476         	4.235          	0.03
MS.477         	4.227          	-0.026
MS.478         	4.217          	-0.024
MS.479         	4.21           	-0.002
MS.480         	4.2            	-0.022
MS.481         	4.193          	-0.012
MS.482         	4.185          	0.036
MS.483         	4.175          	-0.012
MS.484         	4.168          	0.002
MS.485         	4.16           	0.002
MS.486         	4.15           	0.018
MS.487         	4.142          	-0.028
MS.488         	4.135          	0.004
MS.489         	4.128          	0.022
MS.490         	4.117          	-0.02
MS.491         	4.11           	-0.026
MS.492         	4.102          	-0.028
MS.493         	4.092          	-0.038
MS.494         	4.085          	-0.02
MS.495         	4.077          	-0.012
MS.496         	4.07           	-0.004
MS.497         	4.06           	-0.01
MS.498         	4.052          	0.022
MS.499         	4.045          	-0.016
MS.500         	4.037          	-0.024
MS.501         	4.027          	-0.006
