File:              	C:\Qtrac\Data\Daniel M Sørensen\MScan multicentre study\Data from centres\Antalya\Processed data\TR.NC.ANT.3.1- NCC00315I.QZD
Name:              	TR.NC.ANT.3.1
Protocol:          	MSCAN-R2
Date:              	15/3/20
Start time:        	16:34:10
Age:               	37
Sex:               	f
Temperature:       	29.9
S/R sites:         	TA
NC/disease:        	NC
Operator:          	ab
Comments:          	left TA
M-SCAN DATA (8.1-1.3m)
Scanpts: 13, 17, 721, 727
Stim. (mA)     	Amp. (mV)
MS.1           	34.5           	8.206
MS.2           	34.5           	8.208
MS.3           	34.5           	8.141
MS.4           	34.5           	8.137
MS.5           	34.5           	8.145
MS.6           	34.5           	8.177
MS.7           	34.5           	8.121
MS.8           	34.5           	8.147
MS.9           	34.5           	8.351
MS.10          	34.5           	8.383
MS.11          	34.5           	8.186
MS.12          	34.5           	8.103
MS.13          	34.5           	8.169
MS.14          	34.5           	8.22
MS.15          	34.5           	8.157
MS.16          	34.5           	8.067
MS.17          	34.5           	8.163
MS.18          	34.5           	8.097
MS.19          	34.5           	8.111
MS.20          	34.5           	8.059
MS.21          	34.5           	8.079
MS.22          	34.5           	7.988
MS.23          	34.362         	8.063
MS.24          	34.292         	8.198
MS.25          	34.225         	7.954
MS.26          	34.157         	8.061
MS.27          	34.087         	8.028
MS.28          	34.02          	8.02
MS.29          	33.952         	7.986
MS.30          	33.885         	7.998
MS.31          	33.818         	8.022
MS.32          	33.75          	7.994
MS.33          	33.682         	8.008
MS.34          	33.615         	7.968
MS.35          	33.548         	7.972
MS.36          	33.48          	7.984
MS.37          	33.412         	7.938
MS.38          	33.347         	7.938
MS.39          	33.28          	8.117
MS.40          	33.212         	7.988
MS.41          	33.147         	7.964
MS.42          	33.08          	7.988
MS.43          	33.015         	7.934
MS.44          	32.95          	7.958
MS.45          	32.882         	7.978
MS.46          	32.818         	7.867
MS.47          	32.752         	7.96
MS.48          	32.688         	7.986
MS.49          	32.62          	8.01
MS.50          	32.555         	7.988
MS.51          	32.49          	8
MS.52          	32.425         	8.022
MS.53          	32.36          	7.962
MS.54          	32.298         	7.918
MS.55          	32.232         	7.934
MS.56          	32.167         	7.855
MS.57          	32.103         	7.916
MS.58          	32.04          	7.887
MS.59          	31.975         	7.865
MS.60          	31.91          	7.863
MS.61          	31.847         	7.881
MS.62          	31.782         	7.688
MS.63          	31.72          	7.748
MS.64          	31.657         	7.787
MS.65          	31.592         	7.763
MS.66          	31.53          	7.809
MS.67          	31.467         	7.789
MS.68          	31.405         	7.803
MS.69          	31.342         	7.636
MS.70          	31.28          	7.841
MS.71          	31.217         	7.861
MS.72          	31.155         	7.771
MS.73          	31.092         	7.688
MS.74          	31.03          	7.664
MS.75          	30.967         	7.815
MS.76          	30.905         	7.644
MS.77          	30.845         	7.855
MS.78          	30.782         	7.748
MS.79          	30.722         	7.748
MS.80          	30.66          	7.837
MS.81          	30.597         	7.946
MS.82          	30.537         	7.789
MS.83          	30.477         	7.855
MS.84          	30.415         	7.769
MS.85          	30.355         	7.906
MS.86          	30.295         	7.833
MS.87          	30.233         	7.65
MS.88          	30.172         	7.777
MS.89          	30.112         	7.755
MS.90          	30.052         	7.789
MS.91          	29.992         	7.243
MS.92          	29.932         	7.644
MS.93          	29.872         	7.545
MS.94          	29.812         	7.39
MS.95          	29.755         	7.513
MS.96          	29.695         	7.716
MS.97          	29.635         	7.732
MS.98          	29.575         	7.69
MS.99          	29.517         	7.813
MS.100         	29.457         	7.755
MS.101         	29.4           	7.724
MS.102         	29.34          	7.712
MS.103         	29.282         	7.426
MS.104         	29.222         	7.744
MS.105         	29.165         	7.938
MS.106         	29.108         	7.658
MS.107         	29.047         	7.702
MS.108         	28.99          	7.692
MS.109         	28.932         	7.69
MS.110         	28.875         	7.614
MS.111         	28.817         	7.612
MS.112         	28.76          	7.569
MS.113         	28.702         	7.626
MS.114         	28.645         	7.595
MS.115         	28.587         	7.458
MS.116         	28.53          	7.458
MS.117         	28.472         	7.424
MS.118         	28.415         	7.336
MS.119         	28.36          	7.539
MS.120         	28.302         	7.491
MS.121         	28.245         	7.529
MS.122         	28.19          	7.43
MS.123         	28.132         	7.473
MS.124         	28.077         	7.517
MS.125         	28.02          	7.511
MS.126         	27.965         	7.511
MS.127         	27.91          	7.507
MS.128         	27.852         	7.364
MS.129         	27.797         	7.368
MS.130         	27.743         	7.422
MS.131         	27.688         	7.396
MS.132         	27.632         	7.269
MS.133         	27.577         	7.344
MS.134         	27.52          	7.342
MS.135         	27.465         	7.35
MS.136         	27.412         	7.293
MS.137         	27.358         	7.267
MS.138         	27.302         	7.239
MS.139         	27.247         	7.182
MS.140         	27.192         	7.104
MS.141         	27.137         	7.064
MS.142         	27.085         	7.185
MS.143         	27.03          	7.07
MS.144         	26.975         	7.211
MS.145         	26.922         	7.118
MS.146         	26.868         	7.142
MS.147         	26.815         	7.14
MS.148         	26.762         	7.178
MS.149         	26.707         	7.07
MS.150         	26.655         	6.981
MS.151         	26.6           	7.058
MS.152         	26.547         	7.096
MS.153         	26.495         	7.08
MS.154         	26.442         	6.909
MS.155         	26.39          	6.768
MS.156         	26.337         	6.691
MS.157         	26.285         	6.725
MS.158         	26.233         	6.749
MS.159         	26.18          	6.84
MS.160         	26.127         	6.735
MS.161         	26.075         	6.721
MS.162         	26.022         	6.719
MS.163         	25.97          	6.683
MS.164         	25.917         	6.643
MS.165         	25.868         	6.683
MS.166         	25.815         	6.665
MS.167         	25.762         	6.689
MS.168         	25.712         	6.653
MS.169         	25.66          	6.669
MS.170         	25.61          	6.685
MS.171         	25.557         	6.596
MS.172         	25.507         	6.635
MS.173         	25.455         	6.532
MS.174         	25.405         	6.574
MS.175         	25.355         	6.61
MS.176         	25.305         	6.53
MS.177         	25.252         	6.56
MS.178         	25.202         	6.496
MS.179         	25.153         	6.576
MS.180         	25.102         	6.465
MS.181         	25.052         	6.457
MS.182         	25.002         	6.482
MS.183         	24.952         	6.443
MS.184         	24.903         	6.397
MS.185         	24.852         	6.403
MS.186         	24.802         	6.423
MS.187         	24.752         	6.385
MS.188         	24.705         	6.367
MS.189         	24.655         	6.355
MS.190         	24.605         	6.405
MS.191         	24.555         	6.351
MS.192         	24.507         	6.294
MS.193         	24.457         	6.282
MS.194         	24.41          	6.326
MS.195         	24.36          	6.294
MS.196         	24.312         	6.2
MS.197         	24.262         	6.133
MS.198         	24.215         	6.139
MS.199         	24.165         	6.214
MS.200         	24.118         	6.173
MS.201         	24.07          	6.089
MS.202         	24.022         	6.19
MS.203         	23.972         	5.946
MS.204         	23.925         	6.145
MS.205         	23.877         	5.988
MS.206         	23.83          	6.008
MS.207         	23.782         	6.014
MS.208         	23.735         	5.908
MS.209         	23.688         	5.807
MS.210         	23.64          	5.899
MS.211         	23.592         	5.825
MS.212         	23.545         	5.698
MS.213         	23.5           	5.714
MS.214         	23.452         	5.688
MS.215         	23.405         	5.585
MS.216         	23.358         	5.563
MS.217         	23.312         	5.686
MS.218         	23.265         	5.744
MS.219         	23.217         	5.515
MS.220         	23.172         	5.662
MS.221         	23.125         	5.557
MS.222         	23.08          	5.527
MS.223         	23.032         	5.509
MS.224         	22.987         	5.509
MS.225         	22.942         	5.477
MS.226         	22.895         	5.315
MS.227         	22.85          	5.382
MS.228         	22.805         	5.38
MS.229         	22.76          	5.38
MS.230         	22.712         	5.336
MS.231         	22.667         	5.277
MS.232         	22.622         	5.366
MS.233         	22.577         	5.358
MS.234         	22.532         	5.323
MS.235         	22.487         	5.148
MS.236         	22.442         	5.229
MS.237         	22.397         	5.178
MS.238         	22.352         	5.156
MS.239         	22.307         	5.134
MS.240         	22.262         	5.023
MS.241         	22.22          	4.979
MS.242         	22.175         	4.89
MS.243         	22.13          	5.017
MS.244         	22.085         	4.878
MS.245         	22.042         	4.747
MS.246         	21.997         	4.973
MS.247         	21.955         	4.86
MS.248         	21.91          	4.937
MS.249         	21.868         	4.818
MS.250         	21.823         	4.802
MS.251         	21.78          	4.663
MS.252         	21.735         	4.693
MS.253         	21.692         	4.725
MS.254         	21.65          	4.633
MS.255         	21.605         	4.598
MS.256         	21.562         	4.546
MS.257         	21.52          	4.554
MS.258         	21.477         	4.697
MS.259         	21.432         	4.776
MS.260         	21.39          	4.669
MS.261         	21.347         	4.574
MS.262         	21.305         	4.417
MS.263         	21.262         	4.274
MS.264         	21.22          	4.459
MS.265         	21.177         	4.236
MS.266         	21.135         	4.195
MS.267         	21.092         	4.222
MS.268         	21.05          	4.103
MS.269         	21.01          	4.242
MS.270         	20.967         	3.938
MS.271         	20.925         	3.911
MS.272         	20.882         	4.081
MS.273         	20.842         	3.98
MS.274         	20.8           	3.968
MS.275         	20.757         	4.04
MS.276         	20.717         	3.809
MS.277         	20.675         	3.823
MS.278         	20.635         	4.014
MS.279         	20.592         	3.905
MS.280         	20.552         	3.938
MS.281         	20.51          	3.764
MS.282         	20.47          	3.726
MS.283         	20.43          	3.704
MS.284         	20.387         	3.585
MS.285         	20.347         	3.682
MS.286         	20.307         	3.654
MS.287         	20.265         	3.543
MS.288         	20.225         	3.692
MS.289         	20.185         	3.412
MS.290         	20.145         	3.335
MS.291         	20.105         	3.339
MS.292         	20.065         	3.374
MS.293         	20.025         	3.241
MS.294         	19.985         	3.358
MS.295         	19.945         	3.356
MS.296         	19.905         	3.428
MS.297         	19.865         	3.203
MS.298         	19.825         	3.376
MS.299         	19.785         	3.229
MS.300         	19.745         	3.273
MS.301         	19.708         	3.176
MS.302         	19.667         	3.194
MS.303         	19.627         	3.138
MS.304         	19.587         	3.11
MS.305         	19.55          	3.1
MS.306         	19.51          	3.134
MS.307         	19.472         	2.987
MS.308         	19.432         	2.993
MS.309         	19.395         	2.967
MS.310         	19.355         	2.927
MS.311         	19.317         	2.8
MS.312         	19.278         	2.947
MS.313         	19.24          	2.902
MS.314         	19.2           	2.794
MS.315         	19.163         	2.604
MS.316         	19.125         	2.88
MS.317         	19.085         	2.786
MS.318         	19.047         	2.745
MS.319         	19.01          	2.753
MS.320         	18.972         	2.876
MS.321         	18.935         	2.681
MS.322         	18.895         	2.55
MS.323         	18.858         	2.29
MS.324         	18.82          	2.316
MS.325         	18.782         	2.49
MS.326         	18.745         	2.516
MS.327         	18.708         	2.483
MS.328         	18.67          	2.431
MS.329         	18.632         	2.453
MS.330         	18.595         	2.415
MS.331         	18.56          	2.266
MS.332         	18.522         	2.369
MS.333         	18.485         	2.332
MS.334         	18.448         	2.296
MS.335         	18.41          	2.153
MS.336         	18.375         	2.262
MS.337         	18.337         	2.193
MS.338         	18.3           	2.197
MS.339         	18.265         	2.21
MS.340         	18.227         	2.234
MS.341         	18.192         	2.163
MS.342         	18.155         	2.141
MS.343         	18.12          	2.103
MS.344         	18.083         	2.038
MS.345         	18.047         	2.099
MS.346         	18.01          	2.048
MS.347         	17.975         	1.986
MS.348         	17.938         	1.952
MS.349         	17.903         	1.944
MS.350         	17.868         	1.913
MS.351         	17.833         	1.958
MS.352         	17.795         	1.895
MS.353         	17.76          	1.873
MS.354         	17.725         	1.841
MS.355         	17.69          	1.835
MS.356         	17.655         	1.702
MS.357         	17.618         	1.754
MS.358         	17.583         	1.849
MS.359         	17.547         	1.503
MS.360         	17.512         	1.732
MS.361         	17.477         	1.746
MS.362         	17.442         	1.7
MS.363         	17.407         	1.756
MS.364         	17.372         	1.714
MS.365         	17.34          	1.752
MS.366         	17.305         	1.694
MS.367         	17.27          	1.629
MS.368         	17.235         	1.706
MS.369         	17.2           	1.658
MS.370         	17.167         	1.642
MS.371         	17.132         	1.666
MS.372         	17.097         	1.668
MS.373         	17.062         	1.635
MS.374         	17.03          	1.617
MS.375         	16.995         	1.577
MS.376         	16.962         	1.529
MS.377         	16.927         	1.603
MS.378         	16.895         	1.515
MS.379         	16.86          	1.569
MS.380         	16.827         	1.553
MS.381         	16.792         	1.519
MS.382         	16.76          	1.468
MS.383         	16.725         	1.416
MS.384         	16.692         	1.442
MS.385         	16.66          	1.398
MS.386         	16.625         	1.398
MS.387         	16.592         	1.408
MS.388         	16.56          	1.364
MS.389         	16.528         	1.384
MS.390         	16.493         	1.239
MS.391         	16.46          	1.343
MS.392         	16.427         	1.331
MS.393         	16.395         	1.291
MS.394         	16.362         	1.287
MS.395         	16.33          	1.243
MS.396         	16.297         	1.277
MS.397         	16.265         	1.271
MS.398         	16.233         	1.319
MS.399         	16.2           	1.446
MS.400         	16.167         	1.144
MS.401         	16.135         	1.206
MS.402         	16.102         	1.16
MS.403         	16.07          	1.126
MS.404         	16.038         	1.194
MS.405         	16.005         	1.11
MS.406         	15.975         	1.126
MS.407         	15.943         	1.148
MS.408         	15.91          	1.1
MS.409         	15.877         	1.116
MS.410         	15.847         	1.065
MS.411         	15.815         	1.082
MS.412         	15.782         	1.057
MS.413         	15.752         	1.019
MS.414         	15.72          	1.061
MS.415         	15.69          	0.951
MS.416         	15.657         	1.007
MS.417         	15.627         	0.973
MS.418         	15.595         	0.876
MS.419         	15.565         	0.969
MS.420         	15.532         	0.912
MS.421         	15.502         	0.922
MS.422         	15.47          	0.959
MS.423         	15.44          	0.864
MS.424         	15.41          	0.832
MS.425         	15.377         	0.888
MS.426         	15.347         	0.818
MS.427         	15.318         	0.792
MS.428         	15.287         	0.846
MS.429         	15.255         	0.8
MS.430         	15.225         	0.747
MS.431         	15.195         	0.743
MS.432         	15.165         	0.727
MS.433         	15.135         	0.796
MS.434         	15.105         	0.765
MS.435         	15.075         	0.663
MS.436         	15.042         	0.655
MS.437         	15.012         	0.671
MS.438         	14.983         	0.663
MS.439         	14.952         	0.675
MS.440         	14.925         	0.669
MS.441         	14.895         	0.576
MS.442         	14.865         	0.667
MS.443         	14.835         	0.618
MS.444         	14.805         	0.612
MS.445         	14.775         	0.578
MS.446         	14.745         	0.606
MS.447         	14.717         	0.564
MS.448         	14.688         	0.586
MS.449         	14.657         	0.548
MS.450         	14.627         	0.57
MS.451         	14.6           	0.536
MS.452         	14.57          	0.504
MS.453         	14.54          	0.516
MS.454         	14.512         	0.526
MS.455         	14.483         	0.502
MS.456         	14.455         	0.506
MS.457         	14.425         	0.493
MS.458         	14.395         	0.471
MS.459         	14.367         	0.475
MS.460         	14.337         	0.443
MS.461         	14.31          	0.429
MS.462         	14.282         	0.441
MS.463         	14.252         	0.443
MS.464         	14.225         	0.469
MS.465         	14.195         	0.411
MS.466         	14.167         	0.381
MS.467         	14.14          	0.423
MS.468         	14.11          	0.399
MS.469         	14.082         	0.383
MS.470         	14.055         	0.379
MS.471         	14.028         	0.363
MS.472         	13.997         	0.276
MS.473         	13.97          	0.296
MS.474         	13.943         	0.365
MS.475         	13.915         	0.318
MS.476         	13.887         	0.326
MS.477         	13.86          	0.33
MS.478         	13.832         	0.3
MS.479         	13.805         	0.357
MS.480         	13.778         	0.373
MS.481         	13.75          	0.302
MS.482         	13.722         	0.284
MS.483         	13.695         	0.284
MS.484         	13.667         	0.3
MS.485         	13.64          	0.274
MS.486         	13.612         	0.34
MS.487         	13.585         	0.286
MS.488         	13.557         	0.28
MS.489         	13.53          	0.266
MS.490         	13.502         	0.248
MS.491         	13.477         	0.272
MS.492         	13.45          	0.272
MS.493         	13.422         	0.262
MS.494         	13.395         	0.254
MS.495         	13.37          	0.262
MS.496         	13.342         	0.264
MS.497         	13.315         	0.238
MS.498         	13.29          	0.232
MS.499         	13.262         	0.246
MS.500         	13.235         	0.244
