File:              	C:\Qtrac\Data\Daniel M Sørensen\MScan multicentre study\Data from centres\Oulu\Processed data\OUHC01024C.QZD
Name:              	FL.OUL.NC.1.1
Protocol:          	MSCAN-R2
Date:              	24/10/20
Start time:        	12:12:54
Age:               	21
Sex:               	M
Temperature:       	34,1
S/R sites:         	TA
NC/disease:        	NC
Operator:          	MK
Comments:
M-SCAN DATA (1.4-0.0m)
Scanpts: 262, 272, 948, 953
Stim. (mA)     	Amp. (mV)
MS.1           	10.5           	8.165
MS.2           	10.5           	8.177
MS.3           	10.48          	8.163
MS.4           	10.457         	8.141
MS.5           	10.438         	8.188
MS.6           	10.417         	8.107
MS.7           	10.395         	8.089
MS.8           	10.375         	8.145
MS.9           	10.355         	8.107
MS.10          	10.332         	8.18
MS.11          	10.312         	8.23
MS.12          	10.292         	8.206
MS.13          	10.273         	8.256
MS.14          	10.25          	8.202
MS.15          	10.23          	8.238
MS.16          	10.21          	8.208
MS.17          	10.19          	8.218
MS.18          	10.17          	8.202
MS.19          	10.15          	8.278
MS.20          	10.127         	8.206
MS.21          	10.108         	8.139
MS.22          	10.087         	8.157
MS.23          	10.068         	8.151
MS.24          	10.047         	8.113
MS.25          	10.028         	8.117
MS.26          	10.007         	8.127
MS.27          	9.988          	8.137
MS.28          	9.967          	8.137
MS.29          	9.948          	8.153
MS.30          	9.927          	8.139
MS.31          	9.907          	8.107
MS.32          	9.887          	8.119
MS.33          	9.87           	8.119
MS.34          	9.85           	8.093
MS.35          	9.83           	8.097
MS.36          	9.81           	8.075
MS.37          	9.79           	8.115
MS.38          	9.77           	8.071
MS.39          	9.75           	8.065
MS.40          	9.733          	8.097
MS.41          	9.712          	8.051
MS.42          	9.693          	8.133
MS.43          	9.672          	8.099
MS.44          	9.655          	8.103
MS.45          	9.635          	8.095
MS.46          	9.615          	8.109
MS.47          	9.597          	8.083
MS.48          	9.577          	8.073
MS.49          	9.557          	8.065
MS.50          	9.54           	8.113
MS.51          	9.52           	8.061
MS.52          	9.5            	8.063
MS.53          	9.483          	8.083
MS.54          	9.462          	8.117
MS.55          	9.445          	8.073
MS.56          	9.425          	8.018
MS.57          	9.407          	8.008
MS.58          	9.387          	8.093
MS.59          	9.367          	8.111
MS.60          	9.35           	8.045
MS.61          	9.332          	8.077
MS.62          	9.312          	8.083
MS.63          	9.295          	8.071
MS.64          	9.275          	8.081
MS.65          	9.257          	8.087
MS.66          	9.238          	8.103
MS.67          	9.22           	8.103
MS.68          	9.202          	8.123
MS.69          	9.182          	8.081
MS.70          	9.165          	8.071
MS.71          	9.148          	8.101
MS.72          	9.127          	8.143
MS.73          	9.11           	8.081
MS.74          	9.092          	8.119
MS.75          	9.073          	8.097
MS.76          	9.055          	8.131
MS.77          	9.037          	8.067
MS.78          	9.02           	8.093
MS.79          	9.002          	8.069
MS.80          	8.983          	8.077
MS.81          	8.965          	8.053
MS.82          	8.948          	8.097
MS.83          	8.93           	8.063
MS.84          	8.912          	8.085
MS.85          	8.895          	8.087
MS.86          	8.875          	8.091
MS.87          	8.858          	8.095
MS.88          	8.84           	8.079
MS.89          	8.823          	8.113
MS.90          	8.805          	8.123
MS.91          	8.787          	8.113
MS.92          	8.77           	8.099
MS.93          	8.752          	8.069
MS.94          	8.735          	8.087
MS.95          	8.717          	8.089
MS.96          	8.7            	8.125
MS.97          	8.682          	8.107
MS.98          	8.665          	8.071
MS.99          	8.648          	8.036
MS.100         	8.63           	8.119
MS.101         	8.615          	8.115
MS.102         	8.597          	8.095
MS.103         	8.58           	8.101
MS.104         	8.562          	8.129
MS.105         	8.545          	8.143
MS.106         	8.528          	8.099
MS.107         	8.51           	8.049
MS.108         	8.495          	8.071
MS.109         	8.477          	8.103
MS.110         	8.46           	8.075
MS.111         	8.443          	8.059
MS.112         	8.427          	8.071
MS.113         	8.41           	8.077
MS.114         	8.392          	8.051
MS.115         	8.375          	8.113
MS.116         	8.36           	8.091
MS.117         	8.342          	8.085
MS.118         	8.325          	8.018
MS.119         	8.31           	8.113
MS.120         	8.292          	8.077
MS.121         	8.275          	8.095
MS.122         	8.26           	8.075
MS.123         	8.242          	8.111
MS.124         	8.227          	8.103
MS.125         	8.21           	8.069
MS.126         	8.195          	8.105
MS.127         	8.177          	8.063
MS.128         	8.16           	8.089
MS.129         	8.145          	8.093
MS.130         	8.127          	8.129
MS.131         	8.113          	8.065
MS.132         	8.095          	8.075
MS.133         	8.08           	8.067
MS.134         	8.062          	8.093
MS.135         	8.047          	8.059
MS.136         	8.033          	8.099
MS.137         	8.015          	8.055
MS.138         	8              	8.061
MS.139         	7.982          	8.079
MS.140         	7.967          	8.083
MS.141         	7.952          	8.061
MS.142         	7.935          	8.115
MS.143         	7.92           	8.155
MS.144         	7.905          	8.101
MS.145         	7.887          	8.115
MS.146         	7.872          	8.151
MS.147         	7.857          	8.117
MS.148         	7.84           	8.093
MS.149         	7.825          	8.139
MS.150         	7.81           	8.101
MS.151         	7.795          	8.077
MS.152         	7.777          	8.093
MS.153         	7.762          	8.097
MS.154         	7.747          	8.091
MS.155         	7.732          	8.069
MS.156         	7.717          	8.026
MS.157         	7.7            	8.085
MS.158         	7.685          	8.093
MS.159         	7.67           	8.115
MS.160         	7.655          	8.083
MS.161         	7.64           	8.067
MS.162         	7.625          	8.093
MS.163         	7.61           	8.022
MS.164         	7.595          	8.129
MS.165         	7.58           	8.077
MS.166         	7.565          	8.043
MS.167         	7.547          	8.077
MS.168         	7.532          	8.153
MS.169         	7.517          	8.071
MS.170         	7.503          	8.129
MS.171         	7.487          	8.111
MS.172         	7.472          	8.063
MS.173         	7.457          	8.129
MS.174         	7.442          	8.093
MS.175         	7.43           	8.063
MS.176         	7.415          	8.089
MS.177         	7.4            	8.083
MS.178         	7.385          	8.093
MS.179         	7.37           	8.119
MS.180         	7.355          	8.071
MS.181         	7.34           	8.014
MS.182         	7.325          	8.034
MS.183         	7.31           	8.097
MS.184         	7.297          	8.014
MS.185         	7.282          	8.041
MS.186         	7.267          	8.059
MS.187         	7.253          	8.049
MS.188         	7.237          	8.061
MS.189         	7.225          	8.107
MS.190         	7.21           	8.071
MS.191         	7.195          	8.057
MS.192         	7.18           	8.024
MS.193         	7.165          	8.099
MS.194         	7.152          	8.065
MS.195         	7.137          	8.069
MS.196         	7.122          	8.055
MS.197         	7.11           	8.085
MS.198         	7.095          	8.036
MS.199         	7.08           	8.059
MS.200         	7.067          	8.077
MS.201         	7.052          	8.097
MS.202         	7.037          	8.089
MS.203         	7.025          	8.053
MS.204         	7.01           	8.087
MS.205         	6.997          	8.077
MS.206         	6.983          	8.107
MS.207         	6.967          	8.063
MS.208         	6.955          	8.097
MS.209         	6.94           	8.087
MS.210         	6.927          	8.063
MS.211         	6.912          	8.119
MS.212         	6.9            	8.117
MS.213         	6.885          	8.01
MS.214         	6.872          	8.061
MS.215         	6.858          	8.061
MS.216         	6.845          	8.071
MS.217         	6.83           	8.117
MS.218         	6.817          	8.061
MS.219         	6.802          	8.051
MS.220         	6.79           	8.069
MS.221         	6.775          	8.067
MS.222         	6.762          	8.117
MS.223         	6.75           	8.077
MS.224         	6.735          	8.071
MS.225         	6.722          	8.034
MS.226         	6.707          	8.137
MS.227         	6.695          	8.103
MS.228         	6.682          	8.087
MS.229         	6.668          	8.194
MS.230         	6.655          	8.175
MS.231         	6.642          	8.133
MS.232         	6.628          	8.077
MS.233         	6.615          	8.131
MS.234         	6.602          	8.087
MS.235         	6.59           	8.163
MS.236         	6.575          	8.141
MS.237         	6.562          	8.091
MS.238         	6.55           	8.053
MS.239         	6.537          	8.123
MS.240         	6.523          	8.137
MS.241         	6.51           	8.135
MS.242         	6.497          	8.151
MS.243         	6.485          	8.161
MS.244         	6.472          	8.085
MS.245         	6.457          	8.165
MS.246         	6.445          	8.123
MS.247         	6.432          	8.123
MS.248         	6.42           	8.202
MS.249         	6.407          	8.151
MS.250         	6.395          	8.141
MS.251         	6.382          	8.051
MS.252         	6.367          	8.111
MS.253         	6.355          	8.153
MS.254         	6.342          	8.192
MS.255         	6.33           	8.103
MS.256         	6.317          	8.149
MS.257         	6.305          	8.133
MS.258         	6.293          	8.129
MS.259         	6.28           	8.143
MS.260         	6.267          	8.163
MS.261         	6.255          	8.093
MS.262         	6.242          	8.139
MS.263         	6.23           	8.091
MS.264         	6.217          	8.133
MS.265         	6.205          	8.161
MS.266         	6.192          	8.139
MS.267         	6.18           	8.099
MS.268         	6.168          	8.141
MS.269         	6.155          	8.077
MS.270         	6.142          	8.135
MS.271         	6.13           	8.161
MS.272         	6.12           	8.155
MS.273         	6.108          	8.135
MS.274         	6.095          	8.135
MS.275         	6.082          	8.157
MS.276         	6.07           	8.147
MS.277         	6.057          	8.101
MS.278         	6.045          	8.155
MS.279         	6.035          	8.129
MS.280         	6.023          	8.103
MS.281         	6.01           	8.089
MS.282         	5.997          	8.087
MS.283         	5.985          	8.065
MS.284         	5.972          	8.067
MS.285         	5.963          	8.077
MS.286         	5.95           	8.069
MS.287         	5.938          	8.051
MS.288         	5.925          	8.081
MS.289         	5.915          	8.103
MS.290         	5.902          	8.079
MS.291         	5.89           	8.107
MS.292         	5.88           	8.095
MS.293         	5.867          	8.149
MS.294         	5.855          	8.167
MS.295         	5.845          	8.077
MS.296         	5.832          	8.163
MS.297         	5.82           	8.107
MS.298         	5.81           	8.071
MS.299         	5.797          	8.073
MS.300         	5.785          	8.083
MS.301         	5.775          	8.061
MS.302         	5.762          	8.103
MS.303         	5.75           	8.095
MS.304         	5.74           	8.129
MS.305         	5.727          	8.01
MS.306         	5.717          	8.071
MS.307         	5.705          	8.075
MS.308         	5.695          	8.036
MS.309         	5.682          	8.024
MS.310         	5.67           	8.057
MS.311         	5.66           	8.111
MS.312         	5.648          	8.067
MS.313         	5.637          	8.073
MS.314         	5.625          	8.089
MS.315         	5.615          	8.055
MS.316         	5.602          	8.085
MS.317         	5.592          	8.051
MS.318         	5.58           	8.051
MS.319         	5.57           	8.065
MS.320         	5.56           	8.008
MS.321         	5.547          	8.014
MS.322         	5.537          	8.053
MS.323         	5.525          	8.036
MS.324         	5.515          	8.012
MS.325         	5.503          	8.039
MS.326         	5.492          	8.081
MS.327         	5.483          	7.912
MS.328         	5.47           	7.998
MS.329         	5.46           	7.91
MS.330         	5.447          	8.057
MS.331         	5.438          	8.014
MS.332         	5.427          	8.047
MS.333         	5.415          	8.004
MS.334         	5.405          	8.004
MS.335         	5.395          	8
MS.336         	5.382          	7.994
MS.337         	5.372          	8.008
MS.338         	5.362          	8.004
MS.339         	5.352          	8.03
MS.340         	5.34           	8.045
MS.341         	5.33           	7.998
MS.342         	5.32           	7.998
MS.343         	5.31           	8.014
MS.344         	5.297          	8.032
MS.345         	5.287          	7.936
MS.346         	5.277          	8.041
MS.347         	5.267          	7.976
MS.348         	5.255          	8.014
MS.349         	5.245          	8.004
MS.350         	5.235          	8.004
MS.351         	5.225          	8.039
MS.352         	5.215          	8.02
MS.353         	5.202          	8.036
MS.354         	5.193          	8.016
MS.355         	5.182          	8.039
MS.356         	5.172          	7.936
MS.357         	5.162          	8.018
MS.358         	5.152          	8.041
MS.359         	5.142          	7.964
MS.360         	5.132          	8.006
MS.361         	5.12           	7.986
MS.362         	5.11           	8.01
MS.363         	5.1            	7.972
MS.364         	5.09           	8.004
MS.365         	5.08           	8.016
MS.366         	5.07           	7.982
MS.367         	5.06           	8.081
MS.368         	5.05           	8.036
MS.369         	5.04           	8.039
MS.370         	5.03           	7.988
MS.371         	5.02           	7.97
MS.372         	5.01           	7.99
MS.373         	5              	7.996
MS.374         	4.99           	7.996
MS.375         	4.98           	8.014
MS.376         	4.97           	7.986
MS.377         	4.96           	8.034
MS.378         	4.95           	7.99
MS.379         	4.94           	8.006
MS.380         	4.93           	7.978
MS.381         	4.92           	8.036
MS.382         	4.91           	8.024
MS.383         	4.9            	8.026
MS.384         	4.89           	7.994
MS.385         	4.88           	7.988
MS.386         	4.872          	8.043
MS.387         	4.862          	8.008
MS.388         	4.852          	7.964
MS.389         	4.842          	7.966
MS.390         	4.832          	8.008
MS.391         	4.822          	7.98
MS.392         	4.812          	7.99
MS.393         	4.802          	8.016
MS.394         	4.795          	8
MS.395         	4.785          	7.956
MS.396         	4.775          	7.966
MS.397         	4.765          	7.968
MS.398         	4.755          	8.006
MS.399         	4.747          	7.99
MS.400         	4.737          	8.051
MS.401         	4.727          	8.01
MS.402         	4.717          	7.958
MS.403         	4.707          	8
MS.404         	4.7            	8.008
MS.405         	4.69           	8.026
MS.406         	4.68           	7.964
MS.407         	4.67           	7.97
MS.408         	4.662          	7.996
MS.409         	4.652          	7.93
MS.410         	4.642          	7.946
MS.411         	4.635          	7.966
MS.412         	4.625          	7.974
MS.413         	4.615          	7.942
MS.414         	4.605          	7.898
MS.415         	4.597          	7.928
MS.416         	4.588          	7.906
MS.417         	4.577          	7.908
MS.418         	4.57           	7.928
MS.419         	4.56           	7.849
MS.420         	4.55           	7.956
MS.421         	4.543          	7.68
MS.422         	4.532          	7.624
MS.423         	4.525          	7.823
MS.424         	4.515          	7.765
MS.425         	4.505          	7.626
MS.426         	4.497          	7.636
MS.427         	4.487          	7.706
MS.428         	4.48           	7.603
MS.429         	4.47           	7.748
MS.430         	4.46           	7.547
MS.431         	4.452          	7.535
MS.432         	4.443          	7.672
MS.433         	4.435          	7.626
MS.434         	4.425          	7.519
MS.435         	4.418          	7.493
MS.436         	4.407          	7.557
MS.437         	4.4            	7.654
MS.438         	4.39           	7.555
MS.439         	4.382          	7.579
MS.440         	4.372          	7.599
MS.441         	4.365          	7.567
MS.442         	4.355          	7.686
MS.443         	4.347          	7.599
MS.444         	4.338          	7.471
MS.445         	4.33           	7.487
MS.446         	4.32           	7.412
MS.447         	4.312          	7.503
MS.448         	4.302          	7.404
MS.449         	4.295          	7.595
MS.450         	4.285          	7.628
MS.451         	4.277          	7.614
MS.452         	4.27           	7.436
MS.453         	4.26           	7.442
MS.454         	4.253          	7.412
MS.455         	4.242          	7.563
MS.456         	4.235          	7.529
MS.457         	4.227          	7.376
MS.458         	4.217          	7.471
MS.459         	4.21           	7.507
MS.460         	4.2            	7.321
MS.461         	4.193          	7.519
MS.462         	4.185          	7.452
MS.463         	4.175          	7.442
MS.464         	4.168          	7.426
MS.465         	4.16           	7.334
MS.466         	4.15           	7.279
MS.467         	4.142          	7.398
MS.468         	4.135          	7.41
MS.469         	4.128          	7.444
MS.470         	4.117          	7.422
MS.471         	4.11           	7.412
MS.472         	4.102          	7.34
MS.473         	4.092          	7.303
MS.474         	4.085          	7.221
MS.475         	4.077          	7.223
MS.476         	4.07           	7.291
MS.477         	4.06           	7.199
MS.478         	4.052          	7.241
MS.479         	4.045          	7.239
MS.480         	4.037          	7.152
MS.481         	4.027          	7.217
MS.482         	4.02           	7.307
MS.483         	4.012          	7.326
MS.484         	4.005          	7.176
MS.485         	3.997          	7.118
MS.486         	3.987          	7.13
MS.487         	3.98           	7.174
MS.488         	3.972          	7.096
MS.489         	3.965          	7.168
MS.490         	3.957          	7.225
MS.491         	3.947          	7.084
MS.492         	3.94           	7.066
MS.493         	3.932          	7.146
MS.494         	3.925          	7.164
MS.495         	3.918          	7.118
MS.496         	3.91           	7.031
MS.497         	3.902          	7.193
MS.498         	3.895          	7.021
MS.499         	3.885          	7.195
MS.500         	3.877          	7.162
MS.501         	3.87           	7.019
