File:              	C:\Qtrac\Data\Daniel M Sørensen\MScan multicentre study\Data from centres\Oulu\Processed data\OUHC01101A.QZD
Name:              	FL.OUL.NC.1.2
Protocol:          	MSCAN-R2
Date:              	1/11/20
Start time:        	15:49:43
Age:               	21
Sex:               	M
Temperature:       	34,4
S/R sites:         	APB
NC/disease:        	NC
Operator:          	MK
Comments:
M-SCAN DATA (0.9-0.0m)
Scanpts: 92, 99, 380, 385
Stim. (mA)     	Amp. (mV)
MS.1           	19             	7.591
MS.2           	18.962         	7.597
MS.3           	18.925         	7.581
MS.4           	18.887         	7.607
MS.5           	18.847         	7.601
MS.6           	18.81          	7.634
MS.7           	18.772         	7.642
MS.8           	18.735         	7.622
MS.9           	18.698         	7.601
MS.10          	18.66          	7.591
MS.11          	18.625         	7.579
MS.12          	18.587         	7.571
MS.13          	18.55          	7.569
MS.14          	18.512         	7.581
MS.15          	18.475         	7.575
MS.16          	18.438         	7.581
MS.17          	18.403         	7.583
MS.18          	18.365         	7.591
MS.19          	18.327         	7.591
MS.20          	18.292         	7.593
MS.21          	18.255         	7.597
MS.22          	18.217         	7.581
MS.23          	18.182         	7.593
MS.24          	18.145         	7.603
MS.25          	18.11          	7.603
MS.26          	18.073         	7.589
MS.27          	18.038         	7.599
MS.28          	18             	7.593
MS.29          	17.965         	7.605
MS.30          	17.93          	7.601
MS.31          	17.892         	7.607
MS.32          	17.858         	7.609
MS.33          	17.823         	7.614
MS.34          	17.788         	7.616
MS.35          	17.75          	7.614
MS.36          	17.715         	7.597
MS.37          	17.68          	7.614
MS.38          	17.645         	7.636
MS.39          	17.61          	7.626
MS.40          	17.575         	7.616
MS.41          	17.54          	7.607
MS.42          	17.505         	7.622
MS.43          	17.47          	7.603
MS.44          	17.435         	7.607
MS.45          	17.4           	7.603
MS.46          	17.365         	7.607
MS.47          	17.33          	7.603
MS.48          	17.295         	7.599
MS.49          	17.26          	7.607
MS.50          	17.227         	7.614
MS.51          	17.192         	7.622
MS.52          	17.157         	7.624
MS.53          	17.122         	7.626
MS.54          	17.09          	7.622
MS.55          	17.055         	7.632
MS.56          	17.02          	7.63
MS.57          	16.987         	7.626
MS.58          	16.952         	7.634
MS.59          	16.92          	7.644
MS.60          	16.885         	7.64
MS.61          	16.852         	7.646
MS.62          	16.817         	7.656
MS.63          	16.785         	7.638
MS.64          	16.75          	7.638
MS.65          	16.717         	7.636
MS.66          	16.685         	7.638
MS.67          	16.65          	7.642
MS.68          	16.618         	7.648
MS.69          	16.585         	7.652
MS.70          	16.55          	7.646
MS.71          	16.517         	7.644
MS.72          	16.485         	7.64
MS.73          	16.452         	7.644
MS.74          	16.42          	7.642
MS.75          	16.385         	7.646
MS.76          	16.352         	7.64
MS.77          	16.32          	7.658
MS.78          	16.288         	7.658
MS.79          	16.255         	7.66
MS.80          	16.222         	7.664
MS.81          	16.19          	7.662
MS.82          	16.157         	7.64
MS.83          	16.125         	7.658
MS.84          	16.095         	7.674
MS.85          	16.062         	7.646
MS.86          	16.03          	7.678
MS.87          	15.997         	7.636
MS.88          	15.965         	7.656
MS.89          	15.932         	7.688
MS.90          	15.902         	7.686
MS.91          	15.87          	7.678
MS.92          	15.837         	7.698
MS.93          	15.807         	7.678
MS.94          	15.775         	7.672
MS.95          	15.742         	7.676
MS.96          	15.712         	7.686
MS.97          	15.68          	7.682
MS.98          	15.65          	7.68
MS.99          	15.617         	7.686
MS.100         	15.587         	7.704
MS.101         	15.555         	7.694
MS.102         	15.525         	7.664
MS.103         	15.495         	7.718
MS.104         	15.462         	7.718
MS.105         	15.432         	7.7
MS.106         	15.4           	7.67
MS.107         	15.37          	7.712
MS.108         	15.34          	7.696
MS.109         	15.31          	7.694
MS.110         	15.277         	7.722
MS.111         	15.247         	7.734
MS.112         	15.217         	7.69
MS.113         	15.188         	7.644
MS.114         	15.157         	7.65
MS.115         	15.127         	7.702
MS.116         	15.095         	7.638
MS.117         	15.065         	7.616
MS.118         	15.035         	7.746
MS.119         	15.005         	7.626
MS.120         	14.975         	7.62
MS.121         	14.945         	7.702
MS.122         	14.915         	7.644
MS.123         	14.887         	7.561
MS.124         	14.858         	7.63
MS.125         	14.827         	7.69
MS.126         	14.797         	7.65
MS.127         	14.767         	7.557
MS.128         	14.737         	7.652
MS.129         	14.707         	7.662
MS.130         	14.68          	7.607
MS.131         	14.65          	7.487
MS.132         	14.62          	7.507
MS.133         	14.592         	7.473
MS.134         	14.562         	7.515
MS.135         	14.532         	7.497
MS.136         	14.505         	7.515
MS.137         	14.475         	7.521
MS.138         	14.447         	7.469
MS.139         	14.417         	7.485
MS.140         	14.387         	7.452
MS.141         	14.36          	7.497
MS.142         	14.33          	7.452
MS.143         	14.302         	7.36
MS.144         	14.275         	7.471
MS.145         	14.245         	7.348
MS.146         	14.217         	7.297
MS.147         	14.188         	7.15
MS.148         	14.16          	7.428
MS.149         	14.132         	7.321
MS.150         	14.102         	7.412
MS.151         	14.075         	7.06
MS.152         	14.047         	7.037
MS.153         	14.02          	7.182
MS.154         	13.992         	7.128
MS.155         	13.962         	7.247
MS.156         	13.935         	7.205
MS.157         	13.907         	7.203
MS.158         	13.88          	7.166
MS.159         	13.852         	6.681
MS.160         	13.825         	7.06
MS.161         	13.797         	7.187
MS.162         	13.77          	7.124
MS.163         	13.742         	6.915
MS.164         	13.715         	6.953
MS.165         	13.688         	6.945
MS.166         	13.66          	6.8
MS.167         	13.632         	6.737
MS.168         	13.605         	6.679
MS.169         	13.577         	6.532
MS.170         	13.55          	6.975
MS.171         	13.523         	6.246
MS.172         	13.497         	6.431
MS.173         	13.47          	6.532
MS.174         	13.443         	6.629
MS.175         	13.415         	6.093
MS.176         	13.39          	6.171
MS.177         	13.362         	6.56
MS.178         	13.335         	6.353
MS.179         	13.31          	6.238
MS.180         	13.282         	6.457
MS.181         	13.255         	6.01
MS.182         	13.23          	6.175
MS.183         	13.202         	6.014
MS.184         	13.177         	6.077
MS.185         	13.15          	6.23
MS.186         	13.125         	5.815
MS.187         	13.097         	6.073
MS.188         	13.072         	5.895
MS.189         	13.045         	5.948
MS.190         	13.02          	5.714
MS.191         	12.992         	5.827
MS.192         	12.967         	5.791
MS.193         	12.943         	5.748
MS.194         	12.915         	5.724
MS.195         	12.89          	5.843
MS.196         	12.865         	5.787
MS.197         	12.837         	5.257
MS.198         	12.812         	5.537
MS.199         	12.787         	5.803
MS.200         	12.762         	5.66
MS.201         	12.735         	5.658
MS.202         	12.71          	5.424
MS.203         	12.685         	5.503
MS.204         	12.66          	5.374
MS.205         	12.635         	5.056
MS.206         	12.61          	5.168
MS.207         	12.585         	5.269
MS.208         	12.56          	4.721
MS.209         	12.535         	5.037
MS.210         	12.51          	4.973
MS.211         	12.485         	4.872
MS.212         	12.46          	4.981
MS.213         	12.435         	4.776
MS.214         	12.41          	4.405
MS.215         	12.385         	4.389
MS.216         	12.36          	4.381
MS.217         	12.335         	4.167
MS.218         	12.31          	4.306
MS.219         	12.285         	4.189
MS.220         	12.26          	4.012
MS.221         	12.238         	4.109
MS.222         	12.212         	4.54
MS.223         	12.188         	3.813
MS.224         	12.162         	4.065
MS.225         	12.14          	4.028
MS.226         	12.115         	3.98
MS.227         	12.09          	3.984
MS.228         	12.068         	3.511
MS.229         	12.042         	3.897
MS.230         	12.017         	3.76
MS.231         	11.995         	3.775
MS.232         	11.97          	3.213
MS.233         	11.947         	3.442
MS.234         	11.922         	3.424
MS.235         	11.9           	3.152
MS.236         	11.875         	3.482
MS.237         	11.852         	3.277
MS.238         	11.827         	2.959
MS.239         	11.805         	2.969
MS.240         	11.78          	2.917
MS.241         	11.757         	3.076
MS.242         	11.733         	2.947
MS.243         	11.71          	2.878
MS.244         	11.688         	2.852
MS.245         	11.662         	2.866
MS.246         	11.64          	2.512
MS.247         	11.617         	2.673
MS.248         	11.592         	2.58
MS.249         	11.57          	2.55
MS.250         	11.547         	2.469
MS.251         	11.525         	2.439
MS.252         	11.5           	2.371
MS.253         	11.477         	2.427
MS.254         	11.455         	2.487
MS.255         	11.432         	2.155
MS.256         	11.41          	2.079
MS.257         	11.387         	2.304
MS.258         	11.365         	2.052
MS.259         	11.34          	2.139
MS.260         	11.318         	2.286
MS.261         	11.295         	1.924
MS.262         	11.273         	2.175
MS.263         	11.25          	1.805
MS.264         	11.227         	1.861
MS.265         	11.205         	1.958
MS.266         	11.182         	1.44
MS.267         	11.16          	1.722
MS.268         	11.14          	1.805
MS.269         	11.117         	1.466
MS.270         	11.095         	1.619
MS.271         	11.073         	1.674
MS.272         	11.05          	1.698
MS.273         	11.028         	1.583
MS.274         	11.005         	1.301
MS.275         	10.985         	1.398
MS.276         	10.962         	1.38
MS.277         	10.94          	1.291
MS.278         	10.917         	1.333
MS.279         	10.898         	1.356
MS.280         	10.875         	1.251
MS.281         	10.852         	1.349
MS.282         	10.832         	1.192
MS.283         	10.81          	1.219
MS.284         	10.787         	1.13
MS.285         	10.767         	1.07
MS.286         	10.745         	1.225
MS.287         	10.722         	0.981
MS.288         	10.702         	1.108
MS.289         	10.68          	1.051
MS.290         	10.66          	1.013
MS.291         	10.637         	0.894
MS.292         	10.617         	0.931
MS.293         	10.595         	0.848
MS.294         	10.575         	0.931
MS.295         	10.552         	0.739
MS.296         	10.532         	0.721
MS.297         	10.51          	1.001
MS.298         	10.49          	0.733
MS.299         	10.47          	0.765
MS.300         	10.448         	0.638
MS.301         	10.427         	0.514
MS.302         	10.407         	0.558
MS.303         	10.385         	0.673
MS.304         	10.365         	0.691
MS.305         	10.345         	0.657
MS.306         	10.323         	0.711
MS.307         	10.302         	0.675
MS.308         	10.282         	0.332
MS.309         	10.262         	0.497
MS.310         	10.242         	0.538
MS.311         	10.22          	0.348
MS.312         	10.2           	0.493
MS.313         	10.18          	0.32
MS.314         	10.16          	0.373
MS.315         	10.14          	0.282
MS.316         	10.12          	0.387
MS.317         	10.1           	0.375
MS.318         	10.08          	0.205
MS.319         	10.057         	0.139
MS.320         	10.037         	0.276
MS.321         	10.017         	0.451
MS.322         	9.997          	0.312
MS.323         	9.977          	0.115
MS.324         	9.957          	0.232
MS.325         	9.938          	0.244
MS.326         	9.92           	0.322
MS.327         	9.9            	0.125
MS.328         	9.88           	0.117
MS.329         	9.86           	0.085
MS.330         	9.84           	0.062
MS.331         	9.82           	0.131
MS.332         	9.8            	0.121
MS.333         	9.78           	0.046
MS.334         	9.762          	0.111
MS.335         	9.742          	0.064
MS.336         	9.722          	0.006
MS.337         	9.702          	0.034
MS.338         	9.682          	0.004
MS.339         	9.665          	0.085
MS.340         	9.645          	0.091
MS.341         	9.625          	0.143
MS.342         	9.608          	0.05
MS.343         	9.587          	0.07
MS.344         	9.568          	0.056
MS.345         	9.55           	-0.01
MS.346         	9.53           	-0.018
MS.347         	9.51           	-0.004
MS.348         	9.492          	0.062
MS.349         	9.472          	0.016
MS.350         	9.455          	0.016
MS.351         	9.435          	0.01
MS.352         	9.417          	0.01
MS.353         	9.398          	-0.036
MS.354         	9.377          	-0.014
MS.355         	9.36           	0.016
MS.356         	9.34           	-0.038
MS.357         	9.323          	-0.026
MS.358         	9.305          	-0.02
MS.359         	9.285          	-0.032
MS.360         	9.267          	-0.034
MS.361         	9.247          	0.004
MS.362         	9.23           	-0.032
MS.363         	9.212          	0.01
MS.364         	9.193          	-0.018
MS.365         	9.175          	-0.038
MS.366         	9.158          	-0.032
MS.367         	9.137          	-0.028
MS.368         	9.12           	-0.036
MS.369         	9.102          	-0.034
MS.370         	9.082          	0.004
MS.371         	9.065          	-0.032
MS.372         	9.047          	-0.032
MS.373         	9.03           	-0.032
MS.374         	9.01           	-0.034
MS.375         	8.992          	-0.024
MS.376         	8.975          	-0.024
MS.377         	8.957          	-0.032
MS.378         	8.94           	-0.028
MS.379         	8.922          	-0.024
MS.380         	8.903          	-0.028
MS.381         	8.885          	-0.032
MS.382         	8.867          	-0.02
MS.383         	8.85           	-0.008
MS.384         	8.832          	-0.026
MS.385         	8.815          	-0.026
MS.386         	8.797          	-0.024
MS.387         	8.78           	-0.022
MS.388         	8.762          	-0.022
MS.389         	8.745          	-0.02
MS.390         	8.727          	-0.024
MS.391         	8.71           	-0.016
MS.392         	8.693          	-0.014
MS.393         	8.675          	-0.018
MS.394         	8.658          	-0.004
MS.395         	8.64           	-0.016
MS.396         	8.622          	-0.012
MS.397         	8.605          	-0.004
MS.398         	8.587          	-0.02
MS.399         	8.573          	-0.02
MS.400         	8.555          	-0.014
MS.401         	8.537          	-0.014
MS.402         	8.52           	-0.006
MS.403         	8.502          	-0.014
MS.404         	8.485          	-0.016
MS.405         	8.47           	-0.012
MS.406         	8.452          	0.000
MS.407         	8.435          	-0.002
MS.408         	8.417          	-0.018
MS.409         	8.403          	-0.02
MS.410         	8.385          	0.008
MS.411         	8.367          	-0.018
MS.412         	8.352          	0.016
MS.413         	8.335          	0.002
MS.414         	8.318          	0.004
MS.415         	8.302          	0.004
MS.416         	8.285          	0.002
MS.417         	8.267          	-0.006
MS.418         	8.252          	0.008
MS.419         	8.235          	0.01
MS.420         	8.22           	0.02
MS.421         	8.202          	0.01
MS.422         	8.185          	0.014
MS.423         	8.17           	0.002
MS.424         	8.153          	0.01
MS.425         	8.137          	0.016
MS.426         	8.12           	0.014
MS.427         	8.105          	0.002
MS.428         	8.087          	0.026
MS.429         	8.073          	-0.002
MS.430         	8.055          	0.012
MS.431         	8.04           	-0.02
MS.432         	8.025          	-0.018
MS.433         	8.007          	0.018
MS.434         	7.992          	-0.022
MS.435         	7.975          	0.026
MS.436         	7.96           	0.018
MS.437         	7.945          	0.018
MS.438         	7.927          	-0.008
MS.439         	7.912          	-0.014
MS.440         	7.898          	-0.014
MS.441         	7.88           	-0.01
MS.442         	7.865          	-0.006
MS.443         	7.85           	-0.01
MS.444         	7.832          	-0.014
MS.445         	7.817          	-0.008
MS.446         	7.802          	-0.006
MS.447         	7.787          	-0.01
MS.448         	7.773          	-0.002
MS.449         	7.755          	0.000
MS.450         	7.74           	-0.008
MS.451         	7.725          	-0.002
MS.452         	7.71           	0.002
MS.453         	7.695          	0.002
MS.454         	7.677          	0.000
MS.455         	7.662          	0.000
MS.456         	7.648          	0.000
MS.457         	7.632          	-0.006
MS.458         	7.617          	0.000
MS.459         	7.602          	0.002
MS.460         	7.587          	0.000
MS.461         	7.572          	0.002
MS.462         	7.557          	0.006
MS.463         	7.543          	0.002
MS.464         	7.527          	-0.004
MS.465         	7.512          	0.004
MS.466         	7.497          	0.002
MS.467         	7.482          	0.004
MS.468         	7.467          	0.006
MS.469         	7.452          	0.008
MS.470         	7.438          	0.008
MS.471         	7.422          	0.000
MS.472         	7.407          	0.004
MS.473         	7.392          	0.008
MS.474         	7.378          	0.014
MS.475         	7.362          	0.008
MS.476         	7.347          	0.004
MS.477         	7.332          	0.006
MS.478         	7.317          	0.01
MS.479         	7.305          	0.01
MS.480         	7.29           	0.01
MS.481         	7.275          	0.01
MS.482         	7.26           	0.014
MS.483         	7.245          	0.018
MS.484         	7.233          	0.028
MS.485         	7.217          	0.016
MS.486         	7.202          	0.018
MS.487         	7.188          	0.016
MS.488         	7.175          	0.014
MS.489         	7.16           	0.014
MS.490         	7.145          	0.016
MS.491         	7.13           	0.01
MS.492         	7.117          	0.01
MS.493         	7.102          	0.022
MS.494         	7.087          	0.022
MS.495         	7.075          	0.018
MS.496         	7.06           	0.02
MS.497         	7.045          	0.03
MS.498         	7.032          	0.02
MS.499         	7.017          	0.032
MS.500         	7.003          	0.032
