File:              	C:\Qtrac\Data\Daniel M Sørensen\MScan multicentre study\Data from centres\Oulu\Processed data\OUHC01119E.QZD
Name:              	FL.OUL.NC.4.2
Protocol:          	MSCAN-R2
Date:              	19/11/20
Start time:        	14:15:39
Age:               	75
Sex:               	F
Temperature:       	33,2
S/R sites:         	ADM
NC/disease:        	NC
Operator:          	MK
Comments:
M-SCAN DATA (5-0.0m)
Scanpts: 2, 11, 501, 515
Stim. (mA)     	Amp. (mV)
MS.1           	30             	7.321
MS.2           	29.88          	7.317
MS.3           	29.82          	7.332
MS.4           	29.76          	7.299
MS.5           	29.702         	7.293
MS.6           	29.642         	7.307
MS.7           	29.582         	7.279
MS.8           	29.522         	7.257
MS.9           	29.465         	7.164
MS.10          	29.405         	7.185
MS.11          	29.347         	7.313
MS.12          	29.287         	7.267
MS.13          	29.23          	7.293
MS.14          	29.172         	7.311
MS.15          	29.112         	7.285
MS.16          	29.055         	7.154
MS.17          	28.997         	7.265
MS.18          	28.94          	7.189
MS.19          	28.882         	7.213
MS.20          	28.823         	7.233
MS.21          	28.765         	7.299
MS.22          	28.707         	7.245
MS.23          	28.65          	7.287
MS.24          	28.595         	7.187
MS.25          	28.537         	7.187
MS.26          	28.48          	7.203
MS.27          	28.422         	7.18
MS.28          	28.365         	7.205
MS.29          	28.31          	7.227
MS.30          	28.252         	7.219
MS.31          	28.198         	7.207
MS.32          	28.14          	7.231
MS.33          	28.085         	7.239
MS.34          	28.028         	7.195
MS.35          	27.972         	7.146
MS.36          	27.915         	7.16
MS.37          	27.86          	7.203
MS.38          	27.805         	7.203
MS.39          	27.75          	7.197
MS.40          	27.692         	7.116
MS.41          	27.637         	7.126
MS.42          	27.582         	7.118
MS.43          	27.528         	7.082
MS.44          	27.472         	7.106
MS.45          	27.417         	7.146
MS.46          	27.362         	7.104
MS.47          	27.307         	7.178
MS.48          	27.255         	7.122
MS.49          	27.2           	7.174
MS.50          	27.145         	7.162
MS.51          	27.09          	7.152
MS.52          	27.037         	7.152
MS.53          	26.983         	7.025
MS.54          	26.927         	7.062
MS.55          	26.875         	7.052
MS.56          	26.82          	7.078
MS.57          	26.767         	7.088
MS.58          	26.715         	7.062
MS.59          	26.66          	7.044
MS.60          	26.608         	6.991
MS.61          	26.555         	7.039
MS.62          	26.502         	7.255
MS.63          	26.448         	7.09
MS.64          	26.395         	7.178
MS.65          	26.342         	7.064
MS.66          	26.29          	7.114
MS.67          	26.237         	7.052
MS.68          	26.185         	6.993
MS.69          	26.132         	7.056
MS.70          	26.08          	6.925
MS.71          	26.028         	6.903
MS.72          	25.977         	6.961
MS.73          	25.925         	6.955
MS.74          	25.872         	6.923
MS.75          	25.82          	6.981
MS.76          	25.77          	6.977
MS.77          	25.717         	6.991
MS.78          	25.667         	6.939
MS.79          	25.615         	7.021
MS.80          	25.565         	6.927
MS.81          	25.512         	6.925
MS.82          	25.462         	6.85
MS.83          	25.413         	6.943
MS.84          	25.36          	6.959
MS.85          	25.31          	6.919
MS.86          	25.26          	6.727
MS.87          	25.21          	6.886
MS.88          	25.157         	6.78
MS.89          	25.108         	6.719
MS.90          	25.057         	6.949
MS.91          	25.007         	6.794
MS.92          	24.957         	6.627
MS.93          	24.907         	6.594
MS.94          	24.858         	6.655
MS.95          	24.807         	6.651
MS.96          	24.76          	6.675
MS.97          	24.71          	6.592
MS.98          	24.66          	6.59
MS.99          	24.61          	6.568
MS.100         	24.562         	6.566
MS.101         	24.512         	6.683
MS.102         	24.465         	6.586
MS.103         	24.415         	6.554
MS.104         	24.365         	6.548
MS.105         	24.317         	6.562
MS.106         	24.27          	6.387
MS.107         	24.22          	6.524
MS.108         	24.172         	6.328
MS.109         	24.122         	6.502
MS.110         	24.075         	6.449
MS.111         	24.028         	6.246
MS.112         	23.98          	6.185
MS.113         	23.932         	6.063
MS.114         	23.882         	6.216
MS.115         	23.835         	6.04
MS.116         	23.788         	5.889
MS.117         	23.74          	6.206
MS.118         	23.692         	6.022
MS.119         	23.645         	5.952
MS.120         	23.597         	5.821
MS.121         	23.552         	5.873
MS.122         	23.505         	5.845
MS.123         	23.457         	5.837
MS.124         	23.41          	5.863
MS.125         	23.365         	5.859
MS.126         	23.317         	5.865
MS.127         	23.27          	5.835
MS.128         	23.225         	5.871
MS.129         	23.177         	5.765
MS.130         	23.132         	5.942
MS.131         	23.085         	5.893
MS.132         	23.04          	5.803
MS.133         	22.993         	5.787
MS.134         	22.948         	5.73
MS.135         	22.903         	5.738
MS.136         	22.855         	5.712
MS.137         	22.81          	5.72
MS.138         	22.765         	5.708
MS.139         	22.72          	5.714
MS.140         	22.672         	5.688
MS.141         	22.627         	5.644
MS.142         	22.582         	5.511
MS.143         	22.538         	5.281
MS.144         	22.493         	5.565
MS.145         	22.448         	5.416
MS.146         	22.403         	5.327
MS.147         	22.358         	5.207
MS.148         	22.312         	5.368
MS.149         	22.27          	5.402
MS.150         	22.225         	5.182
MS.151         	22.18          	5.17
MS.152         	22.135         	5.243
MS.153         	22.092         	5.313
MS.154         	22.047         	5.199
MS.155         	22.002         	5.146
MS.156         	21.96          	4.983
MS.157         	21.915         	4.866
MS.158         	21.872         	4.763
MS.159         	21.827         	4.677
MS.160         	21.785         	4.449
MS.161         	21.74          	4.717
MS.162         	21.698         	4.57
MS.163         	21.655         	4.78
MS.164         	21.61          	5.047
MS.165         	21.567         	4.83
MS.166         	21.525         	4.86
MS.167         	21.483         	4.719
MS.168         	21.438         	4.812
MS.169         	21.395         	4.741
MS.170         	21.352         	4.776
MS.171         	21.31          	4.753
MS.172         	21.267         	4.705
MS.173         	21.225         	4.735
MS.174         	21.182         	4.721
MS.175         	21.14          	4.755
MS.176         	21.097         	4.604
MS.177         	21.055         	4.741
MS.178         	21.015         	4.582
MS.179         	20.972         	4.518
MS.180         	20.93          	4.584
MS.181         	20.887         	4.496
MS.182         	20.847         	4.435
MS.183         	20.805         	4.576
MS.184         	20.762         	4.343
MS.185         	20.722         	4.363
MS.186         	20.68          	4.328
MS.187         	20.64          	4.31
MS.188         	20.597         	4.038
MS.189         	20.557         	4.119
MS.190         	20.515         	4.097
MS.191         	20.475         	4.093
MS.192         	20.435         	4.026
MS.193         	20.392         	3.996
MS.194         	20.352         	4.103
MS.195         	20.312         	4.057
MS.196         	20.27          	3.869
MS.197         	20.23          	3.928
MS.198         	20.19          	3.877
MS.199         	20.15          	3.922
MS.200         	20.11          	3.92
MS.201         	20.07          	3.867
MS.202         	20.03          	3.771
MS.203         	19.99          	3.901
MS.204         	19.95          	3.821
MS.205         	19.91          	3.875
MS.206         	19.87          	3.795
MS.207         	19.83          	3.595
MS.208         	19.79          	3.658
MS.209         	19.75          	3.509
MS.210         	19.712         	3.73
MS.211         	19.672         	3.527
MS.212         	19.632         	3.583
MS.213         	19.592         	3.547
MS.214         	19.555         	3.416
MS.215         	19.515         	3.408
MS.216         	19.475         	3.348
MS.217         	19.438         	3.098
MS.218         	19.397         	3.182
MS.219         	19.36          	3.084
MS.220         	19.32          	2.969
MS.221         	19.282         	3.166
MS.222         	19.245         	3.07
MS.223         	19.205         	2.975
MS.224         	19.167         	2.747
MS.225         	19.13          	2.763
MS.226         	19.09          	2.961
MS.227         	19.052         	2.822
MS.228         	19.015         	2.854
MS.229         	18.977         	2.671
MS.230         	18.938         	2.854
MS.231         	18.9           	2.5
MS.232         	18.862         	2.651
MS.233         	18.825         	2.794
MS.234         	18.788         	2.562
MS.235         	18.75          	2.455
MS.236         	18.712         	2.451
MS.237         	18.675         	2.508
MS.238         	18.637         	2.373
MS.239         	18.6           	2.234
MS.240         	18.562         	2.272
MS.241         	18.528         	2.284
MS.242         	18.49          	2.23
MS.243         	18.452         	2.282
MS.244         	18.415         	2.33
MS.245         	18.378         	2.05
MS.246         	18.342         	2.159
MS.247         	18.305         	1.96
MS.248         	18.27          	2.014
MS.249         	18.233         	1.958
MS.250         	18.195         	1.98
MS.251         	18.16          	2.075
MS.252         	18.122         	2.026
MS.253         	18.087         	1.843
MS.254         	18.05          	1.694
MS.255         	18.015         	1.843
MS.256         	17.98          	1.662
MS.257         	17.942         	1.682
MS.258         	17.907         	1.603
MS.259         	17.87          	1.569
MS.260         	17.835         	1.601
MS.261         	17.8           	1.545
MS.262         	17.765         	1.607
MS.263         	17.73          	1.533
MS.264         	17.692         	1.49
MS.265         	17.657         	1.416
MS.266         	17.622         	1.372
MS.267         	17.587         	1.488
MS.268         	17.552         	1.343
MS.269         	17.517         	1.317
MS.270         	17.483         	1.354
MS.271         	17.448         	1.392
MS.272         	17.413         	1.279
MS.273         	17.378         	1.321
MS.274         	17.342         	1.291
MS.275         	17.307         	1.331
MS.276         	17.275         	1.295
MS.277         	17.24          	1.178
MS.278         	17.205         	1.303
MS.279         	17.17          	1.104
MS.280         	17.135         	1.275
MS.281         	17.102         	1.11
MS.282         	17.067         	1.074
MS.283         	17.032         	1.088
MS.284         	17             	1.176
MS.285         	16.965         	1.027
MS.286         	16.932         	1.041
MS.287         	16.897         	0.985
MS.288         	16.865         	0.927
MS.289         	16.83          	1.005
MS.290         	16.797         	0.941
MS.291         	16.762         	0.854
MS.292         	16.73          	0.888
MS.293         	16.698         	0.82
MS.294         	16.663         	0.969
MS.295         	16.63          	0.886
MS.296         	16.597         	0.727
MS.297         	16.562         	0.781
MS.298         	16.53          	0.788
MS.299         	16.497         	0.733
MS.300         	16.465         	0.788
MS.301         	16.432         	0.84
MS.302         	16.397         	0.665
MS.303         	16.365         	0.814
MS.304         	16.333         	0.655
MS.305         	16.3           	0.56
MS.306         	16.267         	0.576
MS.307         	16.235         	0.55
MS.308         	16.202         	0.495
MS.309         	16.17          	0.534
MS.310         	16.137         	0.504
MS.311         	16.105         	0.522
MS.312         	16.075         	0.497
MS.313         	16.042         	0.512
MS.314         	16.01          	0.467
MS.315         	15.977         	0.439
MS.316         	15.945         	0.461
MS.317         	15.915         	0.441
MS.318         	15.882         	0.463
MS.319         	15.85          	0.479
MS.320         	15.818         	0.427
MS.321         	15.787         	0.417
MS.322         	15.755         	0.419
MS.323         	15.725         	0.449
MS.324         	15.693         	0.395
MS.325         	15.662         	0.421
MS.326         	15.63          	0.403
MS.327         	15.6           	0.369
MS.328         	15.568         	0.393
MS.329         	15.537         	0.361
MS.330         	15.505         	0.352
MS.331         	15.475         	0.389
MS.332         	15.443         	0.383
MS.333         	15.412         	0.348
MS.334         	15.382         	0.379
MS.335         	15.35          	0.35
MS.336         	15.32          	0.352
MS.337         	15.29          	0.346
MS.338         	15.26          	0.326
MS.339         	15.23          	0.361
MS.340         	15.197         	0.292
MS.341         	15.167         	0.328
MS.342         	15.137         	0.32
MS.343         	15.108         	0.306
MS.344         	15.077         	0.278
MS.345         	15.047         	0.234
MS.346         	15.017         	0.314
MS.347         	14.987         	0.27
MS.348         	14.957         	0.264
MS.349         	14.927         	0.268
MS.350         	14.898         	0.32
MS.351         	14.867         	0.224
MS.352         	14.837         	0.211
MS.353         	14.807         	0.216
MS.354         	14.78          	0.258
MS.355         	14.75          	0.201
MS.356         	14.72          	0.207
MS.357         	14.69          	0.228
MS.358         	14.66          	0.197
MS.359         	14.632         	0.216
MS.360         	14.602         	0.264
MS.361         	14.572         	0.216
MS.362         	14.545         	0.234
MS.363         	14.515         	0.246
MS.364         	14.485         	0.062
MS.365         	14.457         	0.181
MS.366         	14.427         	0.216
MS.367         	14.4           	0.101
MS.368         	14.37          	0.175
MS.369         	14.342         	0.199
MS.370         	14.312         	0.066
MS.371         	14.285         	0.187
MS.372         	14.255         	0.073
MS.373         	14.227         	0.052
MS.374         	14.2           	0.177
MS.375         	14.17          	0.066
MS.376         	14.142         	0.052
MS.377         	14.115         	0.06
MS.378         	14.085         	0.06
MS.379         	14.057         	0.048
MS.380         	14.03          	0.052
MS.381         	14.002         	0.056
MS.382         	13.975         	0.058
MS.383         	13.945         	0.058
MS.384         	13.917         	0.058
MS.385         	13.89          	0.052
MS.386         	13.862         	0.056
MS.387         	13.835         	0.052
MS.388         	13.807         	0.058
MS.389         	13.78          	0.062
MS.390         	13.752         	0.054
MS.391         	13.725         	0.058
MS.392         	13.697         	0.054
MS.393         	13.67          	0.056
MS.394         	13.642         	0.06
MS.395         	13.615         	0.052
MS.396         	13.587         	0.056
MS.397         	13.56          	0.058
MS.398         	13.535         	0.062
MS.399         	13.507         	0.052
MS.400         	13.48          	0.056
MS.401         	13.452         	0.056
MS.402         	13.425         	0.05
MS.403         	13.4           	0.058
MS.404         	13.372         	0.052
MS.405         	13.345         	0.066
MS.406         	13.32          	0.058
MS.407         	13.292         	0.062
MS.408         	13.265         	0.054
MS.409         	13.24          	0.062
MS.410         	13.212         	0.056
MS.411         	13.188         	0.058
MS.412         	13.16          	0.062
MS.413         	13.135         	0.06
MS.414         	13.108         	0.056
MS.415         	13.082         	0.06
MS.416         	13.055         	0.064
MS.417         	13.03          	0.056
MS.418         	13.002         	0.06
MS.419         	12.977         	0.062
MS.420         	12.952         	0.058
MS.421         	12.925         	0.062
MS.422         	12.9           	0.06
MS.423         	12.875         	0.064
MS.424         	12.847         	0.058
MS.425         	12.822         	0.052
MS.426         	12.797         	0.062
MS.427         	12.77          	0.056
MS.428         	12.745         	0.06
MS.429         	12.72          	0.064
MS.430         	12.695         	0.056
MS.431         	12.67          	0.054
MS.432         	12.645         	0.06
MS.433         	12.62          	0.058
MS.434         	12.592         	0.05
MS.435         	12.568         	0.054
MS.436         	12.542         	0.062
MS.437         	12.517         	0.056
MS.438         	12.492         	0.05
MS.439         	12.467         	0.056
MS.440         	12.443         	0.06
MS.441         	12.417         	0.064
MS.442         	12.395         	0.05
MS.443         	12.37          	0.056
MS.444         	12.345         	0.054
MS.445         	12.32          	0.058
MS.446         	12.295         	0.056
MS.447         	12.27          	0.042
MS.448         	12.245         	0.058
MS.449         	12.222         	0.052
MS.450         	12.197         	0.054
MS.451         	12.172         	0.054
MS.452         	12.148         	0.058
MS.453         	12.125         	0.04
MS.454         	12.1           	0.046
MS.455         	12.075         	0.04
MS.456         	12.052         	0.044
MS.457         	12.028         	0.044
MS.458         	12.002         	0.038
MS.459         	11.98          	0.046
MS.460         	11.955         	0.042
MS.461         	11.932         	0.048
MS.462         	11.907         	0.04
MS.463         	11.885         	0.048
MS.464         	11.86          	0.044
MS.465         	11.837         	0.046
MS.466         	11.812         	0.046
MS.467         	11.79          	0.046
MS.468         	11.765         	0.044
MS.469         	11.742         	0.04
MS.470         	11.72          	0.042
MS.471         	11.695         	0.048
MS.472         	11.672         	0.048
MS.473         	11.648         	0.042
MS.474         	11.625         	0.042
MS.475         	11.602         	0.044
MS.476         	11.58          	0.044
MS.477         	11.555         	0.042
MS.478         	11.532         	0.048
MS.479         	11.51          	0.042
MS.480         	11.488         	0.048
MS.481         	11.465         	0.046
MS.482         	11.44          	0.042
MS.483         	11.417         	0.048
MS.484         	11.395         	0.048
MS.485         	11.372         	0.04
MS.486         	11.35          	0.042
MS.487         	11.327         	0.05
MS.488         	11.305         	0.044
MS.489         	11.282         	0.04
MS.490         	11.26          	0.048
MS.491         	11.238         	0.042
MS.492         	11.215         	0.046
MS.493         	11.193         	0.048
MS.494         	11.17          	0.042
MS.495         	11.148         	0.05
MS.496         	11.125         	0.046
MS.497         	11.102         	0.044
MS.498         	11.08          	0.044
MS.499         	11.057         	0.046
MS.500         	11.037         	0.048
MS.501         	11.015         	0.044
