File:              	C:\Qtrac\Data\Daniel M Sørensen\MScan multicentre study\Data from centres\Oulu\Processed data\OUHC01030H.QZD
Name:              	FL.OUL.NC.4.1
Protocol:          	MSCAN-R2
Date:              	30/10/20
Start time:        	13:20:03
Age:               	75
Sex:               	F
Temperature:       	34,2
S/R sites:         	ADM
NC/disease:        	NC
Operator:          	MK
Comments:
M-SCAN DATA (3.1-0.0m)
Scanpts: 2, 8, 507, 555
Stim. (mA)     	Amp. (mV)
MS.1           	25.5           	6.755
MS.2           	25.5           	6.866
MS.3           	25.397         	6.86
MS.4           	25.347         	6.753
MS.5           	25.297         	6.82
MS.6           	25.245         	6.854
MS.7           	25.195         	6.872
MS.8           	25.145         	6.729
MS.9           	25.095         	6.784
MS.10          	25.045         	6.723
MS.11          	24.995         	6.651
MS.12          	24.945         	6.685
MS.13          	24.895         	6.689
MS.14          	24.845         	6.816
MS.15          	24.795         	6.608
MS.16          	24.747         	6.651
MS.17          	24.698         	6.691
MS.18          	24.647         	6.617
MS.19          	24.597         	6.806
MS.20          	24.55          	6.685
MS.21          	24.5           	6.711
MS.22          	24.45          	6.717
MS.23          	24.403         	6.681
MS.24          	24.352         	6.619
MS.25          	24.305         	6.54
MS.26          	24.257         	6.631
MS.27          	24.207         	6.659
MS.28          	24.16          	6.546
MS.29          	24.11          	6.655
MS.30          	24.062         	6.721
MS.31          	24.015         	6.615
MS.32          	23.967         	6.627
MS.33          	23.92          	6.617
MS.34          	23.87          	6.647
MS.35          	23.823         	6.687
MS.36          	23.775         	6.615
MS.37          	23.727         	6.675
MS.38          	23.68          	6.5
MS.39          	23.632         	6.558
MS.40          	23.587         	6.645
MS.41          	23.54          	6.6
MS.42          	23.493         	6.516
MS.43          	23.445         	6.506
MS.44          	23.397         	6.465
MS.45          	23.352         	6.441
MS.46          	23.305         	6.463
MS.47          	23.257         	6.486
MS.48          	23.212         	6.439
MS.49          	23.165         	6.61
MS.50          	23.12          	6.51
MS.51          	23.073         	6.407
MS.52          	23.028         	6.467
MS.53          	22.98          	6.31
MS.54          	22.935         	6.405
MS.55          	22.89          	6.389
MS.56          	22.842         	6.482
MS.57          	22.797         	6.349
MS.58          	22.752         	6.294
MS.59          	22.707         	6.192
MS.60          	22.663         	6.328
MS.61          	22.618         	6.27
MS.62          	22.57          	6.25
MS.63          	22.525         	6.065
MS.64          	22.48          	6.077
MS.65          	22.435         	5.982
MS.66          	22.392         	5.952
MS.67          	22.347         	5.924
MS.68          	22.302         	5.96
MS.69          	22.257         	6.016
MS.70          	22.212         	5.795
MS.71          	22.167         	5.928
MS.72          	22.125         	5.664
MS.73          	22.08          	5.644
MS.74          	22.035         	5.769
MS.75          	21.993         	5.634
MS.76          	21.948         	5.72
MS.77          	21.905         	5.597
MS.78          	21.86          	5.674
MS.79          	21.817         	5.452
MS.80          	21.772         	5.654
MS.81          	21.73          	5.47
MS.82          	21.685         	5.396
MS.83          	21.642         	5.503
MS.84          	21.6           	5.4
MS.85          	21.557         	5.346
MS.86          	21.512         	5.358
MS.87          	21.47          	5.279
MS.88          	21.427         	5.11
MS.89          	21.385         	5.263
MS.90          	21.342         	5.293
MS.91          	21.3           	5.138
MS.92          	21.257         	5.178
MS.93          	21.215         	5.096
MS.94          	21.172         	5.114
MS.95          	21.13          	5.017
MS.96          	21.087         	5.074
MS.97          	21.045         	5.597
MS.98          	21.002         	5.088
MS.99          	20.96          	5.227
MS.100         	20.92          	5.19
MS.101         	20.877         	5.613
MS.102         	20.835         	5.346
MS.103         	20.795         	5.209
MS.104         	20.752         	5.215
MS.105         	20.71          	5.146
MS.106         	20.67          	5.213
MS.107         	20.627         	5.019
MS.108         	20.587         	5.213
MS.109         	20.545         	5.18
MS.110         	20.505         	4.953
MS.111         	20.465         	5.039
MS.112         	20.422         	5.045
MS.113         	20.382         	4.943
MS.114         	20.342         	5.08
MS.115         	20.3           	4.921
MS.116         	20.26          	4.9
MS.117         	20.22          	4.987
MS.118         	20.18          	4.951
MS.119         	20.14          	4.625
MS.120         	20.1           	4.768
MS.121         	20.06          	4.85
MS.122         	20.02          	4.703
MS.123         	19.98          	4.751
MS.124         	19.94          	4.659
MS.125         	19.9           	4.719
MS.126         	19.86          	4.709
MS.127         	19.82          	4.554
MS.128         	19.78          	4.6
MS.129         	19.74          	4.488
MS.130         	19.7           	4.61
MS.131         	19.663         	4.413
MS.132         	19.622         	4.401
MS.133         	19.583         	4.459
MS.134         	19.545         	4.359
MS.135         	19.505         	4.302
MS.136         	19.465         	4.32
MS.137         	19.427         	4.185
MS.138         	19.387         	4.351
MS.139         	19.35          	4.264
MS.140         	19.31          	4.371
MS.141         	19.272         	4.332
MS.142         	19.235         	4.371
MS.143         	19.195         	4.355
MS.144         	19.157         	4.282
MS.145         	19.12          	4.334
MS.146         	19.08          	4.187
MS.147         	19.042         	4.214
MS.148         	19.005         	4.27
MS.149         	18.967         	4.318
MS.150         	18.927         	4.264
MS.151         	18.89          	4.167
MS.152         	18.852         	4.238
MS.153         	18.815         	4.101
MS.154         	18.778         	4.202
MS.155         	18.74          	3.984
MS.156         	18.702         	4.089
MS.157         	18.665         	4.022
MS.158         	18.628         	3.865
MS.159         	18.59          	3.994
MS.160         	18.555         	3.897
MS.161         	18.517         	3.841
MS.162         	18.48          	3.855
MS.163         	18.442         	3.69
MS.164         	18.405         	3.851
MS.165         	18.37          	3.845
MS.166         	18.333         	3.728
MS.167         	18.295         	3.702
MS.168         	18.26          	3.648
MS.169         	18.222         	3.69
MS.170         	18.188         	3.702
MS.171         	18.15          	3.668
MS.172         	18.115         	3.478
MS.173         	18.077         	3.557
MS.174         	18.042         	3.356
MS.175         	18.005         	3.577
MS.176         	17.97          	3.587
MS.177         	17.932         	3.428
MS.178         	17.897         	3.46
MS.179         	17.862         	3.446
MS.180         	17.827         	3.456
MS.181         	17.79          	3.327
MS.182         	17.755         	3.4
MS.183         	17.72          	3.472
MS.184         	17.685         	3.448
MS.185         	17.65          	3.476
MS.186         	17.612         	3.297
MS.187         	17.577         	3.309
MS.188         	17.542         	3.086
MS.189         	17.507         	3.259
MS.190         	17.472         	3.257
MS.191         	17.438         	3.295
MS.192         	17.403         	3.285
MS.193         	17.37          	3.225
MS.194         	17.335         	3.237
MS.195         	17.3           	3.186
MS.196         	17.265         	3.172
MS.197         	17.23          	3.039
MS.198         	17.195         	2.947
MS.199         	17.163         	3.015
MS.200         	17.128         	2.967
MS.201         	17.092         	3.025
MS.202         	17.06          	2.898
MS.203         	17.025         	2.953
MS.204         	16.99          	2.975
MS.205         	16.958         	2.969
MS.206         	16.922         	2.959
MS.207         	16.89          	2.862
MS.208         	16.855         	2.971
MS.209         	16.823         	2.814
MS.210         	16.788         	2.896
MS.211         	16.755         	2.89
MS.212         	16.72          	2.931
MS.213         	16.688         	2.792
MS.214         	16.655         	2.717
MS.215         	16.62          	2.84
MS.216         	16.587         	2.864
MS.217         	16.555         	2.733
MS.218         	16.522         	2.784
MS.219         	16.487         	2.705
MS.220         	16.455         	2.62
MS.221         	16.422         	2.739
MS.222         	16.39          	2.755
MS.223         	16.358         	2.622
MS.224         	16.325         	2.606
MS.225         	16.292         	2.782
MS.226         	16.26          	2.542
MS.227         	16.227         	2.786
MS.228         	16.195         	2.705
MS.229         	16.163         	2.588
MS.230         	16.13          	2.739
MS.231         	16.097         	2.369
MS.232         	16.065         	2.594
MS.233         	16.032         	2.59
MS.234         	16.003         	2.614
MS.235         	15.97          	2.542
MS.236         	15.938         	2.421
MS.237         	15.905         	2.54
MS.238         	15.875         	2.508
MS.239         	15.842         	2.578
MS.240         	15.81          	2.395
MS.241         	15.78          	2.485
MS.242         	15.747         	2.399
MS.243         	15.715         	2.441
MS.244         	15.685         	2.481
MS.245         	15.652         	2.379
MS.246         	15.622         	2.355
MS.247         	15.59          	2.328
MS.248         	15.56          	2.425
MS.249         	15.527         	2.328
MS.250         	15.497         	2.357
MS.251         	15.467         	2.175
MS.252         	15.435         	2.421
MS.253         	15.405         	2.326
MS.254         	15.375         	2.276
MS.255         	15.342         	2.34
MS.256         	15.312         	2.399
MS.257         	15.282         	2.334
MS.258         	15.252         	2.361
MS.259         	15.22          	2.206
MS.260         	15.19          	2.314
MS.261         	15.16          	2.153
MS.262         	15.13          	2.189
MS.263         	15.1           	2.111
MS.264         	15.07          	2.141
MS.265         	15.04          	2.105
MS.266         	15.01          	2.004
MS.267         	14.98          	2.127
MS.268         	14.95          	2.159
MS.269         	14.92          	1.992
MS.270         	14.89          	2.129
MS.271         	14.86          	2.137
MS.272         	14.83          	2.024
MS.273         	14.8           	2.028
MS.274         	14.77          	1.972
MS.275         	14.742         	2.01
MS.276         	14.712         	1.96
MS.277         	14.682         	2.141
MS.278         	14.652         	2.014
MS.279         	14.625         	1.897
MS.280         	14.595         	2.111
MS.281         	14.565         	2.038
MS.282         	14.537         	1.841
MS.283         	14.507         	1.803
MS.284         	14.477         	1.823
MS.285         	14.45          	1.783
MS.286         	14.42          	1.797
MS.287         	14.392         	1.787
MS.288         	14.362         	1.863
MS.289         	14.335         	1.809
MS.290         	14.305         	1.811
MS.291         	14.278         	1.629
MS.292         	14.25          	1.688
MS.293         	14.22          	1.656
MS.294         	14.193         	1.678
MS.295         	14.162         	1.543
MS.296         	14.135         	1.684
MS.297         	14.108         	1.601
MS.298         	14.08          	1.662
MS.299         	14.05          	1.47
MS.300         	14.023         	1.589
MS.301         	13.995         	1.521
MS.302         	13.967         	1.42
MS.303         	13.94          	1.557
MS.304         	13.91          	1.501
MS.305         	13.882         	1.462
MS.306         	13.855         	1.337
MS.307         	13.827         	1.291
MS.308         	13.8           	1.291
MS.309         	13.773         	1.265
MS.310         	13.745         	1.347
MS.311         	13.717         	1.257
MS.312         	13.69          	1.14
MS.313         	13.662         	1.257
MS.314         	13.635         	1.168
MS.315         	13.608         	1.18
MS.316         	13.58          	1.045
MS.317         	13.555         	1.055
MS.318         	13.528         	0.916
MS.319         	13.5           	1.057
MS.320         	13.472         	1.029
MS.321         	13.445         	1.035
MS.322         	13.42          	1.025
MS.323         	13.392         	0.961
MS.324         	13.365         	0.999
MS.325         	13.34          	1.003
MS.326         	13.312         	1.019
MS.327         	13.285         	0.993
MS.328         	13.26          	1.017
MS.329         	13.233         	0.894
MS.330         	13.205         	0.997
MS.331         	13.18          	0.937
MS.332         	13.153         	0.977
MS.333         	13.127         	0.999
MS.334         	13.1           	0.888
MS.335         	13.075         	0.81
MS.336         	13.047         	0.92
MS.337         	13.023         	0.904
MS.338         	12.997         	0.781
MS.339         	12.97          	0.941
MS.340         	12.945         	0.804
MS.341         	12.917         	0.856
MS.342         	12.892         	0.83
MS.343         	12.867         	0.771
MS.344         	12.842         	0.747
MS.345         	12.815         	0.653
MS.346         	12.79          	0.727
MS.347         	12.765         	0.749
MS.348         	12.74          	0.735
MS.349         	12.712         	0.685
MS.350         	12.688         	0.655
MS.351         	12.662         	0.745
MS.352         	12.637         	0.691
MS.353         	12.613         	0.455
MS.354         	12.587         	0.489
MS.355         	12.562         	0.427
MS.356         	12.537         	0.508
MS.357         	12.512         	0.455
MS.358         	12.488         	0.638
MS.359         	12.462         	0.495
MS.360         	12.438         	0.413
MS.361         	12.412         	0.532
MS.362         	12.387         	0.491
MS.363         	12.363         	0.292
MS.364         	12.337         	0.417
MS.365         	12.312         	0.318
MS.366         	12.287         	0.294
MS.367         	12.265         	0.292
MS.368         	12.24          	0.338
MS.369         	12.215         	0.294
MS.370         	12.19          	0.336
MS.371         	12.167         	0.298
MS.372         	12.142         	0.316
MS.373         	12.117         	0.292
MS.374         	12.092         	0.222
MS.375         	12.07          	0.226
MS.376         	12.045         	0.218
MS.377         	12.02          	0.316
MS.378         	11.997         	0.222
MS.379         	11.972         	0.288
MS.380         	11.95          	0.224
MS.381         	11.925         	0.185
MS.382         	11.903         	0.23
MS.383         	11.877         	0.218
MS.384         	11.855         	0.177
MS.385         	11.83          	0.224
MS.386         	11.807         	0.224
MS.387         	11.782         	0.177
MS.388         	11.76          	0.205
MS.389         	11.735         	0.141
MS.390         	11.712         	0.161
MS.391         	11.69          	0.163
MS.392         	11.665         	0.209
MS.393         	11.642         	0.203
MS.394         	11.62          	0.165
MS.395         	11.595         	0.181
MS.396         	11.572         	0.207
MS.397         	11.55          	0.22
MS.398         	11.528         	0.157
MS.399         	11.505         	0.141
MS.400         	11.48          	0.163
MS.401         	11.457         	0.161
MS.402         	11.435         	0.119
MS.403         	11.412         	0.159
MS.404         	11.39          	0.171
MS.405         	11.367         	0.169
MS.406         	11.345         	0.091
MS.407         	11.32          	0.145
MS.408         	11.297         	0.093
MS.409         	11.275         	0.149
MS.410         	11.252         	0.143
MS.411         	11.23          	0.145
MS.412         	11.207         	0.123
MS.413         	11.185         	0.093
MS.414         	11.165         	0.093
MS.415         	11.142         	0.149
MS.416         	11.12          	0.133
MS.417         	11.097         	0.135
MS.418         	11.075         	0.131
MS.419         	11.052         	0.079
MS.420         	11.03          	0.077
MS.421         	11.007         	0.05
MS.422         	10.988         	0.058
MS.423         	10.965         	0.046
MS.424         	10.943         	0.056
MS.425         	10.92          	0.081
MS.426         	10.9           	0.046
MS.427         	10.877         	0.099
MS.428         	10.855         	0.048
MS.429         	10.835         	0.052
MS.430         	10.812         	0.05
MS.431         	10.79          	0.046
MS.432         	10.77          	0.048
MS.433         	10.747         	0.032
MS.434         	10.725         	0.042
MS.435         	10.705         	0.028
MS.436         	10.682         	0.048
MS.437         	10.662         	0.05
MS.438         	10.64          	0.024
MS.439         	10.62          	0.03
MS.440         	10.597         	0.03
MS.441         	10.577         	0.024
MS.442         	10.555         	0.034
MS.443         	10.535         	0.026
MS.444         	10.512         	0.026
MS.445         	10.492         	0.026
MS.446         	10.472         	0.048
MS.447         	10.45          	0.026
MS.448         	10.43          	0.024
MS.449         	10.41          	0.024
MS.450         	10.387         	0.026
MS.451         	10.367         	0.022
MS.452         	10.347         	0.028
MS.453         	10.325         	0.022
MS.454         	10.305         	0.026
MS.455         	10.285         	0.028
MS.456         	10.265         	0.032
MS.457         	10.245         	0.024
MS.458         	10.222         	0.026
MS.459         	10.202         	0.032
MS.460         	10.182         	0.026
MS.461         	10.162         	0.024
MS.462         	10.142         	0.03
MS.463         	10.122         	0.022
MS.464         	10.102         	0.026
MS.465         	10.08          	0.024
MS.466         	10.06          	0.028
MS.467         	10.04          	0.024
MS.468         	10.02          	0.028
MS.469         	10             	0.024
MS.470         	9.98           	0.024
MS.471         	9.96           	0.044
MS.472         	9.94           	0.026
MS.473         	9.92           	0.024
MS.474         	9.903          	0.028
MS.475         	9.882          	0.026
MS.476         	9.863          	0.028
MS.477         	9.842          	0.018
MS.478         	9.823          	0.028
MS.479         	9.802          	0.022
MS.480         	9.782          	0.022
MS.481         	9.762          	0.03
MS.482         	9.745          	0.026
MS.483         	9.725          	0.026
MS.484         	9.705          	0.022
MS.485         	9.685          	0.022
MS.486         	9.667          	0.028
MS.487         	9.648          	0.028
MS.488         	9.627          	0.028
MS.489         	9.608          	0.026
MS.490         	9.59           	0.03
MS.491         	9.57           	0.028
MS.492         	9.552          	0.024
MS.493         	9.532          	0.032
MS.494         	9.512          	0.026
MS.495         	9.495          	0.028
MS.496         	9.475          	0.03
MS.497         	9.455          	0.028
MS.498         	9.438          	0.028
MS.499         	9.417          	0.024
MS.500         	9.4            	0.024
MS.501         	9.38           	0.028
