File:              	C:\Qtrac\Data\Daniel M Sørensen\MScan multicentre study\Data from centres\Oulu\Processed data\OUHC01030B.QZD
Name:              	FL.OUL.NC.2.1
Protocol:          	MSCAN-R2
Date:              	30/10/20
Start time:        	08:57:37
Age:               	63
Sex:               	F
Temperature:       	33,8
S/R sites:         	ADM
NC/disease:        	NC
Operator:          	MK
Comments:
M-SCAN DATA (1.6-0.0m)
Scanpts: 127, 137, 695, 707
Stim. (mA)     	Amp. (mV)
MS.1           	27             	7.634
MS.2           	27             	7.609
MS.3           	26.892         	7.569
MS.4           	26.837         	7.605
MS.5           	26.785         	7.563
MS.6           	26.73          	7.579
MS.7           	26.677         	7.605
MS.8           	26.625         	7.569
MS.9           	26.573         	7.599
MS.10          	26.517         	7.603
MS.11          	26.465         	7.583
MS.12          	26.412         	7.541
MS.13          	26.36          	7.567
MS.14          	26.307         	7.529
MS.15          	26.255         	7.553
MS.16          	26.202         	7.531
MS.17          	26.15          	7.495
MS.18          	26.097         	7.521
MS.19          	26.045         	7.527
MS.20          	25.993         	7.491
MS.21          	25.94          	7.517
MS.22          	25.89          	7.507
MS.23          	25.837         	7.477
MS.24          	25.785         	7.507
MS.25          	25.735         	7.517
MS.26          	25.682         	7.525
MS.27          	25.632         	7.531
MS.28          	25.58          	7.491
MS.29          	25.53          	7.531
MS.30          	25.477         	7.513
MS.31          	25.427         	7.525
MS.32          	25.377         	7.523
MS.33          	25.325         	7.539
MS.34          	25.275         	7.529
MS.35          	25.225         	7.535
MS.36          	25.175         	7.553
MS.37          	25.125         	7.565
MS.38          	25.075         	7.535
MS.39          	25.025         	7.527
MS.40          	24.975         	7.571
MS.41          	24.925         	7.557
MS.42          	24.875         	7.557
MS.43          	24.825         	7.589
MS.44          	24.775         	7.543
MS.45          	24.725         	7.583
MS.46          	24.675         	7.599
MS.47          	24.627         	7.551
MS.48          	24.577         	7.525
MS.49          	24.528         	7.609
MS.50          	24.48          	7.541
MS.51          	24.43          	7.569
MS.52          	24.382         	7.553
MS.53          	24.332         	7.505
MS.54          	24.285         	7.519
MS.55          	24.235         	7.547
MS.56          	24.188         	7.507
MS.57          	24.14          	7.525
MS.58          	24.09          	7.507
MS.59          	24.042         	7.505
MS.60          	23.995         	7.493
MS.61          	23.948         	7.519
MS.62          	23.9           	7.501
MS.63          	23.85          	7.469
MS.64          	23.802         	7.462
MS.65          	23.755         	7.378
MS.66          	23.707         	7.507
MS.67          	23.66          	7.551
MS.68          	23.615         	7.475
MS.69          	23.567         	7.505
MS.70          	23.52          	7.525
MS.71          	23.472         	7.527
MS.72          	23.425         	7.551
MS.73          	23.38          	7.565
MS.74          	23.332         	7.557
MS.75          	23.285         	7.579
MS.76          	23.24          	7.561
MS.77          	23.192         	7.547
MS.78          	23.145         	7.577
MS.79          	23.1           	7.559
MS.80          	23.055         	7.543
MS.81          	23.007         	7.597
MS.82          	22.962         	7.599
MS.83          	22.915         	7.567
MS.84          	22.87          	7.591
MS.85          	22.825         	7.62
MS.86          	22.78          	7.632
MS.87          	22.733         	7.616
MS.88          	22.688         	7.567
MS.89          	22.642         	7.614
MS.90          	22.597         	7.62
MS.91          	22.552         	7.632
MS.92          	22.507         	7.63
MS.93          	22.462         	7.636
MS.94          	22.417         	7.638
MS.95          	22.372         	7.612
MS.96          	22.327         	7.626
MS.97          	22.282         	7.622
MS.98          	22.237         	7.618
MS.99          	22.195         	7.593
MS.100         	22.15          	7.62
MS.101         	22.105         	7.622
MS.102         	22.062         	7.595
MS.103         	22.017         	7.603
MS.104         	21.972         	7.593
MS.105         	21.93          	7.612
MS.106         	21.885         	7.599
MS.107         	21.842         	7.614
MS.108         	21.797         	7.573
MS.109         	21.755         	7.577
MS.110         	21.712         	7.563
MS.111         	21.667         	7.585
MS.112         	21.625         	7.597
MS.113         	21.583         	7.605
MS.114         	21.538         	7.614
MS.115         	21.495         	7.62
MS.116         	21.452         	7.599
MS.117         	21.41          	7.589
MS.118         	21.368         	7.622
MS.119         	21.325         	7.63
MS.120         	21.282         	7.607
MS.121         	21.24          	7.638
MS.122         	21.198         	7.612
MS.123         	21.155         	7.628
MS.124         	21.112         	7.63
MS.125         	21.07          	7.646
MS.126         	21.028         	7.644
MS.127         	20.985         	7.65
MS.128         	20.942         	7.662
MS.129         	20.903         	7.64
MS.130         	20.86          	7.634
MS.131         	20.817         	7.642
MS.132         	20.778         	7.614
MS.133         	20.735         	7.624
MS.134         	20.695         	7.624
MS.135         	20.653         	7.587
MS.136         	20.61          	7.609
MS.137         	20.57          	7.64
MS.138         	20.53          	7.626
MS.139         	20.487         	7.626
MS.140         	20.448         	7.593
MS.141         	20.405         	7.607
MS.142         	20.365         	7.618
MS.143         	20.325         	7.624
MS.144         	20.285         	7.607
MS.145         	20.243         	7.583
MS.146         	20.202         	7.563
MS.147         	20.163         	7.565
MS.148         	20.122         	7.575
MS.149         	20.083         	7.555
MS.150         	20.042         	7.543
MS.151         	20.002         	7.523
MS.152         	19.962         	7.537
MS.153         	19.922         	7.533
MS.154         	19.882         	7.585
MS.155         	19.842         	7.559
MS.156         	19.802         	7.543
MS.157         	19.762         	7.523
MS.158         	19.725         	7.511
MS.159         	19.685         	7.541
MS.160         	19.645         	7.529
MS.161         	19.605         	7.565
MS.162         	19.567         	7.458
MS.163         	19.528         	7.527
MS.164         	19.487         	7.485
MS.165         	19.45          	7.553
MS.166         	19.41          	7.521
MS.167         	19.372         	7.495
MS.168         	19.333         	7.563
MS.169         	19.295         	7.511
MS.170         	19.255         	7.489
MS.171         	19.217         	7.531
MS.172         	19.18          	7.471
MS.173         	19.14          	7.521
MS.174         	19.102         	7.519
MS.175         	19.065         	7.539
MS.176         	19.028         	7.513
MS.177         	18.987         	7.523
MS.178         	18.95          	7.398
MS.179         	18.913         	7.509
MS.180         	18.875         	7.497
MS.181         	18.837         	7.422
MS.182         	18.8           	7.408
MS.183         	18.762         	7.416
MS.184         	18.725         	7.471
MS.185         	18.688         	7.519
MS.186         	18.65          	7.489
MS.187         	18.612         	7.386
MS.188         	18.575         	7.37
MS.189         	18.538         	7.519
MS.190         	18.5           	7.402
MS.191         	18.465         	7.398
MS.192         	18.427         	7.394
MS.193         	18.39          	7.533
MS.194         	18.352         	7.46
MS.195         	18.317         	7.493
MS.196         	18.28          	7.448
MS.197         	18.245         	7.46
MS.198         	18.208         	7.537
MS.199         	18.17          	7.513
MS.200         	18.135         	7.473
MS.201         	18.097         	7.473
MS.202         	18.062         	7.473
MS.203         	18.028         	7.511
MS.204         	17.99          	7.503
MS.205         	17.955         	7.501
MS.206         	17.917         	7.487
MS.207         	17.882         	7.473
MS.208         	17.847         	7.509
MS.209         	17.812         	7.454
MS.210         	17.775         	7.469
MS.211         	17.74          	7.477
MS.212         	17.705         	7.464
MS.213         	17.67          	7.4
MS.214         	17.635         	7.481
MS.215         	17.6           	7.466
MS.216         	17.562         	7.485
MS.217         	17.528         	7.557
MS.218         	17.493         	7.434
MS.219         	17.458         	7.466
MS.220         	17.422         	7.499
MS.221         	17.39          	7.469
MS.222         	17.355         	7.485
MS.223         	17.32          	7.469
MS.224         	17.285         	7.305
MS.225         	17.25          	7.473
MS.226         	17.215         	7.499
MS.227         	17.182         	7.561
MS.228         	17.147         	7.471
MS.229         	17.112         	7.332
MS.230         	17.077         	7.454
MS.231         	17.045         	7.509
MS.232         	17.01          	7.501
MS.233         	16.977         	7.497
MS.234         	16.942         	7.462
MS.235         	16.91          	7.44
MS.236         	16.875         	7.44
MS.237         	16.842         	7.448
MS.238         	16.807         	7.332
MS.239         	16.775         	7.313
MS.240         	16.74          	7.414
MS.241         	16.708         	7.402
MS.242         	16.672         	7.386
MS.243         	16.64          	7.299
MS.244         	16.608         	7.257
MS.245         	16.575         	7.283
MS.246         	16.54          	7.269
MS.247         	16.507         	7.243
MS.248         	16.475         	7.231
MS.249         	16.442         	7.223
MS.250         	16.41          	7.14
MS.251         	16.378         	7.207
MS.252         	16.342         	7.182
MS.253         	16.31          	7.203
MS.254         	16.278         	7.134
MS.255         	16.245         	7.046
MS.256         	16.212         	7.201
MS.257         	16.18          	7.152
MS.258         	16.147         	7.072
MS.259         	16.118         	6.985
MS.260         	16.085         	7.009
MS.261         	16.052         	7.16
MS.262         	16.02          	7.044
MS.263         	15.987         	7.195
MS.264         	15.955         	6.971
MS.265         	15.925         	6.85
MS.266         	15.892         	7.126
MS.267         	15.86          	6.957
MS.268         	15.83          	6.866
MS.269         	15.797         	7.138
MS.270         	15.765         	6.949
MS.271         	15.735         	6.866
MS.272         	15.702         	6.947
MS.273         	15.672         	6.838
MS.274         	15.64          	6.874
MS.275         	15.61          	6.832
MS.276         	15.577         	6.864
MS.277         	15.547         	6.842
MS.278         	15.515         	6.83
MS.279         	15.485         	6.816
MS.280         	15.452         	6.731
MS.281         	15.422         	6.806
MS.282         	15.392         	6.824
MS.283         	15.36          	6.85
MS.284         	15.33          	6.723
MS.285         	15.3           	6.866
MS.286         	15.27          	6.57
MS.287         	15.237         	6.836
MS.288         	15.207         	6.832
MS.289         	15.177         	6.516
MS.290         	15.148         	6.393
MS.291         	15.117         	6.121
MS.292         	15.087         	6.373
MS.293         	15.057         	6.053
MS.294         	15.027         	5.817
MS.295         	14.997         	5.976
MS.296         	14.967         	6.369
MS.297         	14.938         	6.188
MS.298         	14.907         	6.274
MS.299         	14.877         	5.777
MS.300         	14.847         	6.296
MS.301         	14.818         	6.234
MS.302         	14.787         	5.75
MS.303         	14.757         	6.042
MS.304         	14.73          	6.03
MS.305         	14.7           	6.22
MS.306         	14.67          	6.244
MS.307         	14.64          	5.867
MS.308         	14.612         	6.089
MS.309         	14.582         	5.686
MS.310         	14.552         	5.615
MS.311         	14.525         	5.513
MS.312         	14.495         	5.452
MS.313         	14.467         	5.718
MS.314         	14.438         	5.71
MS.315         	14.407         	5.241
MS.316         	14.38          	5.311
MS.317         	14.35          	5.321
MS.318         	14.322         	4.751
MS.319         	14.295         	5.017
MS.320         	14.265         	5.182
MS.321         	14.237         	5.197
MS.322         	14.207         	5.219
MS.323         	14.18          	4.945
MS.324         	14.153         	4.693
MS.325         	14.122         	4.629
MS.326         	14.095         	4.562
MS.327         	14.068         	4.667
MS.328         	14.04          	4.852
MS.329         	14.01          	4.826
MS.330         	13.983         	4.782
MS.331         	13.955         	4.284
MS.332         	13.927         	4.371
MS.333         	13.9           	4.208
MS.334         	13.872         	3.543
MS.335         	13.842         	4.063
MS.336         	13.815         	4.232
MS.337         	13.787         	3.783
MS.338         	13.76          	3.871
MS.339         	13.733         	3.555
MS.340         	13.705         	3.124
MS.341         	13.677         	3.446
MS.342         	13.653         	3.219
MS.343         	13.625         	3.303
MS.344         	13.597         	3.775
MS.345         	13.57          	3.031
MS.346         	13.542         	3.15
MS.347         	13.515         	3.152
MS.348         	13.487         	3.066
MS.349         	13.462         	3.066
MS.350         	13.435         	3.178
MS.351         	13.407         	3.275
MS.352         	13.38          	3.442
MS.353         	13.355         	2.782
MS.354         	13.327         	2.8
MS.355         	13.3           	2.794
MS.356         	13.275         	2.808
MS.357         	13.247         	2.792
MS.358         	13.222         	2.763
MS.359         	13.195         	2.888
MS.360         	13.167         	2.814
MS.361         	13.142         	2.608
MS.362         	13.115         	2.334
MS.363         	13.09          	2.496
MS.364         	13.062         	2.542
MS.365         	13.037         	2.342
MS.366         	13.012         	2.443
MS.367         	12.985         	2.443
MS.368         	12.96          	2.393
MS.369         	12.932         	2.062
MS.370         	12.907         	2.415
MS.371         	12.882         	2.139
MS.372         	12.858         	2.004
MS.373         	12.83          	1.917
MS.374         	12.805         	1.811
MS.375         	12.78          	1.841
MS.376         	12.755         	1.793
MS.377         	12.727         	1.644
MS.378         	12.702         	1.839
MS.379         	12.677         	1.964
MS.380         	12.653         	1.619
MS.381         	12.627         	1.648
MS.382         	12.602         	1.289
MS.383         	12.577         	1.456
MS.384         	12.552         	1.811
MS.385         	12.528         	1.579
MS.386         	12.502         	1.19
MS.387         	12.477         	1.448
MS.388         	12.452         	1.352
MS.389         	12.427         	0.991
MS.390         	12.403         	0.904
MS.391         	12.377         	0.985
MS.392         	12.352         	1.17
MS.393         	12.327         	1.118
MS.394         	12.302         	1.031
MS.395         	12.278         	0.963
MS.396         	12.255         	0.842
MS.397         	12.23          	0.975
MS.398         	12.205         	0.818
MS.399         	12.18          	0.973
MS.400         	12.155         	1.063
MS.401         	12.132         	0.806
MS.402         	12.108         	0.757
MS.403         	12.082         	0.794
MS.404         	12.06          	0.872
MS.405         	12.035         	0.91
MS.406         	12.01          	0.713
MS.407         	11.988         	0.84
MS.408         	11.962         	0.882
MS.409         	11.94          	0.602
MS.410         	11.915         	0.596
MS.411         	11.892         	0.568
MS.412         	11.867         	0.6
MS.413         	11.845         	0.689
MS.414         	11.82          	0.606
MS.415         	11.797         	0.576
MS.416         	11.773         	0.51
MS.417         	11.75          	0.562
MS.418         	11.727         	0.57
MS.419         	11.702         	0.552
MS.420         	11.68          	0.415
MS.421         	11.655         	0.52
MS.422         	11.632         	0.431
MS.423         	11.61          	0.483
MS.424         	11.587         	0.502
MS.425         	11.562         	0.447
MS.426         	11.54          	0.487
MS.427         	11.517         	0.381
MS.428         	11.495         	0.371
MS.429         	11.47          	0.389
MS.430         	11.447         	0.288
MS.431         	11.425         	0.357
MS.432         	11.403         	0.272
MS.433         	11.38          	0.397
MS.434         	11.358         	0.322
MS.435         	11.335         	0.31
MS.436         	11.312         	0.34
MS.437         	11.29          	0.334
MS.438         	11.267         	0.316
MS.439         	11.245         	0.242
MS.440         	11.222         	0.332
MS.441         	11.2           	0.262
MS.442         	11.177         	0.254
MS.443         	11.155         	0.252
MS.444         	11.132         	0.278
MS.445         	11.11          	0.256
MS.446         	11.087         	0.244
MS.447         	11.065         	0.26
MS.448         	11.042         	0.252
MS.449         	11.023         	0.262
MS.450         	11             	0.25
MS.451         	10.977         	0.254
MS.452         	10.955         	0.256
MS.453         	10.932         	0.252
MS.454         	10.912         	0.256
MS.455         	10.89          	0.238
MS.456         	10.867         	0.242
MS.457         	10.847         	0.242
MS.458         	10.825         	0.252
MS.459         	10.802         	0.258
MS.460         	10.782         	0.256
MS.461         	10.76          	0.238
MS.462         	10.738         	0.244
MS.463         	10.717         	0.25
MS.464         	10.695         	0.268
MS.465         	10.675         	0.24
MS.466         	10.653         	0.248
MS.467         	10.632         	0.254
MS.468         	10.61          	0.258
MS.469         	10.59          	0.244
MS.470         	10.568         	0.278
MS.471         	10.547         	0.25
MS.472         	10.525         	0.254
MS.473         	10.505         	0.264
MS.474         	10.485         	0.256
MS.475         	10.462         	0.266
MS.476         	10.443         	0.262
MS.477         	10.42          	0.254
MS.478         	10.4           	0.266
MS.479         	10.38          	0.252
MS.480         	10.36          	0.26
MS.481         	10.337         	0.252
MS.482         	10.318         	0.266
MS.483         	10.297         	0.252
MS.484         	10.275         	0.27
MS.485         	10.255         	0.266
MS.486         	10.235         	0.274
MS.487         	10.215         	0.262
MS.488         	10.195         	0.26
MS.489         	10.175         	0.258
MS.490         	10.153         	0.25
MS.491         	10.132         	0.256
MS.492         	10.113         	0.258
MS.493         	10.092         	0.262
MS.494         	10.073         	0.256
MS.495         	10.052         	0.26
MS.496         	10.032         	0.262
MS.497         	10.012         	0.262
MS.498         	9.992          	0.252
MS.499         	9.972          	0.211
MS.500         	9.952          	0.254
MS.501         	9.932          	0.203
