File:              	C:\Qtrac\Data\Daniel M Sørensen\MScan multicentre study\Data from centres\Oulu\Processed data\OUHC01105C.QZD
Name:              	FL.OUL.NC.5.1
Protocol:          	MSCAN-R2
Date:              	5/11/20
Start time:        	11:13:39
Age:               	61
Sex:               	M
Temperature:       	33,8
S/R sites:         	TA
NC/disease:        	NC
Operator:          	MK
Comments:
M-SCAN DATA (1.9-0.0m)
Scanpts: 17, 25, 897, 921
Stim. (mA)     	Amp. (mV)
MS.1           	16.5           	7.176
MS.2           	16.5           	7.182
MS.3           	16.467         	7.185
MS.4           	16.435         	7.178
MS.5           	16.403         	7.193
MS.6           	16.368         	7.176
MS.7           	16.335         	7.154
MS.8           	16.302         	7.17
MS.9           	16.27          	7.166
MS.10          	16.237         	7.154
MS.11          	16.205         	7.18
MS.12          	16.172         	7.189
MS.13          	16.14          	7.178
MS.14          	16.108         	7.162
MS.15          	16.077         	7.18
MS.16          	16.045         	7.164
MS.17          	16.012         	7.148
MS.18          	15.98          	7.16
MS.19          	15.947         	7.126
MS.20          	15.917         	7.168
MS.21          	15.885         	7.132
MS.22          	15.852         	7.146
MS.23          	15.822         	7.166
MS.24          	15.79          	7.152
MS.25          	15.757         	7.126
MS.26          	15.727         	7.14
MS.27          	15.695         	7.152
MS.28          	15.665         	7.15
MS.29          	15.632         	7.134
MS.30          	15.602         	7.14
MS.31          	15.57          	7.14
MS.32          	15.54          	7.13
MS.33          	15.507         	7.13
MS.34          	15.477         	7.144
MS.35          	15.445         	7.126
MS.36          	15.415         	7.102
MS.37          	15.385         	7.14
MS.38          	15.355         	7.102
MS.39          	15.322         	7.108
MS.40          	15.292         	7.12
MS.41          	15.262         	7.142
MS.42          	15.233         	7.156
MS.43          	15.2           	7.156
MS.44          	15.17          	7.144
MS.45          	15.14          	7.158
MS.46          	15.11          	7.15
MS.47          	15.08          	7.13
MS.48          	15.05          	7.124
MS.49          	15.02          	7.12
MS.50          	14.99          	7.134
MS.51          	14.96          	7.126
MS.52          	14.93          	7.122
MS.53          	14.9           	7.118
MS.54          	14.87          	7.116
MS.55          	14.84          	7.12
MS.56          	14.81          	7.122
MS.57          	14.782         	7.096
MS.58          	14.752         	7.1
MS.59          	14.722         	7.128
MS.60          	14.693         	7.092
MS.61          	14.662         	7.086
MS.62          	14.635         	7.104
MS.63          	14.605         	7.12
MS.64          	14.575         	7.096
MS.65          	14.547         	7.076
MS.66          	14.517         	7.11
MS.67          	14.487         	7.078
MS.68          	14.46          	7.088
MS.69          	14.43          	7.09
MS.70          	14.403         	7.07
MS.71          	14.372         	7.072
MS.72          	14.345         	7.062
MS.73          	14.315         	7.08
MS.74          	14.287         	7.06
MS.75          	14.257         	7.08
MS.76          	14.23          	7.068
MS.77          	14.202         	7.07
MS.78          	14.172         	7.031
MS.79          	14.145         	7.048
MS.80          	14.117         	7.035
MS.81          	14.087         	7.021
MS.82          	14.06          	7.054
MS.83          	14.032         	7.05
MS.84          	14.005         	7.037
MS.85          	13.977         	7.031
MS.86          	13.947         	7.046
MS.87          	13.92          	7.037
MS.88          	13.892         	7.054
MS.89          	13.865         	7.044
MS.90          	13.837         	7.017
MS.91          	13.81          	7.042
MS.92          	13.782         	7.003
MS.93          	13.755         	7.023
MS.94          	13.727         	7.021
MS.95          	13.7           	7.001
MS.96          	13.672         	7.031
MS.97          	13.645         	6.991
MS.98          	13.617         	7.005
MS.99          	13.59          	6.977
MS.100         	13.562         	6.975
MS.101         	13.535         	6.995
MS.102         	13.51          	6.971
MS.103         	13.483         	6.997
MS.104         	13.455         	6.975
MS.105         	13.427         	6.957
MS.106         	13.403         	7.001
MS.107         	13.375         	6.965
MS.108         	13.347         	6.981
MS.109         	13.32          	6.963
MS.110         	13.295         	6.971
MS.111         	13.267         	6.963
MS.112         	13.242         	6.987
MS.113         	13.215         	6.961
MS.114         	13.188         	6.959
MS.115         	13.162         	6.963
MS.116         	13.135         	6.967
MS.117         	13.11          	6.959
MS.118         	13.082         	6.969
MS.119         	13.057         	6.961
MS.120         	13.032         	6.969
MS.121         	13.005         	6.917
MS.122         	12.98          	6.945
MS.123         	12.952         	6.915
MS.124         	12.927         	6.921
MS.125         	12.903         	6.937
MS.126         	12.875         	6.905
MS.127         	12.85          	6.929
MS.128         	12.825         	6.921
MS.129         	12.8           	6.999
MS.130         	12.773         	6.929
MS.131         	12.747         	6.917
MS.132         	12.722         	6.971
MS.133         	12.697         	6.917
MS.134         	12.672         	6.909
MS.135         	12.645         	6.925
MS.136         	12.62          	6.884
MS.137         	12.595         	6.927
MS.138         	12.57          	6.931
MS.139         	12.545         	6.888
MS.140         	12.52          	6.923
MS.141         	12.495         	6.866
MS.142         	12.47          	6.878
MS.143         	12.445         	6.866
MS.144         	12.42          	6.878
MS.145         	12.395         	6.896
MS.146         	12.37          	6.862
MS.147         	12.347         	6.84
MS.148         	12.322         	6.872
MS.149         	12.297         	6.896
MS.150         	12.273         	6.838
MS.151         	12.247         	6.796
MS.152         	12.222         	6.846
MS.153         	12.2           	6.862
MS.154         	12.175         	6.85
MS.155         	12.15          	6.85
MS.156         	12.125         	6.786
MS.157         	12.102         	6.882
MS.158         	12.077         	6.856
MS.159         	12.052         	6.804
MS.160         	12.03          	6.85
MS.161         	12.005         	6.81
MS.162         	11.983         	6.83
MS.163         	11.957         	6.826
MS.164         	11.932         	6.764
MS.165         	11.91          	6.844
MS.166         	11.885         	6.84
MS.167         	11.863         	6.802
MS.168         	11.837         	6.816
MS.169         	11.815         	6.804
MS.170         	11.792         	6.804
MS.171         	11.767         	6.753
MS.172         	11.745         	6.83
MS.173         	11.72          	6.82
MS.174         	11.697         	6.8
MS.175         	11.675         	6.751
MS.176         	11.65          	6.711
MS.177         	11.627         	6.808
MS.178         	11.605         	6.766
MS.179         	11.58          	6.731
MS.180         	11.557         	6.762
MS.181         	11.535         	6.772
MS.182         	11.512         	6.735
MS.183         	11.488         	6.755
MS.184         	11.465         	6.751
MS.185         	11.443         	6.733
MS.186         	11.42          	6.715
MS.187         	11.398         	6.729
MS.188         	11.375         	6.749
MS.189         	11.352         	6.721
MS.190         	11.33          	6.737
MS.191         	11.307         	6.715
MS.192         	11.282         	6.721
MS.193         	11.26          	6.741
MS.194         	11.238         	6.751
MS.195         	11.215         	6.697
MS.196         	11.195         	6.701
MS.197         	11.172         	6.707
MS.198         	11.15          	6.717
MS.199         	11.127         	6.693
MS.200         	11.105         	6.699
MS.201         	11.082         	6.685
MS.202         	11.06          	6.711
MS.203         	11.037         	6.721
MS.204         	11.015         	6.689
MS.205         	10.995         	6.703
MS.206         	10.972         	6.663
MS.207         	10.95          	6.659
MS.208         	10.927         	6.681
MS.209         	10.907         	6.677
MS.210         	10.885         	6.693
MS.211         	10.863         	6.657
MS.212         	10.842         	6.661
MS.213         	10.82          	6.631
MS.214         	10.797         	6.693
MS.215         	10.778         	6.639
MS.216         	10.755         	6.604
MS.217         	10.733         	6.713
MS.218         	10.712         	6.615
MS.219         	10.69          	6.621
MS.220         	10.67          	6.623
MS.221         	10.648         	6.615
MS.222         	10.627         	6.606
MS.223         	10.605         	6.617
MS.224         	10.585         	6.627
MS.225         	10.562         	6.586
MS.226         	10.542         	6.604
MS.227         	10.52          	6.631
MS.228         	10.5           	6.61
MS.229         	10.48          	6.612
MS.230         	10.457         	6.596
MS.231         	10.438         	6.562
MS.232         	10.415         	6.612
MS.233         	10.395         	6.572
MS.234         	10.375         	6.57
MS.235         	10.355         	6.566
MS.236         	10.332         	6.546
MS.237         	10.312         	6.57
MS.238         	10.292         	6.574
MS.239         	10.273         	6.552
MS.240         	10.25          	6.56
MS.241         	10.23          	6.546
MS.242         	10.21          	6.54
MS.243         	10.19          	6.602
MS.244         	10.17          	6.564
MS.245         	10.15          	6.584
MS.246         	10.127         	6.572
MS.247         	10.108         	6.588
MS.248         	10.087         	6.534
MS.249         	10.068         	6.56
MS.250         	10.047         	6.562
MS.251         	10.028         	6.542
MS.252         	10.007         	6.544
MS.253         	9.988          	6.536
MS.254         	9.967          	6.554
MS.255         	9.948          	6.54
MS.256         	9.927          	6.56
MS.257         	9.907          	6.552
MS.258         	9.887          	6.54
MS.259         	9.867          	6.536
MS.260         	9.85           	6.534
MS.261         	9.83           	6.534
MS.262         	9.81           	6.52
MS.263         	9.79           	6.56
MS.264         	9.77           	6.528
MS.265         	9.75           	6.514
MS.266         	9.733          	6.526
MS.267         	9.712          	6.538
MS.268         	9.693          	6.538
MS.269         	9.672          	6.524
MS.270         	9.655          	6.524
MS.271         	9.635          	6.538
MS.272         	9.615          	6.51
MS.273         	9.595          	6.508
MS.274         	9.577          	6.496
MS.275         	9.557          	6.514
MS.276         	9.537          	6.5
MS.277         	9.52           	6.52
MS.278         	9.5            	6.508
MS.279         	9.483          	6.518
MS.280         	9.462          	6.508
MS.281         	9.445          	6.51
MS.282         	9.425          	6.5
MS.283         	9.405          	6.51
MS.284         	9.387          	6.52
MS.285         	9.367          	6.48
MS.286         	9.35           	6.484
MS.287         	9.33           	6.465
MS.288         	9.312          	6.457
MS.289         	9.295          	6.482
MS.290         	9.275          	6.447
MS.291         	9.257          	6.465
MS.292         	9.238          	6.451
MS.293         	9.22           	6.457
MS.294         	9.202          	6.441
MS.295         	9.182          	6.463
MS.296         	9.165          	6.427
MS.297         	9.148          	6.455
MS.298         	9.127          	6.397
MS.299         	9.11           	6.459
MS.300         	9.092          	6.441
MS.301         	9.073          	6.423
MS.302         	9.055          	6.389
MS.303         	9.037          	6.419
MS.304         	9.02           	6.383
MS.305         	9              	6.427
MS.306         	8.983          	6.478
MS.307         	8.965          	6.425
MS.308         	8.948          	6.417
MS.309         	8.93           	6.451
MS.310         	8.912          	6.387
MS.311         	8.895          	6.415
MS.312         	8.875          	6.391
MS.313         	8.858          	6.347
MS.314         	8.84           	6.403
MS.315         	8.823          	6.379
MS.316         	8.805          	6.409
MS.317         	8.787          	6.385
MS.318         	8.77           	6.403
MS.319         	8.752          	6.302
MS.320         	8.735          	6.385
MS.321         	8.717          	6.312
MS.322         	8.7            	6.302
MS.323         	8.682          	6.341
MS.324         	8.665          	6.282
MS.325         	8.648          	6.294
MS.326         	8.63           	6.288
MS.327         	8.615          	6.278
MS.328         	8.597          	6.31
MS.329         	8.58           	6.32
MS.330         	8.562          	6.282
MS.331         	8.545          	6.25
MS.332         	8.528          	6.224
MS.333         	8.51           	6.244
MS.334         	8.495          	6.244
MS.335         	8.477          	6.286
MS.336         	8.46           	6.212
MS.337         	8.443          	6.25
MS.338         	8.427          	6.224
MS.339         	8.41           	6.23
MS.340         	8.392          	6.272
MS.341         	8.375          	6.234
MS.342         	8.36           	6.236
MS.343         	8.342          	6.234
MS.344         	8.325          	6.214
MS.345         	8.31           	6.206
MS.346         	8.292          	6.198
MS.347         	8.275          	6.226
MS.348         	8.26           	6.214
MS.349         	8.242          	6.228
MS.350         	8.227          	6.222
MS.351         	8.21           	6.19
MS.352         	8.193          	6.222
MS.353         	8.177          	6.177
MS.354         	8.16           	6.183
MS.355         	8.145          	6.188
MS.356         	8.127          	6.177
MS.357         	8.113          	6.196
MS.358         	8.095          	6.173
MS.359         	8.08           	6.196
MS.360         	8.062          	6.2
MS.361         	8.047          	6.188
MS.362         	8.033          	6.179
MS.363         	8.015          	6.175
MS.364         	8              	6.181
MS.365         	7.982          	6.131
MS.366         	7.967          	6.183
MS.367         	7.952          	6.181
MS.368         	7.935          	6.171
MS.369         	7.92           	6.159
MS.370         	7.905          	6.171
MS.371         	7.887          	6.123
MS.372         	7.872          	6.125
MS.373         	7.857          	6.163
MS.374         	7.84           	6.135
MS.375         	7.825          	6.109
MS.376         	7.81           	6.147
MS.377         	7.795          	6.083
MS.378         	7.777          	6.107
MS.379         	7.762          	6.105
MS.380         	7.747          	6.091
MS.381         	7.732          	6.097
MS.382         	7.717          	6.107
MS.383         	7.7            	6.097
MS.384         	7.685          	6.067
MS.385         	7.67           	6.093
MS.386         	7.655          	6.038
MS.387         	7.64           	6.081
MS.388         	7.625          	6.036
MS.389         	7.61           	6.059
MS.390         	7.595          	6.067
MS.391         	7.58           	6.057
MS.392         	7.562          	6.075
MS.393         	7.547          	6.075
MS.394         	7.532          	6.059
MS.395         	7.517          	6.04
MS.396         	7.503          	6.073
MS.397         	7.487          	6.03
MS.398         	7.472          	6.024
MS.399         	7.457          	6.03
MS.400         	7.442          	6.018
MS.401         	7.43           	6.024
MS.402         	7.415          	5.976
MS.403         	7.4            	6.028
MS.404         	7.385          	5.962
MS.405         	7.37           	5.901
MS.406         	7.355          	5.897
MS.407         	7.34           	5.97
MS.408         	7.325          	5.982
MS.409         	7.31           	6
MS.410         	7.295          	6.028
MS.411         	7.282          	5.97
MS.412         	7.267          	5.946
MS.413         	7.253          	5.924
MS.414         	7.237          	5.904
MS.415         	7.222          	5.99
MS.416         	7.21           	5.95
MS.417         	7.195          	5.801
MS.418         	7.18           	6.016
MS.419         	7.165          	5.98
MS.420         	7.152          	5.881
MS.421         	7.137          	5.972
MS.422         	7.122          	5.95
MS.423         	7.11           	5.908
MS.424         	7.095          	5.853
MS.425         	7.08           	5.829
MS.426         	7.067          	5.922
MS.427         	7.052          	5.867
MS.428         	7.037          	5.839
MS.429         	7.025          	5.738
MS.430         	7.01           	5.718
MS.431         	6.995          	5.891
MS.432         	6.983          	5.75
MS.433         	6.967          	5.678
MS.434         	6.955          	5.763
MS.435         	6.94           	5.738
MS.436         	6.927          	5.777
MS.437         	6.912          	5.839
MS.438         	6.9            	5.785
MS.439         	6.885          	5.692
MS.440         	6.872          	5.579
MS.441         	6.858          	5.708
MS.442         	6.845          	5.666
MS.443         	6.83           	5.732
MS.444         	6.817          	5.668
MS.445         	6.802          	5.587
MS.446         	6.79           	5.551
MS.447         	6.775          	5.656
MS.448         	6.762          	5.551
MS.449         	6.75           	5.563
MS.450         	6.735          	5.438
MS.451         	6.722          	5.66
MS.452         	6.707          	5.509
MS.453         	6.695          	5.438
MS.454         	6.682          	5.45
MS.455         	6.668          	5.434
MS.456         	6.655          	5.364
MS.457         	6.642          	5.485
MS.458         	6.628          	5.329
MS.459         	6.615          	5.382
MS.460         	6.602          	5.41
MS.461         	6.587          	5.329
MS.462         	6.575          	5.303
MS.463         	6.562          	5.336
MS.464         	6.55           	5.323
MS.465         	6.535          	5.251
MS.466         	6.523          	5.239
MS.467         	6.51           	5.188
MS.468         	6.497          	5.255
MS.469         	6.485          	5.106
MS.470         	6.47           	5.17
MS.471         	6.457          	5.199
MS.472         	6.445          	5.132
MS.473         	6.432          	5.182
MS.474         	6.42           	5.134
MS.475         	6.407          	4.979
MS.476         	6.395          	5.092
MS.477         	6.38           	5.003
MS.478         	6.367          	5.086
MS.479         	6.355          	4.921
MS.480         	6.342          	4.84
MS.481         	6.33           	4.782
MS.482         	6.317          	4.82
MS.483         	6.305          	4.927
MS.484         	6.293          	4.806
MS.485         	6.28           	4.733
MS.486         	6.267          	4.79
MS.487         	6.255          	4.649
MS.488         	6.242          	4.562
MS.489         	6.23           	4.641
MS.490         	6.217          	4.592
MS.491         	6.205          	4.516
MS.492         	6.192          	4.52
MS.493         	6.18           	4.449
MS.494         	6.168          	4.361
MS.495         	6.155          	4.433
MS.496         	6.142          	4.389
MS.497         	6.13           	4.435
MS.498         	6.12           	4.336
MS.499         	6.108          	4.359
MS.500         	6.095          	4.23
MS.501         	6.082          	4.24
MS.502         	6.07           	4.224
