File:              	C:\Qtrac\Data\Daniel M Sørensen\MScan multicentre study\Data from centres\Oulu\Processed data\OUHC01117B.QZD
Name:              	FL.OUL.NC.5.2
Protocol:          	MSCAN-R2
Date:              	17/11/20
Start time:        	10:32:20
Age:               	61
Sex:               	M
Temperature:       	33,8
S/R sites:         	ADM
NC/disease:        	NC
Operator:          	MK
Comments:
M-SCAN DATA (2.8-0.0m)
Scanpts: 2, 7, 507, 522
Stim. (mA)     	Amp. (mV)
MS.1           	37             	11.352
MS.2           	37             	11.366
MS.3           	36.853         	11.338
MS.4           	36.778         	11.364
MS.5           	36.705         	11.342
MS.6           	36.632         	11.354
MS.7           	36.557         	11.364
MS.8           	36.485         	11.332
MS.9           	36.412         	11.352
MS.10          	36.34          	11.336
MS.11          	36.267         	11.342
MS.12          	36.195         	11.245
MS.13          	36.122         	11.35
MS.14          	36.05          	11.332
MS.15          	35.978         	11.243
MS.16          	35.907         	11.328
MS.17          	35.835         	11.348
MS.18          	35.763         	11.346
MS.19          	35.693         	11.35
MS.20          	35.62          	11.227
MS.21          	35.55          	11.219
MS.22          	35.478         	11.257
MS.23          	35.407         	11.261
MS.24          	35.337         	11.217
MS.25          	35.265         	11.342
MS.26          	35.195         	11.148
MS.27          	35.125         	11.036
MS.28          	35.055         	11.247
MS.29          	34.985         	11.209
MS.30          	34.915         	11.015
MS.31          	34.845         	11.209
MS.32          	34.775         	11.148
MS.33          	34.705         	11.16
MS.34          	34.638         	11.084
MS.35          	34.568         	11.237
MS.36          	34.497         	11.124
MS.37          	34.43          	11.215
MS.38          	34.36          	11.181
MS.39          	34.292         	11.021
MS.40          	34.222         	10.959
MS.41          	34.155         	10.973
MS.42          	34.087         	11.171
MS.43          	34.02          	11.036
MS.44          	33.95          	11.044
MS.45          	33.882         	10.965
MS.46          	33.815         	11.026
MS.47          	33.747         	11.019
MS.48          	33.68          	11.013
MS.49          	33.612         	11.048
MS.50          	33.545         	11.023
MS.51          	33.48          	11.028
MS.52          	33.412         	10.995
MS.53          	33.345         	10.937
MS.54          	33.278         	11.03
MS.55          	33.212         	10.945
MS.56          	33.145         	10.939
MS.57          	33.08          	10.937
MS.58          	33.013         	10.917
MS.59          	32.947         	10.887
MS.60          	32.882         	10.913
MS.61          	32.815         	10.937
MS.62          	32.75          	10.909
MS.63          	32.685         	10.929
MS.64          	32.62          	10.897
MS.65          	32.555         	10.907
MS.66          	32.49          	10.874
MS.67          	32.425         	10.897
MS.68          	32.36          	10.856
MS.69          	32.295         	10.868
MS.70          	32.23          	10.864
MS.71          	32.165         	10.804
MS.72          	32.103         	10.78
MS.73          	32.037         	10.782
MS.74          	31.972         	10.77
MS.75          	31.91          	10.746
MS.76          	31.845         	10.762
MS.77          	31.782         	10.808
MS.78          	31.72          	10.758
MS.79          	31.655         	10.748
MS.80          	31.592         	10.77
MS.81          	31.53          	10.79
MS.82          	31.465         	10.762
MS.83          	31.403         	10.818
MS.84          	31.34          	10.762
MS.85          	31.278         	10.669
MS.86          	31.215         	10.665
MS.87          	31.153         	10.675
MS.88          	31.09          	10.709
MS.89          	31.028         	10.744
MS.90          	30.967         	10.74
MS.91          	30.905         	10.586
MS.92          	30.842         	10.663
MS.93          	30.782         	10.729
MS.94          	30.72          	10.715
MS.95          	30.657         	10.653
MS.96          	30.597         	10.671
MS.97          	30.535         	10.669
MS.98          	30.475         	10.613
MS.99          	30.415         	10.526
MS.100         	30.352         	10.635
MS.101         	30.292         	10.52
MS.102         	30.233         	10.522
MS.103         	30.172         	10.55
MS.104         	30.112         	10.403
MS.105         	30.052         	10.482
MS.106         	29.992         	10.512
MS.107         	29.932         	10.456
MS.108         	29.872         	10.458
MS.109         	29.812         	10.453
MS.110         	29.752         	10.445
MS.111         	29.692         	10.373
MS.112         	29.632         	10.387
MS.113         	29.575         	10.59
MS.114         	29.515         	10.349
MS.115         	29.457         	10.292
MS.116         	29.397         	10.353
MS.117         	29.34          	10.198
MS.118         	29.28          	10.3
MS.119         	29.222         	10.25
MS.120         	29.162         	10.256
MS.121         	29.105         	10.202
MS.122         	29.047         	10.149
MS.123         	28.99          	10.248
MS.124         	28.93          	10.355
MS.125         	28.872         	10.196
MS.126         	28.815         	10.196
MS.127         	28.757         	10.105
MS.128         	28.7           	10.246
MS.129         	28.642         	10.248
MS.130         	28.585         	10.097
MS.131         	28.53          	10.192
MS.132         	28.472         	10.218
MS.133         	28.415         	10.188
MS.134         	28.358         	10.081
MS.135         	28.302         	10.069
MS.136         	28.245         	10.061
MS.137         	28.188         	9.946
MS.138         	28.132         	9.763
MS.139         	28.075         	9.972
MS.140         	28.02          	10.026
MS.141         	27.965         	10.02
MS.142         	27.907         	10.022
MS.143         	27.852         	9.972
MS.144         	27.797         	10.075
MS.145         	27.74          	9.771
MS.146         	27.685         	9.678
MS.147         	27.63          	9.851
MS.148         	27.575         	9.898
MS.149         	27.52          	9.91
MS.150         	27.465         	9.819
MS.151         	27.41          	9.666
MS.152         	27.355         	9.614
MS.153         	27.3           	9.573
MS.154         	27.245         	9.74
MS.155         	27.192         	9.557
MS.156         	27.137         	9.749
MS.157         	27.082         	9.221
MS.158         	27.03          	9.658
MS.159         	26.975         	8.878
MS.160         	26.92          	8.965
MS.161         	26.868         	9.203
MS.162         	26.812         	8.86
MS.163         	26.76          	8.862
MS.164         	26.707         	8.911
MS.165         	26.653         	8.842
MS.166         	26.6           	8.852
MS.167         	26.547         	8.824
MS.168         	26.495         	9.128
MS.169         	26.44          	8.725
MS.170         	26.387         	8.814
MS.171         	26.335         	8.999
MS.172         	26.282         	8.52
MS.173         	26.23          	8.685
MS.174         	26.177         	8.788
MS.175         	26.125         	8.752
MS.176         	26.073         	8.758
MS.177         	26.022         	8.729
MS.178         	25.97          	8.544
MS.179         	25.917         	8.588
MS.180         	25.865         	8.633
MS.181         	25.815         	8.607
MS.182         	25.762         	8.532
MS.183         	25.71          	8.572
MS.184         	25.66          	8.474
MS.185         	25.608         	8.496
MS.186         	25.557         	8.339
MS.187         	25.505         	8.337
MS.188         	25.455         	8.49
MS.189         	25.405         	8.155
MS.190         	25.352         	8.325
MS.191         	25.302         	8.439
MS.192         	25.252         	8.296
MS.193         	25.202         	8.218
MS.194         	25.153         	8.401
MS.195         	25.1           	8.163
MS.196         	25.05          	8.167
MS.197         	25             	8.055
MS.198         	24.95          	8.21
MS.199         	24.9           	7.972
MS.200         	24.852         	7.986
MS.201         	24.802         	7.994
MS.202         	24.752         	8.051
MS.203         	24.702         	7.722
MS.204         	24.653         	7.593
MS.205         	24.605         	7.908
MS.206         	24.555         	7.726
MS.207         	24.505         	7.682
MS.208         	24.457         	7.821
MS.209         	24.407         	7.557
MS.210         	24.36          	7.678
MS.211         	24.31          	7.315
MS.212         	24.262         	7.368
MS.213         	24.212         	7.392
MS.214         	24.165         	7.243
MS.215         	24.118         	7.344
MS.216         	24.067         	7.229
MS.217         	24.02          	7.293
MS.218         	23.972         	7.263
MS.219         	23.925         	7.221
MS.220         	23.877         	7.106
MS.221         	23.83          	7.241
MS.222         	23.782         	7.162
MS.223         	23.735         	7.052
MS.224         	23.688         	7.118
MS.225         	23.64          	6.963
MS.226         	23.592         	7.021
MS.227         	23.545         	7.005
MS.228         	23.497         	6.915
MS.229         	23.45          	6.856
MS.230         	23.405         	6.778
MS.231         	23.358         	6.806
MS.232         	23.31          	6.957
MS.233         	23.265         	6.715
MS.234         	23.217         	6.892
MS.235         	23.172         	6.816
MS.236         	23.125         	6.437
MS.237         	23.08          	6.699
MS.238         	23.032         	6.369
MS.239         	22.987         	6.619
MS.240         	22.94          	6.711
MS.241         	22.895         	6.367
MS.242         	22.85          	6.298
MS.243         	22.802         	6.578
MS.244         	22.757         	5.932
MS.245         	22.712         	6.284
MS.246         	22.667         	5.668
MS.247         	22.622         	5.833
MS.248         	22.577         	6.252
MS.249         	22.532         	5.519
MS.250         	22.487         	5.73
MS.251         	22.442         	5.819
MS.252         	22.397         	5.142
MS.253         	22.352         	5.247
MS.254         	22.307         	5.255
MS.255         	22.262         	4.949
MS.256         	22.217         	5.102
MS.257         	22.175         	4.8
MS.258         	22.13          	5.072
MS.259         	22.085         	4.743
MS.260         	22.04          	4.894
MS.261         	21.997         	4.689
MS.262         	21.952         	5.126
MS.263         	21.91          	4.808
MS.264         	21.865         	4.915
MS.265         	21.823         	4.671
MS.266         	21.778         	4.691
MS.267         	21.735         	4.625
MS.268         	21.692         	4.298
MS.269         	21.647         	4.29
MS.270         	21.605         	4.558
MS.271         	21.562         	4.206
MS.272         	21.517         	4.105
MS.273         	21.475         	4.413
MS.274         	21.432         	4.117
MS.275         	21.39          	4.254
MS.276         	21.347         	4.522
MS.277         	21.305         	4.063
MS.278         	21.262         	4.411
MS.279         	21.22          	4.01
MS.280         	21.177         	3.883
MS.281         	21.135         	4.206
MS.282         	21.092         	3.593
MS.283         	21.05          	3.662
MS.284         	21.007         	3.487
MS.285         	20.965         	3.837
MS.286         	20.925         	3.323
MS.287         	20.882         	3.704
MS.288         	20.84          	3.021
MS.289         	20.8           	3.064
MS.290         	20.757         	3.148
MS.291         	20.715         	2.929
MS.292         	20.675         	2.929
MS.293         	20.632         	2.987
MS.294         	20.592         	2.745
MS.295         	20.55          	2.995
MS.296         	20.51          	2.876
MS.297         	20.47          	2.751
MS.298         	20.427         	2.929
MS.299         	20.387         	2.659
MS.300         	20.347         	2.673
MS.301         	20.305         	2.606
MS.302         	20.265         	2.385
MS.303         	20.225         	2.624
MS.304         	20.185         	2.419
MS.305         	20.145         	2.461
MS.306         	20.105         	2.461
MS.307         	20.062         	2.349
MS.308         	20.022         	2.316
MS.309         	19.983         	2.012
MS.310         	19.942         	2.363
MS.311         	19.905         	2.429
MS.312         	19.865         	2.206
MS.313         	19.825         	2.046
MS.314         	19.785         	2.232
MS.315         	19.745         	1.694
MS.316         	19.705         	2.032
MS.317         	19.667         	2.228
MS.318         	19.627         	1.895
MS.319         	19.587         	2.109
MS.320         	19.55          	2.266
MS.321         	19.51          	1.879
MS.322         	19.47          	1.98
MS.323         	19.432         	1.557
MS.324         	19.392         	1.758
MS.325         	19.355         	1.774
MS.326         	19.315         	1.74
MS.327         	19.278         	1.527
MS.328         	19.237         	1.531
MS.329         	19.2           	1.408
MS.330         	19.163         	1.521
MS.331         	19.122         	1.468
MS.332         	19.085         	1.517
MS.333         	19.047         	1.428
MS.334         	19.01          	1.358
MS.335         	18.97          	1.331
MS.336         	18.932         	1.313
MS.337         	18.895         	1.295
MS.338         	18.858         	1.352
MS.339         	18.82          	1.295
MS.340         	18.782         	1.061
MS.341         	18.745         	1.319
MS.342         	18.708         	1.094
MS.343         	18.67          	1.194
MS.344         	18.632         	1.11
MS.345         	18.595         	1.126
MS.346         	18.557         	1.078
MS.347         	18.52          	1.027
MS.348         	18.485         	1.09
MS.349         	18.448         	0.985
MS.350         	18.41          	1.005
MS.351         	18.372         	1.07
MS.352         	18.337         	0.914
MS.353         	18.3           	0.886
MS.354         	18.262         	0.868
MS.355         	18.227         	0.993
MS.356         	18.19          	1.007
MS.357         	18.155         	0.874
MS.358         	18.118         	0.945
MS.359         	18.083         	0.931
MS.360         	18.045         	0.945
MS.361         	18.01          	1.007
MS.362         	17.975         	0.82
MS.363         	17.938         	0.902
MS.364         	17.903         	0.808
MS.365         	17.868         	0.808
MS.366         	17.83          	0.751
MS.367         	17.795         	0.834
MS.368         	17.76          	0.721
MS.369         	17.725         	0.638
MS.370         	17.688         	0.687
MS.371         	17.653         	0.721
MS.372         	17.618         	0.721
MS.373         	17.583         	0.614
MS.374         	17.547         	0.659
MS.375         	17.512         	0.592
MS.376         	17.477         	0.493
MS.377         	17.442         	0.451
MS.378         	17.407         	0.475
MS.379         	17.372         	0.479
MS.380         	17.337         	0.34
MS.381         	17.302         	0.409
MS.382         	17.27          	0.479
MS.383         	17.235         	0.33
MS.384         	17.2           	0.365
MS.385         	17.165         	0.429
MS.386         	17.132         	0.338
MS.387         	17.097         	0.286
MS.388         	17.062         	0.393
MS.389         	17.03          	0.425
MS.390         	16.995         	0.461
MS.391         	16.96          	0.322
MS.392         	16.927         	0.421
MS.393         	16.892         	0.419
MS.394         	16.86          	0.284
MS.395         	16.825         	0.399
MS.396         	16.792         	0.268
MS.397         	16.757         	0.274
MS.398         	16.725         	0.385
MS.399         	16.692         	0.328
MS.400         	16.657         	0.25
MS.401         	16.625         	0.222
MS.402         	16.592         	0.228
MS.403         	16.557         	0.268
MS.404         	16.525         	0.278
MS.405         	16.493         	0.278
MS.406         	16.46          	0.272
MS.407         	16.427         	0.254
MS.408         	16.395         	0.282
MS.409         	16.36          	0.203
MS.410         	16.327         	0.242
MS.411         	16.295         	0.27
MS.412         	16.262         	0.24
MS.413         	16.23          	0.23
MS.414         	16.198         	0.111
MS.415         	16.165         	0.26
MS.416         	16.135         	0.139
MS.417         	16.102         	0.151
MS.418         	16.07          	0.131
MS.419         	16.038         	0.199
MS.420         	16.005         	0.268
MS.421         	15.972         	0.131
MS.422         	15.943         	0.195
MS.423         	15.91          	0.105
MS.424         	15.877         	0.189
MS.425         	15.845         	0.099
MS.426         	15.815         	0.137
MS.427         	15.782         	0.113
MS.428         	15.75          	0.127
MS.429         	15.72          	0.095
MS.430         	15.688         	0.099
MS.431         	15.657         	0.191
MS.432         	15.625         	0.111
MS.433         	15.595         	0.077
MS.434         	15.562         	0.129
MS.435         	15.532         	0.083
MS.436         	15.5           	0.087
MS.437         	15.47          	0.089
MS.438         	15.44          	0.095
MS.439         	15.407         	0.087
MS.440         	15.377         	0.101
MS.441         	15.347         	0.085
MS.442         	15.315         	0.089
MS.443         	15.285         	0.062
MS.444         	15.255         	0.091
MS.445         	15.225         	0.091
MS.446         	15.195         	0.091
MS.447         	15.165         	0.064
MS.448         	15.132         	0.093
MS.449         	15.102         	0.056
MS.450         	15.072         	0.091
MS.451         	15.042         	0.073
MS.452         	15.012         	0.083
MS.453         	14.983         	0.091
MS.454         	14.952         	0.066
MS.455         	14.922         	0.066
MS.456         	14.892         	0.06
MS.457         	14.862         	0.06
MS.458         	14.835         	0.058
MS.459         	14.805         	0.06
MS.460         	14.775         	0.06
MS.461         	14.745         	0.062
MS.462         	14.715         	0.064
MS.463         	14.688         	0.062
MS.464         	14.657         	0.06
MS.465         	14.627         	0.058
MS.466         	14.597         	0.06
MS.467         	14.57          	0.064
MS.468         	14.54          	0.056
MS.469         	14.51          	0.064
MS.470         	14.483         	0.062
MS.471         	14.452         	0.062
MS.472         	14.425         	0.062
MS.473         	14.395         	0.062
MS.474         	14.367         	0.056
MS.475         	14.337         	0.058
MS.476         	14.31          	0.062
MS.477         	14.28          	0.056
MS.478         	14.252         	0.066
MS.479         	14.225         	0.056
MS.480         	14.195         	0.064
MS.481         	14.167         	0.06
MS.482         	14.137         	0.05
MS.483         	14.11          	0.064
MS.484         	14.082         	0.062
MS.485         	14.055         	0.062
MS.486         	14.025         	0.052
MS.487         	13.997         	0.05
MS.488         	13.97          	0.052
MS.489         	13.943         	0.058
MS.490         	13.915         	0.052
MS.491         	13.887         	0.054
MS.492         	13.858         	0.054
MS.493         	13.83          	0.052
MS.494         	13.802         	0.054
MS.495         	13.775         	0.054
MS.496         	13.747         	0.052
MS.497         	13.72          	0.056
