File:              	C:\Qtrac\Data\Daniel M Sørensen\MScan multicentre study\Data from centres\Oulu\Processed data\OUHC01030D.QZD
Name:              	FL.OUL.NC.3.1
Protocol:          	MSCAN-R2
Date:              	30/10/20
Start time:        	12:14:52
Age:               	78
Sex:               	M
Temperature:       	34
S/R sites:         	APB
NC/disease:        	NC
Operator:          	MK
Comments:
M-SCAN DATA (2.5-0.0m)
Scanpts: 137, 142, 590, 622
Stim. (mA)     	Amp. (mV)
MS.1           	13.5           	9.863
MS.2           	13.472         	9.811
MS.3           	13.445         	9.855
MS.4           	13.42          	9.841
MS.5           	13.392         	9.819
MS.6           	13.365         	9.813
MS.7           	13.34          	9.811
MS.8           	13.312         	9.837
MS.9           	13.285         	9.877
MS.10          	13.26          	9.873
MS.11          	13.233         	9.867
MS.12          	13.205         	9.875
MS.13          	13.18          	9.867
MS.14          	13.153         	9.861
MS.15          	13.127         	9.849
MS.16          	13.1           	9.857
MS.17          	13.075         	9.849
MS.18          	13.047         	9.857
MS.19          	13.023         	9.829
MS.20          	12.997         	9.853
MS.21          	12.97          	9.845
MS.22          	12.945         	9.855
MS.23          	12.92          	9.869
MS.24          	12.892         	9.871
MS.25          	12.867         	9.861
MS.26          	12.842         	9.873
MS.27          	12.815         	9.875
MS.28          	12.79          	9.869
MS.29          	12.765         	9.867
MS.30          	12.74          	9.859
MS.31          	12.715         	9.857
MS.32          	12.688         	9.841
MS.33          	12.662         	9.857
MS.34          	12.637         	9.855
MS.35          	12.613         	9.896
MS.36          	12.587         	9.883
MS.37          	12.562         	9.839
MS.38          	12.537         	9.859
MS.39          	12.512         	9.849
MS.40          	12.488         	9.797
MS.41          	12.462         	9.829
MS.42          	12.438         	9.823
MS.43          	12.412         	9.823
MS.44          	12.387         	9.859
MS.45          	12.363         	9.825
MS.46          	12.337         	9.865
MS.47          	12.312         	9.843
MS.48          	12.29          	9.853
MS.49          	12.265         	9.841
MS.50          	12.24          	9.833
MS.51          	12.215         	9.835
MS.52          	12.19          	9.841
MS.53          	12.167         	9.827
MS.54          	12.142         	9.811
MS.55          	12.117         	9.833
MS.56          	12.095         	9.867
MS.57          	12.07          	9.859
MS.58          	12.045         	9.859
MS.59          	12.023         	9.879
MS.60          	11.997         	9.873
MS.61          	11.972         	9.855
MS.62          	11.95          	9.859
MS.63          	11.925         	9.861
MS.64          	11.903         	9.863
MS.65          	11.877         	9.855
MS.66          	11.855         	9.853
MS.67          	11.83          	9.851
MS.68          	11.807         	9.853
MS.69          	11.782         	9.859
MS.70          	11.76          	9.859
MS.71          	11.738         	9.815
MS.72          	11.712         	9.855
MS.73          	11.69          	9.865
MS.74          	11.665         	9.867
MS.75          	11.642         	9.859
MS.76          	11.62          	9.863
MS.77          	11.597         	9.829
MS.78          	11.572         	9.857
MS.79          	11.55          	9.841
MS.80          	11.528         	9.831
MS.81          	11.505         	9.819
MS.82          	11.48          	9.813
MS.83          	11.457         	9.843
MS.84          	11.435         	9.853
MS.85          	11.412         	9.855
MS.86          	11.39          	9.855
MS.87          	11.367         	9.845
MS.88          	11.345         	9.674
MS.89          	11.322         	9.873
MS.90          	11.297         	9.871
MS.91          	11.275         	9.847
MS.92          	11.252         	9.835
MS.93          	11.23          	9.849
MS.94          	11.207         	9.845
MS.95          	11.188         	9.851
MS.96          	11.165         	9.853
MS.97          	11.142         	9.853
MS.98          	11.12          	9.851
MS.99          	11.097         	9.851
MS.100         	11.075         	9.855
MS.101         	11.052         	9.837
MS.102         	11.03          	9.853
MS.103         	11.007         	9.859
MS.104         	10.988         	9.837
MS.105         	10.965         	9.833
MS.106         	10.943         	9.813
MS.107         	10.92          	9.819
MS.108         	10.9           	9.831
MS.109         	10.877         	9.835
MS.110         	10.855         	9.837
MS.111         	10.835         	9.841
MS.112         	10.812         	9.827
MS.113         	10.79          	9.815
MS.114         	10.77          	9.815
MS.115         	10.747         	9.801
MS.116         	10.725         	9.829
MS.117         	10.705         	9.849
MS.118         	10.682         	9.817
MS.119         	10.662         	9.847
MS.120         	10.64          	9.831
MS.121         	10.62          	9.825
MS.122         	10.597         	9.821
MS.123         	10.577         	9.839
MS.124         	10.555         	9.829
MS.125         	10.535         	9.835
MS.126         	10.515         	9.827
MS.127         	10.492         	9.841
MS.128         	10.472         	9.805
MS.129         	10.45          	9.823
MS.130         	10.43          	9.817
MS.131         	10.41          	9.811
MS.132         	10.387         	9.843
MS.133         	10.367         	9.775
MS.134         	10.347         	9.815
MS.135         	10.327         	9.799
MS.136         	10.305         	9.813
MS.137         	10.285         	9.815
MS.138         	10.265         	9.791
MS.139         	10.245         	9.795
MS.140         	10.222         	9.803
MS.141         	10.202         	9.74
MS.142         	10.182         	9.751
MS.143         	10.162         	9.738
MS.144         	10.142         	9.827
MS.145         	10.122         	9.797
MS.146         	10.102         	9.738
MS.147         	10.082         	9.724
MS.148         	10.06          	9.799
MS.149         	10.04          	9.747
MS.150         	10.02          	9.823
MS.151         	10             	9.805
MS.152         	9.98           	9.753
MS.153         	9.96           	9.805
MS.154         	9.94           	9.749
MS.155         	9.922          	9.751
MS.156         	9.903          	9.801
MS.157         	9.882          	9.618
MS.158         	9.863          	9.597
MS.159         	9.842          	9.606
MS.160         	9.823          	9.751
MS.161         	9.802          	9.775
MS.162         	9.782          	9.599
MS.163         	9.765          	9.732
MS.164         	9.745          	9.634
MS.165         	9.725          	9.724
MS.166         	9.705          	9.604
MS.167         	9.685          	9.589
MS.168         	9.667          	9.587
MS.169         	9.648          	9.61
MS.170         	9.627          	9.589
MS.171         	9.61           	9.597
MS.172         	9.59           	9.579
MS.173         	9.57           	9.718
MS.174         	9.552          	9.593
MS.175         	9.532          	9.602
MS.176         	9.512          	9.606
MS.177         	9.495          	9.589
MS.178         	9.475          	9.599
MS.179         	9.457          	9.575
MS.180         	9.438          	9.577
MS.181         	9.417          	9.589
MS.182         	9.4            	9.581
MS.183         	9.38           	9.595
MS.184         	9.363          	9.587
MS.185         	9.342          	9.589
MS.186         	9.325          	9.606
MS.187         	9.307          	9.583
MS.188         	9.287          	9.593
MS.189         	9.27           	9.581
MS.190         	9.25           	9.583
MS.191         	9.233          	9.593
MS.192         	9.212          	9.579
MS.193         	9.195          	9.591
MS.194         	9.177          	9.573
MS.195         	9.158          	9.575
MS.196         	9.14           	9.575
MS.197         	9.122          	9.555
MS.198         	9.105          	9.593
MS.199         	9.085          	9.561
MS.200         	9.068          	9.595
MS.201         	9.05           	9.565
MS.202         	9.03           	9.563
MS.203         	9.012          	9.585
MS.204         	8.995          	9.573
MS.205         	8.977          	9.573
MS.206         	8.96           	9.571
MS.207         	8.943          	9.414
MS.208         	8.922          	9.565
MS.209         	8.905          	9.569
MS.210         	8.887          	9.565
MS.211         	8.87           	9.561
MS.212         	8.852          	9.557
MS.213         	8.835          	9.559
MS.214         	8.818          	9.571
MS.215         	8.8            	9.523
MS.216         	8.783          	9.553
MS.217         	8.765          	9.577
MS.218         	8.747          	9.569
MS.219         	8.73           	9.549
MS.220         	8.712          	9.557
MS.221         	8.695          	9.547
MS.222         	8.677          	9.589
MS.223         	8.66           	9.539
MS.224         	8.642          	9.541
MS.225         	8.625          	9.565
MS.226         	8.608          	9.585
MS.227         	8.59           	9.573
MS.228         	8.573          	9.583
MS.229         	8.557          	9.575
MS.230         	8.54           	9.565
MS.231         	8.523          	9.551
MS.232         	8.505          	9.559
MS.233         	8.488          	9.553
MS.234         	8.472          	9.571
MS.235         	8.455          	9.563
MS.236         	8.438          	9.573
MS.237         	8.42           	9.565
MS.238         	8.405          	9.555
MS.239         	8.387          	9.555
MS.240         	8.37           	9.545
MS.241         	8.352          	9.557
MS.242         	8.337          	9.549
MS.243         	8.32           	9.537
MS.244         	8.302          	9.543
MS.245         	8.287          	9.551
MS.246         	8.27           	9.553
MS.247         	8.255          	9.517
MS.248         	8.238          	9.491
MS.249         	8.22           	9.547
MS.250         	8.205          	9.507
MS.251         	8.188          	9.541
MS.252         	8.172          	9.589
MS.253         	8.155          	9.559
MS.254         	8.14           	9.509
MS.255         	8.122          	9.517
MS.256         	8.108          	9.529
MS.257         	8.09           	9.511
MS.258         	8.075          	9.515
MS.259         	8.057          	9.497
MS.260         	8.042          	9.509
MS.261         	8.025          	9.497
MS.262         	8.01           	9.495
MS.263         	7.995          	9.515
MS.264         	7.977          	9.503
MS.265         	7.962          	9.511
MS.266         	7.945          	9.501
MS.267         	7.93           	9.507
MS.268         	7.915          	9.501
MS.269         	7.898          	9.485
MS.270         	7.882          	9.491
MS.271         	7.867          	9.515
MS.272         	7.852          	9.477
MS.273         	7.835          	9.507
MS.274         	7.82           	9.489
MS.275         	7.805          	9.497
MS.276         	7.79           	9.493
MS.277         	7.773          	9.501
MS.278         	7.757          	9.487
MS.279         	7.742          	9.493
MS.280         	7.727          	9.485
MS.281         	7.712          	9.473
MS.282         	7.695          	9.456
MS.283         	7.68           	9.495
MS.284         	7.665          	9.463
MS.285         	7.65           	9.458
MS.286         	7.635          	9.469
MS.287         	7.62           	9.491
MS.288         	7.605          	9.463
MS.289         	7.59           	9.473
MS.290         	7.575          	9.378
MS.291         	7.557          	9.154
MS.292         	7.543          	9.442
MS.293         	7.527          	9.124
MS.294         	7.512          	9.446
MS.295         	7.497          	9.152
MS.296         	7.482          	9.463
MS.297         	7.467          	9.174
MS.298         	7.452          	9.448
MS.299         	7.438          	9.138
MS.300         	7.425          	9.434
MS.301         	7.41           	9.14
MS.302         	7.395          	9.118
MS.303         	7.38           	8.905
MS.304         	7.365          	9.096
MS.305         	7.35           	9.134
MS.306         	7.335          	9.454
MS.307         	7.32           	9.094
MS.308         	7.305          	9.227
MS.309         	7.293          	8.387
MS.310         	7.277          	8.192
MS.311         	7.262          	8.899
MS.312         	7.247          	8.435
MS.313         	7.233          	9.144
MS.314         	7.22           	7.769
MS.315         	7.205          	9.114
MS.316         	7.19           	7.519
MS.317         	7.175          	7.644
MS.318         	7.162          	8
MS.319         	7.148          	8.028
MS.320         	7.132          	8.893
MS.321         	7.117          	7.658
MS.322         	7.105          	7.527
MS.323         	7.09           	7.378
MS.324         	7.075          	7.539
MS.325         	7.062          	8.073
MS.326         	7.047          	7.517
MS.327         	7.032          	7.261
MS.328         	7.02           	7.952
MS.329         	7.005          	7.477
MS.330         	6.992          	7.402
MS.331         	6.977          	8.051
MS.332         	6.962          	7.438
MS.333         	6.95           	7.172
MS.334         	6.935          	7.193
MS.335         	6.922          	7.475
MS.336         	6.907          	7.477
MS.337         	6.895          	7.307
MS.338         	6.88           	7.303
MS.339         	6.867          	7.178
MS.340         	6.852          	7.305
MS.341         	6.84           	6.971
MS.342         	6.825          	6.951
MS.343         	6.812          	7.291
MS.344         	6.797          	6.985
MS.345         	6.785          	7.023
MS.346         	6.773          	7.114
MS.347         	6.757          	6.82
MS.348         	6.745          	6.868
MS.349         	6.73           	6.79
MS.350         	6.717          	6.625
MS.351         	6.705          	6.397
MS.352         	6.69           	6.387
MS.353         	6.677          	6.689
MS.354         	6.665          	6.298
MS.355         	6.65           	6.582
MS.356         	6.637          	6.933
MS.357         	6.625          	6.548
MS.358         	6.61           	6.846
MS.359         	6.597          	6.093
MS.360         	6.585          	6.695
MS.361         	6.57           	6.055
MS.362         	6.557          	5.992
MS.363         	6.545          	6.153
MS.364         	6.532          	6.403
MS.365         	6.52           	5.73
MS.366         	6.505          	5.926
MS.367         	6.492          	5.458
MS.368         	6.48           	5.708
MS.369         	6.467          	5.901
MS.370         	6.455          	6.204
MS.371         	6.44           	5.634
MS.372         	6.427          	5.481
MS.373         	6.415          	5.205
MS.374         	6.402          	4.792
MS.375         	6.39           	4.272
MS.376         	6.378          	4.288
MS.377         	6.365          	4.983
MS.378         	6.352          	5.013
MS.379         	6.34           	4.248
MS.380         	6.325          	4.302
MS.381         	6.312          	4.568
MS.382         	6.3            	4.514
MS.383         	6.287          	4.721
MS.384         	6.275          	4.057
MS.385         	6.262          	3.789
MS.386         	6.25           	4.28
MS.387         	6.237          	4.195
MS.388         	6.225          	4.175
MS.389         	6.213          	4.071
MS.390         	6.2            	3.903
MS.391         	6.188          	3.996
MS.392         	6.175          	3.787
MS.393         	6.165          	3.607
MS.394         	6.152          	3.559
MS.395         	6.14           	3.424
MS.396         	6.128          	3.293
MS.397         	6.115          	3.317
MS.398         	6.102          	3.38
MS.399         	6.09           	3.366
MS.400         	6.077          	3.412
MS.401         	6.065          	3.311
MS.402         	6.055          	3.188
MS.403         	6.043          	3.233
MS.404         	6.03           	3.307
MS.405         	6.017          	2.85
MS.406         	6.005          	2.977
MS.407         	5.992          	2.981
MS.408         	5.983          	3.084
MS.409         	5.97           	2.717
MS.410         	5.957          	3.134
MS.411         	5.945          	2.578
MS.412         	5.935          	2.822
MS.413         	5.922          	2.614
MS.414         	5.91           	2.824
MS.415         	5.898          	2.272
MS.416         	5.887          	2.467
MS.417         	5.875          	2.431
MS.418         	5.862          	2.441
MS.419         	5.852          	2.365
MS.420         	5.84           	2.542
MS.421         	5.827          	2.657
MS.422         	5.817          	2.282
MS.423         	5.805          	2.208
MS.424         	5.793          	2.218
MS.425         	5.782          	2.153
MS.426         	5.77           	2.048
MS.427         	5.757          	1.952
MS.428         	5.747          	1.857
MS.429         	5.735          	1.758
MS.430         	5.725          	1.664
MS.431         	5.713          	1.702
MS.432         	5.702          	1.716
MS.433         	5.69           	1.857
MS.434         	5.677          	1.619
MS.435         	5.668          	1.575
MS.436         	5.655          	1.184
MS.437         	5.645          	1.694
MS.438         	5.632          	1.492
MS.439         	5.622          	1.573
MS.440         	5.61           	0.882
MS.441         	5.6            	0.872
MS.442         	5.588          	0.908
MS.443         	5.577          	0.878
MS.444         	5.565          	0.79
MS.445         	5.555          	1.263
MS.446         	5.545          	0.969
MS.447         	5.532          	0.604
MS.448         	5.523          	0.973
MS.449         	5.51           	0.798
MS.450         	5.5            	0.856
MS.451         	5.487          	0.721
MS.452         	5.477          	0.546
MS.453         	5.467          	0.512
MS.454         	5.455          	0.54
MS.455         	5.445          	0.677
MS.456         	5.435          	0.449
MS.457         	5.422          	0.471
MS.458         	5.412          	0.377
MS.459         	5.402          	0.441
MS.460         	5.39           	0.369
MS.461         	5.38           	0.429
MS.462         	5.37           	0.449
MS.463         	5.358          	0.387
MS.464         	5.347          	0.445
MS.465         	5.338          	0.475
MS.466         	5.327          	0.352
MS.467         	5.315          	0.224
MS.468         	5.305          	0.33
MS.469         	5.295          	0.385
MS.470         	5.285          	0.381
MS.471         	5.273          	0.288
MS.472         	5.262          	0.373
MS.473         	5.253          	0.31
MS.474         	5.242          	0.304
MS.475         	5.233          	0.193
MS.476         	5.22           	0.145
MS.477         	5.21           	0.288
MS.478         	5.2            	0.224
MS.479         	5.19           	0.197
MS.480         	5.18           	0.203
MS.481         	5.17           	0.274
MS.482         	5.157          	0.222
MS.483         	5.148          	0.073
MS.484         	5.137          	0.244
MS.485         	5.128          	0.236
MS.486         	5.117          	0.171
MS.487         	5.108          	0.222
MS.488         	5.097          	0.097
MS.489         	5.088          	0.207
MS.490         	5.077          	0.075
MS.491         	5.068          	0.093
MS.492         	5.057          	0.081
MS.493         	5.047          	0.083
MS.494         	5.037          	0.089
MS.495         	5.027          	0.058
MS.496         	5.017          	0.054
MS.497         	5.007          	0.07
MS.498         	4.997          	0.048
MS.499         	4.987          	0.04
MS.500         	4.977          	0.042
