File:              	C:\Qtrac\Data\Daniel M Sørensen\MScan multicentre study\Data from centres\Oxford\Processed data\ATC01210E.QZD
Name:              	UK.OXF.NC.4.2
Protocol:          	MSCAN-R2
Date:              	10/12/20
Start time:        	16:04:50
Age:               	38
Sex:               	F
Temperature:       	34
S/R sites:         	ADM
NC/disease:        	NC
Operator:          	AT
Comments:          	Repeat ADM 2nd
M-SCAN DATA (4.4-1.3m)
Scanpts: 1, 5, 331, 352
Stim. (mA)     	Amp. (mV)
MS.1           	13.5           	7.031
MS.2           	13.5           	6.995
MS.3           	13.5           	6.965
MS.4           	13.5           	6.977
MS.5           	13.5           	7.001
MS.6           	13.5           	6.957
MS.7           	13.5           	7.066
MS.8           	13.5           	7.084
MS.9           	13.5           	7.037
MS.10          	13.5           	6.87
MS.11          	13.5           	6.909
MS.12          	13.5           	6.937
MS.13          	13.5           	6.915
MS.14          	13.5           	6.943
MS.15          	13.5           	6.884
MS.16          	13.5           	6.894
MS.17          	13.5           	6.977
MS.18          	13.5           	6.923
MS.19          	13.5           	6.903
MS.20          	13.5           	6.88
MS.21          	13.5           	6.947
MS.22          	13.5           	6.888
MS.23          	13.5           	6.882
MS.24          	13.445         	6.826
MS.25          	13.42          	6.784
MS.26          	13.392         	6.792
MS.27          	13.365         	6.806
MS.28          	13.34          	6.8
MS.29          	13.312         	6.725
MS.30          	13.285         	6.786
MS.31          	13.26          	6.766
MS.32          	13.233         	6.689
MS.33          	13.205         	6.739
MS.34          	13.18          	6.778
MS.35          	13.153         	6.844
MS.36          	13.127         	6.677
MS.37          	13.1           	6.598
MS.38          	13.075         	6.54
MS.39          	13.047         	6.59
MS.40          	13.023         	6.631
MS.41          	12.997         	6.556
MS.42          	12.97          	6.534
MS.43          	12.945         	6.508
MS.44          	12.92          	6.504
MS.45          	12.892         	6.467
MS.46          	12.867         	6.496
MS.47          	12.842         	6.371
MS.48          	12.815         	6.351
MS.49          	12.79          	6.463
MS.50          	12.765         	6.318
MS.51          	12.74          	6.381
MS.52          	12.715         	6.23
MS.53          	12.688         	6.26
MS.54          	12.662         	6.145
MS.55          	12.637         	6.238
MS.56          	12.613         	6.202
MS.57          	12.587         	6.306
MS.58          	12.562         	6.169
MS.59          	12.537         	6.282
MS.60          	12.512         	5.986
MS.61          	12.488         	5.976
MS.62          	12.462         	5.988
MS.63          	12.438         	6.022
MS.64          	12.412         	6.087
MS.65          	12.387         	6.125
MS.66          	12.363         	6.057
MS.67          	12.337         	5.912
MS.68          	12.312         	6.044
MS.69          	12.29          	6.024
MS.70          	12.265         	5.976
MS.71          	12.24          	5.938
MS.72          	12.215         	5.867
MS.73          	12.19          	5.807
MS.74          	12.167         	5.904
MS.75          	12.142         	5.962
MS.76          	12.117         	5.821
MS.77          	12.092         	5.797
MS.78          	12.07          	5.765
MS.79          	12.045         	5.37
MS.80          	12.023         	5.565
MS.81          	11.997         	5.724
MS.82          	11.972         	5.638
MS.83          	11.95          	5.694
MS.84          	11.925         	5.501
MS.85          	11.903         	5.656
MS.86          	11.877         	5.706
MS.87          	11.855         	5.402
MS.88          	11.83          	5.495
MS.89          	11.807         	5.094
MS.90          	11.782         	5.418
MS.91          	11.76          	5.34
MS.92          	11.738         	5.356
MS.93          	11.712         	5.229
MS.94          	11.69          	5.46
MS.95          	11.665         	5.327
MS.96          	11.642         	5.047
MS.97          	11.62          	5.338
MS.98          	11.597         	5.144
MS.99          	11.572         	5.058
MS.100         	11.55          	4.921
MS.101         	11.528         	5.062
MS.102         	11.505         	4.88
MS.103         	11.48          	5.021
MS.104         	11.457         	5.019
MS.105         	11.435         	4.552
MS.106         	11.412         	4.816
MS.107         	11.39          	4.814
MS.108         	11.367         	4.641
MS.109         	11.345         	4.349
MS.110         	11.322         	4.504
MS.111         	11.297         	4.427
MS.112         	11.275         	4.588
MS.113         	11.252         	4.492
MS.114         	11.23          	4.304
MS.115         	11.207         	4.429
MS.116         	11.188         	4.419
MS.117         	11.165         	4.03
MS.118         	11.142         	4.302
MS.119         	11.12          	4.274
MS.120         	11.097         	4.026
MS.121         	11.075         	4.21
MS.122         	11.052         	3.881
MS.123         	11.03          	3.74
MS.124         	11.007         	3.865
MS.125         	10.988         	3.547
MS.126         	10.965         	3.589
MS.127         	10.943         	3.583
MS.128         	10.92          	3.879
MS.129         	10.9           	3.736
MS.130         	10.877         	3.388
MS.131         	10.855         	3.448
MS.132         	10.835         	3.323
MS.133         	10.812         	3.331
MS.134         	10.79          	3.174
MS.135         	10.77          	3.241
MS.136         	10.747         	3.505
MS.137         	10.725         	3.41
MS.138         	10.705         	3.269
MS.139         	10.682         	3.315
MS.140         	10.662         	3.233
MS.141         	10.64          	3.184
MS.142         	10.62          	2.975
MS.143         	10.597         	3.035
MS.144         	10.577         	3.007
MS.145         	10.555         	2.945
MS.146         	10.535         	2.912
MS.147         	10.515         	3.009
MS.148         	10.492         	2.943
MS.149         	10.472         	2.91
MS.150         	10.45          	2.971
MS.151         	10.43          	2.872
MS.152         	10.41          	2.784
MS.153         	10.387         	2.737
MS.154         	10.367         	2.743
MS.155         	10.347         	2.846
MS.156         	10.325         	2.763
MS.157         	10.305         	2.723
MS.158         	10.285         	2.731
MS.159         	10.265         	2.759
MS.160         	10.245         	2.796
MS.161         	10.222         	2.624
MS.162         	10.202         	2.582
MS.163         	10.182         	2.683
MS.164         	10.162         	2.576
MS.165         	10.142         	2.574
MS.166         	10.122         	2.653
MS.167         	10.102         	2.582
MS.168         	10.082         	2.477
MS.169         	10.06          	2.598
MS.170         	10.04          	2.58
MS.171         	10.02          	2.477
MS.172         	10             	2.528
MS.173         	9.98           	2.439
MS.174         	9.96           	2.26
MS.175         	9.94           	2.222
MS.176         	9.922          	2.31
MS.177         	9.903          	2.371
MS.178         	9.882          	2.548
MS.179         	9.863          	2.322
MS.180         	9.842          	2.079
MS.181         	9.823          	2.228
MS.182         	9.802          	2.117
MS.183         	9.782          	2.151
MS.184         	9.765          	2.216
MS.185         	9.745          	2.214
MS.186         	9.725          	2.324
MS.187         	9.705          	2.02
MS.188         	9.685          	2.405
MS.189         	9.667          	2.216
MS.190         	9.648          	2.165
MS.191         	9.627          	2.032
MS.192         	9.61           	2
MS.193         	9.59           	1.825
MS.194         	9.57           	1.849
MS.195         	9.552          	1.867
MS.196         	9.532          	1.815
MS.197         	9.512          	1.698
MS.198         	9.495          	1.986
MS.199         	9.475          	1.805
MS.200         	9.457          	1.772
MS.201         	9.438          	1.807
MS.202         	9.417          	1.758
MS.203         	9.4            	1.766
MS.204         	9.38           	1.714
MS.205         	9.363          	1.551
MS.206         	9.342          	1.652
MS.207         	9.325          	1.652
MS.208         	9.305          	1.579
MS.209         	9.287          	1.515
MS.210         	9.27           	1.589
MS.211         	9.25           	1.482
MS.212         	9.233          	1.396
MS.213         	9.212          	1.601
MS.214         	9.195          	1.315
MS.215         	9.177          	1.599
MS.216         	9.158          	1.281
MS.217         	9.14           	1.384
MS.218         	9.122          	1.215
MS.219         	9.102          	1.285
MS.220         	9.085          	1.372
MS.221         	9.068          	1.176
MS.222         	9.05           	1.134
MS.223         	9.03           	1.196
MS.224         	9.012          	1.269
MS.225         	8.995          	1.211
MS.226         	8.977          	1.259
MS.227         	8.96           	1.061
MS.228         	8.943          	1.148
MS.229         	8.922          	1.059
MS.230         	8.905          	0.945
MS.231         	8.887          	0.832
MS.232         	8.87           	1.088
MS.233         	8.852          	0.9
MS.234         	8.835          	0.985
MS.235         	8.818          	0.898
MS.236         	8.8            	1.08
MS.237         	8.783          	0.804
MS.238         	8.765          	0.977
MS.239         	8.747          	0.699
MS.240         	8.73           	0.92
MS.241         	8.712          	0.761
MS.242         	8.695          	0.912
MS.243         	8.677          	0.626
MS.244         	8.66           	0.747
MS.245         	8.642          	0.628
MS.246         	8.625          	0.858
MS.247         	8.608          	0.55
MS.248         	8.59           	0.439
MS.249         	8.573          	0.727
MS.250         	8.557          	0.417
MS.251         	8.54           	0.632
MS.252         	8.523          	0.459
MS.253         	8.505          	0.588
MS.254         	8.488          	0.413
MS.255         	8.472          	0.536
MS.256         	8.455          	0.437
MS.257         	8.438          	0.344
MS.258         	8.42           	0.246
MS.259         	8.405          	0.256
MS.260         	8.387          	0.504
MS.261         	8.37           	0.272
MS.262         	8.352          	0.463
MS.263         	8.337          	0.26
MS.264         	8.32           	0.403
MS.265         	8.302          	0.352
MS.266         	8.287          	0.214
MS.267         	8.27           	0.205
MS.268         	8.255          	0.201
MS.269         	8.238          	0.238
MS.270         	8.22           	0.143
MS.271         	8.205          	0.236
MS.272         	8.188          	0.214
MS.273         	8.172          	0.107
MS.274         	8.155          	0.177
MS.275         	8.14           	0.151
MS.276         	8.122          	0.218
MS.277         	8.108          	0.115
MS.278         	8.09           	0.077
MS.279         	8.075          	0.141
MS.280         	8.057          	0.163
MS.281         	8.042          	0.083
MS.282         	8.025          	0.058
MS.283         	8.01           	0.099
MS.284         	7.995          	0.083
MS.285         	7.977          	0.07
MS.286         	7.962          	0.105
MS.287         	7.945          	0.107
MS.288         	7.93           	0.107
MS.289         	7.915          	0.075
MS.290         	7.898          	0.119
MS.291         	7.882          	0.066
MS.292         	7.867          	0.123
MS.293         	7.852          	0.117
MS.294         	7.835          	0.101
MS.295         	7.82           	0.079
MS.296         	7.805          	0.087
MS.297         	7.79           	0.028
MS.298         	7.773          	0.03
MS.299         	7.757          	0.062
MS.300         	7.742          	0.056
MS.301         	7.727          	0.044
MS.302         	7.712          	0.01
MS.303         	7.695          	0.022
MS.304         	7.68           	0.046
MS.305         	7.665          	0.026
MS.306         	7.65           	0.064
MS.307         	7.635          	0.016
MS.308         	7.62           	0.012
MS.309         	7.605          	0.062
MS.310         	7.59           	0.014
MS.311         	7.572          	0.018
MS.312         	7.557          	0.022
MS.313         	7.543          	0.018
MS.314         	7.527          	0.066
MS.315         	7.512          	0.012
MS.316         	7.497          	0.012
MS.317         	7.482          	0.012
MS.318         	7.467          	0.014
MS.319         	7.452          	0.016
MS.320         	7.438          	0.01
MS.321         	7.425          	0.000
MS.322         	7.41           	0.000
MS.323         	7.395          	0.01
MS.324         	7.38           	0.008
MS.325         	7.365          	0.016
MS.326         	7.35           	0.012
MS.327         	7.335          	0.000
MS.328         	7.32           	0.014
MS.329         	7.305          	0.012
MS.330         	7.293          	0.008
MS.331         	7.277          	0.012
MS.332         	7.262          	0.016
MS.333         	7.247          	0.016
MS.334         	7.233          	0.01
MS.335         	7.22           	0.000
MS.336         	7.205          	0.012
MS.337         	7.19           	0.012
MS.338         	7.175          	0.01
MS.339         	7.162          	0.000
MS.340         	7.148          	0.002
MS.341         	7.132          	0.016
MS.342         	7.117          	0.000
MS.343         	7.105          	0.004
MS.344         	7.09           	0.004
MS.345         	7.075          	0.002
MS.346         	7.062          	0.002
MS.347         	7.047          	0.008
MS.348         	7.032          	0.01
MS.349         	7.02           	0.002
MS.350         	7.005          	0.002
MS.351         	6.992          	0.002
MS.352         	6.977          	0.004
DERIVED EXCITABILITY VARIABLES
Program = QTracP 3/4/2020
Threshold method = 6 (optimised for CAP, using data for present condition only)
SR method = 1 (using actual data values)
6.                 	0.000               	Peak response\(mV)
9.                 	34                  	Temperature ( C)
17.                	38                  	Age (years)
18.                	2                   	Sex (M=1, F=2)

EXTRA VARIABLES

MScPeak(mV) = 6.95
MScS5(mA) = 8.36
MScS50(mA) = 10.79
MScS95(mA) = 13.05
MScNSteps = 3
MScSteps(%) = 6.6
MScStepMax(%) = 2.5
MScD50 = 52
MScSlope = 4.84
MSFPeakAmp(mV) = 6.99
MSFNUnits = 102
MSFMeanUnitAmp(uV) = 68.5
MSFHuntTime(m) = 1.57
MSFError(%) = 2.99
MSFNLarge = 32.4
MSFMedianAmp(%) = 0.929
MSFMedianAmp(mV) = 0.0649
MSFHalfAmpAmp(%) = 1.12
MSFHalfAmpAmp(mV) = 0.0784
MSFLargestAmp(%) = 2.66
MSFLargestAmp(mV) = 0.186
MSFMeanRS(%) = 2
MSFOpts = 10106121
MScDuration(min) = 3.1
MSFTraces = 352
MSFSizeLimit(uV) = 17.5
MSFLimitType = 1
MSFSmallestAmp(uV) = 21.4

EXTRA WAVEFORMS


!MScan Model
!102
	1	7.68	0.49	2
	2	8	0.86	2
	3	8.09	0.48	2
	4	8.17	0.5	2
	5	8.22	0.81	2
	6	8.35	1.36	2
	7	8.48	1.99	2
	8	8.55	1.4	2
	9	8.61	1.32	2
	10	8.68	1.41	2
	11	8.74	1.54	2
	12	8.84	1.6	2
	13	8.9	1.12	2
	14	8.95	0.98	2
	15	9.01	0.97	2
	16	9.08	1.6	2
	17	9.13	0.82	2
	18	9.17	0.63	2
	19	9.21	0.96	2
	20	9.25	1	2
	21	9.29	0.79	2
	22	9.32	0.48	2
	23	9.35	0.47	2
	24	9.4	1.12	2
	25	9.48	1.2	2
	26	9.54	1.52	2
	27	9.6	1.27	2
	28	9.65	1.38	2
	29	9.8	2.2	2
	30	9.89	1.11	2
	31	9.96	1.17	2
	32	10	0.92	2
	33	10.05	0.31	2
	34	10.09	0.84	2
	35	10.15	1.08	2
	36	10.2	0.64	2
	37	10.25	0.61	2
	38	10.3	0.47	2
	39	10.34	0.67	2
	40	10.38	0.58	2
	41	10.47	0.62	2
	42	10.5	0.46	2
	43	10.53	0.59	2
	44	10.56	0.96	2
	45	10.59	0.93	2
	46	10.64	0.74	2
	47	10.71	1.07	2
	48	10.84	0.56	2
	49	10.85	0.92	2
	50	10.9	1.34	2
	51	10.91	2.66	2
	52	10.93	0.99	2
	53	10.96	1.07	2
	54	10.99	1.26	2
	55	11.02	1.18	2
	56	11.05	0.85	2
	57	11.07	0.59	2
	58	11.09	0.55	2
	59	11.11	0.72	2
	60	11.14	1.33	2
	61	11.19	2.12	2
	62	11.24	1.4	2
	63	11.28	1.08	2
	64	11.32	1.31	2
	65	11.35	1.07	2
	66	11.38	0.71	2
	67	11.41	0.77	2
	68	11.44	0.73	2
	69	11.47	1.02	2
	70	11.51	1.29	2
	71	11.55	1.3	2
	72	11.61	1.61	2
	73	11.69	1.65	2
	74	11.77	1.46	2
	75	11.86	1.91	2
	76	11.99	2.04	2
	77	12.09	1.77	2
	78	12.15	0.79	2
	79	12.27	1.29	2
	80	12.4	1.69	2
	81	12.5	1.01	2
	82	12.57	0.74	2
	83	12.63	0.59	2
	84	12.68	0.76	2
	85	12.7	0.45	2
	86	12.76	0.5	2
	87	12.79	0.48	2
	88	12.82	0.41	2
	89	12.85	0.43	2
	90	12.88	0.46	2
	91	12.9	0.35	2
	92	12.93	0.31	2
	93	12.96	0.36	2
	94	13	0.56	2
	95	13.04	0.54	2
	96	13.1	0.71	2
	97	13.16	0.59	2
	98	13.26	0.97	2
	99	13.33	0.61	2
	100	13.41	0.5	2
	101	13.51	0.57	2
	102	13.73	1.04	2

