File:              	C:\Qtrac\Data\Daniel M Sørensen\MScan multicentre study\Data from centres\Oxford\Processed data\ATC01210G.QZD
Name:              	UK.OXF.NC.1.2
Protocol:          	MSCAN-R2
Date:              	10/12/20
Start time:        	16:39:13
Age:               	38
Sex:               	M
Temperature:       	35.4
S/R sites:         	ADM
NC/disease:        	NC
Operator:          	AT
Comments:          	Ulnar N ADM 2nd
M-SCAN DATA (6.1-1.7m)
Scanpts: 2, 9, 443, 460
Stim. (mA)     	Amp. (mV)
MS.1           	15             	4.969
MS.2           	15             	4.995
MS.3           	15             	4.985
MS.4           	15             	4.969
MS.5           	15             	4.967
MS.6           	15             	4.931
MS.7           	15             	4.947
MS.8           	15             	4.933
MS.9           	15             	4.931
MS.10          	15             	4.961
MS.11          	15             	4.971
MS.12          	15             	4.997
MS.13          	15             	4.904
MS.14          	15             	4.991
MS.15          	15             	4.951
MS.16          	15             	4.945
MS.17          	15             	4.913
MS.18          	15             	4.981
MS.19          	15             	4.983
MS.20          	15             	4.957
MS.21          	15             	4.929
MS.22          	15             	4.909
MS.23          	15             	4.939
MS.24          	14.94          	4.971
MS.25          	14.91          	4.892
MS.26          	14.88          	4.937
MS.27          	14.85          	4.931
MS.28          	14.82          	4.957
MS.29          	14.792         	4.947
MS.30          	14.762         	4.939
MS.31          	14.733         	4.906
MS.32          	14.702         	4.943
MS.33          	14.672         	4.911
MS.34          	14.645         	4.937
MS.35          	14.615         	4.906
MS.36          	14.585         	4.896
MS.37          	14.557         	4.917
MS.38          	14.527         	4.927
MS.39          	14.497         	4.882
MS.40          	14.47          	4.902
MS.41          	14.44          	4.868
MS.42          	14.412         	4.904
MS.43          	14.382         	4.852
MS.44          	14.355         	4.858
MS.45          	14.325         	4.872
MS.46          	14.297         	4.842
MS.47          	14.267         	4.878
MS.48          	14.24          	4.856
MS.49          	14.212         	4.826
MS.50          	14.182         	4.786
MS.51          	14.155         	4.82
MS.52          	14.127         	4.828
MS.53          	14.097         	4.792
MS.54          	14.07          	4.792
MS.55          	14.042         	4.788
MS.56          	14.015         	4.747
MS.57          	13.985         	4.717
MS.58          	13.957         	4.826
MS.59          	13.93          	4.846
MS.60          	13.903         	4.753
MS.61          	13.875         	4.79
MS.62          	13.847         	4.78
MS.63          	13.82          	4.743
MS.64          	13.792         	4.753
MS.65          	13.765         	4.798
MS.66          	13.737         	4.772
MS.67          	13.71          	4.733
MS.68          	13.682         	4.691
MS.69          	13.655         	4.743
MS.70          	13.627         	4.774
MS.71          	13.6           	4.729
MS.72          	13.572         	4.739
MS.73          	13.545         	4.745
MS.74          	13.517         	4.715
MS.75          	13.492         	4.733
MS.76          	13.465         	4.713
MS.77          	13.438         	4.747
MS.78          	13.41          	4.733
MS.79          	13.385         	4.77
MS.80          	13.358         	4.709
MS.81          	13.33          	4.733
MS.82          	13.305         	4.705
MS.83          	13.278         	4.655
MS.84          	13.25          	4.709
MS.85          	13.225         	4.763
MS.86          	13.197         	4.745
MS.87          	13.172         	4.725
MS.88          	13.145         	4.713
MS.89          	13.12          	4.737
MS.90          	13.092         	4.693
MS.91          	13.068         	4.723
MS.92          	13.04          	4.763
MS.93          	13.015         	4.711
MS.94          	12.987         	4.751
MS.95          	12.962         	4.729
MS.96          	12.938         	4.691
MS.97          	12.91          	4.725
MS.98          	12.885         	4.713
MS.99          	12.86          	4.721
MS.100         	12.832         	4.711
MS.101         	12.807         	4.739
MS.102         	12.782         	4.695
MS.103         	12.757         	4.709
MS.104         	12.73          	4.669
MS.105         	12.705         	4.689
MS.106         	12.68          	4.691
MS.107         	12.655         	4.657
MS.108         	12.63          	4.685
MS.109         	12.605         	4.667
MS.110         	12.58          	4.671
MS.111         	12.555         	4.703
MS.112         	12.53          	4.657
MS.113         	12.505         	4.683
MS.114         	12.48          	4.655
MS.115         	12.455         	4.693
MS.116         	12.43          	4.679
MS.117         	12.405         	4.671
MS.118         	12.38          	4.663
MS.119         	12.355         	4.685
MS.120         	12.33          	4.681
MS.121         	12.305         	4.673
MS.122         	12.28          	4.671
MS.123         	12.257         	4.661
MS.124         	12.233         	4.669
MS.125         	12.207         	4.679
MS.126         	12.182         	4.681
MS.127         	12.157         	4.671
MS.128         	12.135         	4.671
MS.129         	12.11          	4.677
MS.130         	12.085         	4.701
MS.131         	12.062         	4.659
MS.132         	12.037         	4.675
MS.133         	12.012         	4.673
MS.134         	11.99          	4.647
MS.135         	11.965         	4.606
MS.136         	11.943         	4.651
MS.137         	11.917         	4.651
MS.138         	11.895         	4.653
MS.139         	11.87          	4.643
MS.140         	11.847         	4.655
MS.141         	11.822         	4.592
MS.142         	11.8           	4.574
MS.143         	11.775         	4.647
MS.144         	11.752         	4.637
MS.145         	11.73          	4.637
MS.146         	11.705         	4.633
MS.147         	11.682         	4.657
MS.148         	11.657         	4.604
MS.149         	11.635         	4.637
MS.150         	11.613         	4.596
MS.151         	11.59          	4.647
MS.152         	11.565         	4.641
MS.153         	11.542         	4.554
MS.154         	11.52          	4.598
MS.155         	11.497         	4.55
MS.156         	11.472         	4.558
MS.157         	11.45          	4.602
MS.158         	11.427         	4.637
MS.159         	11.405         	4.558
MS.160         	11.382         	4.548
MS.161         	11.36          	4.59
MS.162         	11.337         	4.518
MS.163         	11.315         	4.498
MS.164         	11.292         	4.532
MS.165         	11.27          	4.524
MS.166         	11.247         	4.542
MS.167         	11.225         	4.524
MS.168         	11.202         	4.51
MS.169         	11.18          	4.53
MS.170         	11.157         	4.514
MS.171         	11.135         	4.542
MS.172         	11.113         	4.556
MS.173         	11.09          	4.484
MS.174         	11.068         	4.496
MS.175         	11.045         	4.461
MS.176         	11.023         	4.536
MS.177         	11.002         	4.504
MS.178         	10.98          	4.195
MS.179         	10.957         	4.268
MS.180         	10.935         	4.387
MS.181         	10.915         	4.093
MS.182         	10.892         	4.191
MS.183         	10.87          	4.159
MS.184         	10.847         	4.328
MS.185         	10.827         	3.922
MS.186         	10.805         	4.238
MS.187         	10.785         	3.986
MS.188         	10.762         	3.952
MS.189         	10.74          	3.968
MS.190         	10.72          	4.193
MS.191         	10.698         	4.28
MS.192         	10.677         	4.103
MS.193         	10.655         	4.161
MS.194         	10.635         	3.96
MS.195         	10.613         	4.022
MS.196         	10.592         	4.137
MS.197         	10.57          	3.918
MS.198         	10.55          	4.135
MS.199         	10.528         	3.984
MS.200         	10.507         	3.821
MS.201         	10.485         	3.863
MS.202         	10.465         	3.952
MS.203         	10.445         	3.984
MS.204         	10.422         	3.799
MS.205         	10.403         	3.903
MS.206         	10.382         	4.014
MS.207         	10.36          	3.893
MS.208         	10.34          	3.821
MS.209         	10.32          	3.789
MS.210         	10.3           	3.748
MS.211         	10.278         	3.807
MS.212         	10.257         	3.704
MS.213         	10.238         	3.797
MS.214         	10.217         	3.777
MS.215         	10.198         	3.746
MS.216         	10.175         	3.762
MS.217         	10.155         	3.748
MS.218         	10.135         	3.692
MS.219         	10.115         	3.553
MS.220         	10.095         	3.561
MS.221         	10.075         	3.692
MS.222         	10.055         	3.625
MS.223         	10.035         	3.493
MS.224         	10.015         	3.587
MS.225         	9.995          	3.591
MS.226         	9.975          	3.519
MS.227         	9.955          	3.517
MS.228         	9.935          	3.509
MS.229         	9.915          	3.36
MS.230         	9.895          	3.418
MS.231         	9.875          	3.434
MS.232         	9.855          	3.315
MS.233         	9.835          	3.128
MS.234         	9.818          	3.414
MS.235         	9.797          	3.448
MS.236         	9.778          	3.493
MS.237         	9.757          	3.096
MS.238         	9.738          	3.176
MS.239         	9.717          	2.872
MS.240         	9.7            	3.126
MS.241         	9.68           	3.11
MS.242         	9.66           	2.965
MS.243         	9.64           	2.991
MS.244         	9.622          	3.104
MS.245         	9.602          	2.834
MS.246         	9.582          	2.965
MS.247         	9.565          	2.979
MS.248         	9.545          	3.08
MS.249         	9.525          	2.703
MS.250         	9.507          	2.874
MS.251         	9.488          	2.784
MS.252         	9.47           	2.562
MS.253         	9.45           	2.592
MS.254         	9.432          	2.838
MS.255         	9.412          	2.598
MS.256         	9.395          	2.385
MS.257         	9.375          	2.359
MS.258         	9.358          	2.163
MS.259         	9.337          	2.137
MS.260         	9.32           	2.55
MS.261         	9.3            	2.278
MS.262         	9.283          	2.56
MS.263         	9.262          	2.409
MS.264         	9.245          	2.675
MS.265         	9.225          	2.177
MS.266         	9.207          	1.93
MS.267         	9.19           	2.453
MS.268         	9.17           	2.334
MS.269         	9.153          	2.187
MS.270         	9.135          	2.485
MS.271         	9.115          	1.984
MS.272         	9.097          	2.224
MS.273         	9.08           	2.304
MS.274         	9.062          	2.471
MS.275         	9.042          	2.191
MS.276         	9.025          	2.157
MS.277         	9.007          	1.76
MS.278         	8.99           	1.706
MS.279         	8.972          	1.917
MS.280         	8.952          	1.795
MS.281         	8.935          	1.402
MS.282         	8.917          	1.265
MS.283         	8.9            	1.337
MS.284         	8.882          	1.158
MS.285         	8.865          	0.949
MS.286         	8.847          	1.257
MS.287         	8.83           	1.305
MS.288         	8.812          	1.188
MS.289         	8.795          	1.162
MS.290         	8.775          	1.13
MS.291         	8.757          	1.037
MS.292         	8.74           	1.12
MS.293         	8.722          	1.049
MS.294         	8.707          	1.158
MS.295         	8.69           	0.848
MS.296         	8.672          	0.977
MS.297         	8.655          	0.794
MS.298         	8.637          	0.864
MS.299         	8.62           	0.86
MS.300         	8.602          	0.88
MS.301         	8.585          	0.665
MS.302         	8.568          	0.812
MS.303         	8.55           	0.701
MS.304         	8.535          	0.713
MS.305         	8.517          	0.723
MS.306         	8.5            	0.695
MS.307         	8.483          	0.717
MS.308         	8.465          	0.683
MS.309         	8.45           	0.6
MS.310         	8.432          	0.649
MS.311         	8.415          	0.681
MS.312         	8.398          	0.705
MS.313         	8.382          	0.602
MS.314         	8.365          	0.673
MS.315         	8.347          	0.413
MS.316         	8.332          	0.435
MS.317         	8.315          	0.634
MS.318         	8.297          	0.371
MS.319         	8.283          	0.379
MS.320         	8.265          	0.405
MS.321         	8.247          	0.363
MS.322         	8.233          	0.336
MS.323         	8.215          	0.489
MS.324         	8.2            	0.306
MS.325         	8.182          	0.314
MS.326         	8.167          	0.373
MS.327         	8.15           	0.419
MS.328         	8.135          	0.342
MS.329         	8.117          	0.314
MS.330         	8.102          	0.338
MS.331         	8.085          	0.328
MS.332         	8.07           	0.232
MS.333         	8.052          	0.298
MS.334         	8.037          	0.328
MS.335         	8.02           	0.232
MS.336         	8.005          	0.252
MS.337         	7.99           	0.226
MS.338         	7.972          	0.26
MS.339         	7.957          	0.252
MS.340         	7.94           	0.268
MS.341         	7.925          	0.228
MS.342         	7.91           	0.25
MS.343         	7.892          	0.226
MS.344         	7.878          	0.211
MS.345         	7.862          	0.234
MS.346         	7.847          	0.236
MS.347         	7.83           	0.228
MS.348         	7.815          	0.234
MS.349         	7.8            	0.207
MS.350         	7.785          	0.238
MS.351         	7.767          	0.209
MS.352         	7.753          	0.23
MS.353         	7.737          	0.23
MS.354         	7.722          	0.252
MS.355         	7.707          	0.211
MS.356         	7.69           	0.211
MS.357         	7.675          	0.226
MS.358         	7.66           	0.254
MS.359         	7.645          	0.23
MS.360         	7.63           	0.232
MS.361         	7.615          	0.209
MS.362         	7.6            	0.232
MS.363         	7.585          	0.214
MS.364         	7.57           	0.214
MS.365         	7.555          	0.228
MS.366         	7.537          	0.214
MS.367         	7.523          	0.209
MS.368         	7.507          	0.211
MS.369         	7.492          	0.228
MS.370         	7.477          	0.209
MS.371         	7.462          	0.214
MS.372         	7.447          	0.209
MS.373         	7.435          	0.209
MS.374         	7.42           	0.211
MS.375         	7.405          	0.216
MS.376         	7.39           	0.211
MS.377         	7.375          	0.119
MS.378         	7.36           	0.209
MS.379         	7.345          	0.207
MS.380         	7.33           	0.209
MS.381         	7.315          	0.211
MS.382         	7.302          	0.211
MS.383         	7.287          	0.119
MS.384         	7.273          	0.211
MS.385         	7.257          	0.209
MS.386         	7.242          	0.211
MS.387         	7.227          	0.211
MS.388         	7.215          	0.214
MS.389         	7.2            	0.207
MS.390         	7.185          	0.119
MS.391         	7.17           	0.119
MS.392         	7.157          	0.211
MS.393         	7.142          	0.214
MS.394         	7.128          	0.119
MS.395         	7.115          	0.06
MS.396         	7.1            	0.155
MS.397         	7.085          	0.209
MS.398         	7.072          	0.211
MS.399         	7.057          	0.052
MS.400         	7.043          	0.211
MS.401         	7.03           	0.058
MS.402         	7.015          	0.117
MS.403         	7              	0.155
MS.404         	6.987          	0.081
MS.405         	6.972          	0.115
MS.406         	6.96           	0.024
MS.407         	6.945          	0.062
MS.408         	6.932          	0.016
MS.409         	6.918          	0.058
MS.410         	6.902          	0.054
MS.411         	6.89           	0.022
MS.412         	6.875          	0.066
MS.413         	6.862          	0.058
MS.414         	6.847          	0.018
MS.415         	6.835          	0.064
MS.416         	6.822          	0.056
MS.417         	6.807          	0.058
MS.418         	6.795          	0.016
MS.419         	6.78           	0.062
MS.420         	6.767          	0.066
MS.421         	6.753          	0.02
MS.422         	6.74           	0.02
MS.423         	6.727          	0.022
MS.424         	6.712          	0.018
MS.425         	6.7            	0.064
MS.426         	6.685          	0.016
MS.427         	6.672          	0.062
MS.428         	6.66           	0.018
MS.429         	6.645          	0.026
MS.430         	6.632          	0.02
MS.431         	6.62           	0.02
MS.432         	6.608          	0.022
MS.433         	6.592          	0.022
MS.434         	6.58           	0.022
MS.435         	6.567          	0.022
MS.436         	6.555          	0.026
MS.437         	6.54           	0.024
MS.438         	6.527          	0.026
MS.439         	6.515          	0.026
MS.440         	6.503          	0.022
MS.441         	6.487          	0.02
MS.442         	6.475          	0.024
MS.443         	6.462          	0.022
MS.444         	6.45           	0.026
MS.445         	6.438          	0.022
MS.446         	6.425          	0.024
MS.447         	6.41           	0.022
MS.448         	6.398          	0.02
MS.449         	6.385          	0.022
MS.450         	6.372          	0.024
MS.451         	6.36           	0.02
MS.452         	6.347          	0.026
MS.453         	6.335          	0.02
MS.454         	6.322          	0.022
MS.455         	6.31           	0.022
MS.456         	6.297          	0.02
MS.457         	6.285          	0.026
MS.458         	6.273          	0.02
MS.459         	6.26           	0.022
MS.460         	6.247          	0.02
MS.461         	6.235          	0.018
MS.462         	6.222          	0.022
MS.463         	6.21           	0.026
MS.464         	6.197          	0.024
MS.465         	6.185          	0.02
MS.466         	6.172          	0.022
MS.467         	6.16           	0.022
MS.468         	6.148          	0.024
MS.469         	6.135          	0.024
MS.470         	6.122          	0.022
MS.471         	6.11           	0.02
MS.472         	6.097          	0.026
MS.473         	6.088          	0.024
MS.474         	6.075          	0.022
MS.475         	6.062          	0.02
MS.476         	6.05           	0.02
MS.477         	6.037          	0.02
MS.478         	6.025          	0.022
MS.479         	6.012          	0.022
MS.480         	6.003          	0.024
MS.481         	5.99           	0.018
MS.482         	5.977          	0.022
MS.483         	5.965          	0.02
MS.484         	5.955          	0.022
MS.485         	5.942          	0.022
MS.486         	5.93           	0.022
DERIVED EXCITABILITY VARIABLES
Program = QTracP 3/4/2020
Threshold method = 6 (optimised for CAP, using data for present condition only)
SR method = 1 (using actual data values)
6.                 	0.000               	Peak response\(mV)
9.                 	35.4                	Temperature ( C)
17.                	38                  	Age (years)
18.                	1                   	Sex (M=1, F=2)

EXTRA VARIABLES

MScPeak(mV) = 4.93
MScS5(mA) = 7.9
MScS50(mA) = 9.23
MScS95(mA) = 12.63
MScNSteps = 4
MScSteps(%) = 14
MScStepMax(%) = 6.2
MScD50 = 32
