File:              	C:\Qtrac\Data\Daniel M Sørensen\MScan multicentre study\Data from centres\Oxford\Processed data\ATC01215F.QZD
Name:              	UK.OXF.NC.6.2
Protocol:          	MSCAN-R2
Date:              	15/12/20
Start time:        	17:25:26
Age:               	36
Sex:               	F
Temperature:       	34.1
S/R sites:         	ADM
NC/disease:        	NC
Operator:          	AT
Comments:          	Uknar N ADM 2nd
M-SCAN DATA (7.1-1.2m)
Scanpts: 143, 148, 613, 635
Stim. (mA)     	Amp. (mV)
MS.1           	18             	7.601
MS.2           	18             	7.652
MS.3           	18             	7.605
MS.4           	18             	7.539
MS.5           	18             	7.477
MS.6           	18             	7.456
MS.7           	18             	7.481
MS.8           	18             	7.549
MS.9           	18             	7.509
MS.10          	18             	7.527
MS.11          	18             	7.628
MS.12          	18             	7.638
MS.13          	18             	7.688
MS.14          	18             	7.533
MS.15          	18             	7.626
MS.16          	18             	7.545
MS.17          	18             	7.537
MS.18          	18             	7.438
MS.19          	18             	7.493
MS.20          	18             	7.448
MS.21          	18             	7.561
MS.22          	18             	7.632
MS.23          	18             	7.609
MS.24          	17.927         	7.646
MS.25          	17.892         	7.696
MS.26          	17.858         	7.674
MS.27          	17.82          	7.666
MS.28          	17.785         	7.571
MS.29          	17.75          	7.444
MS.30          	17.715         	7.511
MS.31          	17.68          	7.499
MS.32          	17.642         	7.489
MS.33          	17.608         	7.543
MS.34          	17.573         	7.601
MS.35          	17.538         	7.68
MS.36          	17.503         	7.7
MS.37          	17.467         	7.511
MS.38          	17.432         	7.67
MS.39          	17.397         	7.46
MS.40          	17.362         	7.509
MS.41          	17.33          	7.517
MS.42          	17.295         	7.539
MS.43          	17.26          	7.501
MS.44          	17.225         	7.519
MS.45          	17.19          	7.575
MS.46          	17.157         	7.654
MS.47          	17.122         	7.67
MS.48          	17.087         	7.672
MS.49          	17.052         	7.66
MS.50          	17.02          	7.646
MS.51          	16.985         	7.553
MS.52          	16.952         	7.525
MS.53          	16.917         	7.517
MS.54          	16.885         	7.471
MS.55          	16.85          	7.426
MS.56          	16.817         	7.432
MS.57          	16.782         	7.44
MS.58          	16.75          	7.473
MS.59          	16.715         	7.487
MS.60          	16.682         	7.591
MS.61          	16.65          	7.515
MS.62          	16.615         	7.557
MS.63          	16.583         	7.618
MS.64          	16.55          	7.688
MS.65          	16.517         	7.618
MS.66          	16.483         	7.636
MS.67          	16.45          	7.638
MS.68          	16.417         	7.559
MS.69          	16.385         	7.601
MS.70          	16.352         	7.503
MS.71          	16.32          	7.503
MS.72          	16.288         	7.539
MS.73          	16.255         	7.448
MS.74          	16.222         	7.471
MS.75          	16.19          	7.483
MS.76          	16.157         	7.511
MS.77          	16.125         	7.511
MS.78          	16.092         	7.583
MS.79          	16.06          	7.565
MS.80          	16.028         	7.642
MS.81          	15.997         	7.66
MS.82          	15.965         	7.646
MS.83          	15.932         	7.682
MS.84          	15.9           	7.69
MS.85          	15.87          	7.684
MS.86          	15.837         	7.626
MS.87          	15.805         	7.612
MS.88          	15.775         	7.591
MS.89          	15.742         	7.529
MS.90          	15.71          	7.62
MS.91          	15.68          	7.493
MS.92          	15.648         	7.454
MS.93          	15.617         	7.466
MS.94          	15.585         	7.456
MS.95          	15.555         	7.46
MS.96          	15.523         	7.485
MS.97          	15.492         	7.513
MS.98          	15.462         	7.533
MS.99          	15.43          	7.577
MS.100         	15.4           	7.577
MS.101         	15.37          	7.652
MS.102         	15.337         	7.628
MS.103         	15.307         	7.656
MS.104         	15.277         	7.658
MS.105         	15.247         	7.628
MS.106         	15.217         	7.609
MS.107         	15.185         	7.573
MS.108         	15.155         	7.591
MS.109         	15.125         	7.503
MS.110         	15.095         	7.563
MS.111         	15.065         	7.46
MS.112         	15.035         	7.44
MS.113         	15.005         	7.475
MS.114         	14.975         	7.458
MS.115         	14.945         	7.489
MS.116         	14.915         	7.481
MS.117         	14.885         	7.523
MS.118         	14.855         	7.539
MS.119         	14.825         	7.601
MS.120         	14.795         	7.557
MS.121         	14.767         	7.585
MS.122         	14.737         	7.64
MS.123         	14.707         	7.638
MS.124         	14.677         	7.618
MS.125         	14.65          	7.581
MS.126         	14.62          	7.577
MS.127         	14.59          	7.543
MS.128         	14.562         	7.597
MS.129         	14.532         	7.454
MS.130         	14.502         	7.489
MS.131         	14.475         	7.4
MS.132         	14.445         	7.477
MS.133         	14.417         	7.372
MS.134         	14.387         	7.408
MS.135         	14.36          	7.442
MS.136         	14.33          	7.44
MS.137         	14.302         	7.499
MS.138         	14.273         	7.454
MS.139         	14.245         	7.479
MS.140         	14.215         	7.446
MS.141         	14.188         	7.535
MS.142         	14.16          	7.634
MS.143         	14.13          	7.458
MS.144         	14.102         	7.565
MS.145         	14.075         	7.593
MS.146         	14.047         	7.575
MS.147         	14.017         	7.577
MS.148         	13.99          	7.569
MS.149         	13.962         	7.541
MS.150         	13.935         	7.569
MS.151         	13.907         	7.559
MS.152         	13.88          	7.531
MS.153         	13.85          	7.499
MS.154         	13.822         	7.513
MS.155         	13.795         	7.487
MS.156         	13.767         	7.434
MS.157         	13.74          	7.483
MS.158         	13.712         	7.434
MS.159         	13.685         	7.442
MS.160         	13.657         	7.394
MS.161         	13.632         	7.41
MS.162         	13.605         	7.326
MS.163         	13.577         	7.366
MS.164         	13.55          	7.382
MS.165         	13.523         	7.374
MS.166         	13.495         	7.342
MS.167         	13.467         	7.378
MS.168         	13.443         	7.336
MS.169         	13.415         	7.374
MS.170         	13.387         	7.503
MS.171         	13.362         	7.249
MS.172         	13.335         	7.436
MS.173         	13.307         	7.275
MS.174         	13.282         	7.402
MS.175         	13.255         	7.388
MS.176         	13.227         	7.305
MS.177         	13.202         	7.352
MS.178         	13.175         	7.412
MS.179         	13.15          	7.523
MS.180         	13.122         	7.376
MS.181         	13.097         	7.352
MS.182         	13.07          	7.299
MS.183         	13.045         	7.299
MS.184         	13.017         	7.237
MS.185         	12.992         	7.291
MS.186         	12.967         	7.086
MS.187         	12.94          	7.156
MS.188         	12.915         	7.084
MS.189         	12.89          	7.154
MS.190         	12.862         	7.033
MS.191         	12.837         	7.128
MS.192         	12.812         	7.13
MS.193         	12.785         	7.116
MS.194         	12.76          	7.086
MS.195         	12.735         	7.015
MS.196         	12.71          	6.947
MS.197         	12.685         	6.973
MS.198         	12.66          	6.989
MS.199         	12.632         	7.044
MS.200         	12.608         	6.951
MS.201         	12.582         	7.062
MS.202         	12.557         	7.046
MS.203         	12.532         	6.975
MS.204         	12.507         	6.991
MS.205         	12.483         	7.058
MS.206         	12.457         	6.951
MS.207         	12.432         	7.044
MS.208         	12.407         	6.961
MS.209         	12.382         	7.017
MS.210         	12.36          	7.027
MS.211         	12.335         	7.064
MS.212         	12.31          	7.007
MS.213         	12.285         	7.039
MS.214         	12.26          	7.044
MS.215         	12.235         	6.929
MS.216         	12.212         	6.921
MS.217         	12.188         	6.975
MS.218         	12.162         	6.919
MS.219         	12.137         	6.999
MS.220         	12.115         	6.814
MS.221         	12.09          	6.79
MS.222         	12.065         	6.766
MS.223         	12.042         	6.782
MS.224         	12.017         	6.824
MS.225         	11.992         	6.661
MS.226         	11.97          	6.764
MS.227         	11.945         	6.663
MS.228         	11.922         	6.647
MS.229         	11.898         	6.641
MS.230         	11.875         	6.699
MS.231         	11.85          	6.629
MS.232         	11.827         	6.582
MS.233         	11.802         	6.6
MS.234         	11.78          	6.604
MS.235         	11.755         	6.625
MS.236         	11.733         	6.627
MS.237         	11.71          	6.665
MS.238         	11.685         	6.665
MS.239         	11.662         	6.731
MS.240         	11.64          	6.602
MS.241         	11.615         	6.663
MS.242         	11.592         	6.699
MS.243         	11.57          	6.653
MS.244         	11.547         	6.61
MS.245         	11.523         	6.544
MS.246         	11.5           	6.459
MS.247         	11.477         	6.627
MS.248         	11.455         	6.586
MS.249         	11.432         	6.625
MS.250         	11.407         	6.552
MS.251         	11.385         	6.576
MS.252         	11.363         	6.556
MS.253         	11.34          	6.621
MS.254         	11.318         	6.568
MS.255         	11.295         	6.512
MS.256         	11.273         	6.474
MS.257         	11.25          	6.461
MS.258         	11.227         	6.439
MS.259         	11.205         	6.421
MS.260         	11.182         	6.451
MS.261         	11.16          	6.32
MS.262         	11.137         	6.316
MS.263         	11.115         	6.232
MS.264         	11.092         	6.286
MS.265         	11.073         	6.034
MS.266         	11.05          	6.087
MS.267         	11.028         	6.163
MS.268         	11.005         	5.98
MS.269         	10.983         	5.966
MS.270         	10.962         	6.157
MS.271         	10.94          	6.036
MS.272         	10.917         	5.95
MS.273         	10.895         	6.175
MS.274         	10.875         	5.857
MS.275         	10.852         	5.801
MS.276         	10.83          	6.018
MS.277         	10.81          	5.692
MS.278         	10.787         	5.775
MS.279         	10.765         	5.831
MS.280         	10.745         	6.014
MS.281         	10.722         	5.95
MS.282         	10.702         	6.047
MS.283         	10.68          	5.859
MS.284         	10.657         	5.906
MS.285         	10.637         	5.815
MS.286         	10.615         	5.891
MS.287         	10.595         	5.579
MS.288         	10.573         	5.611
MS.289         	10.552         	5.694
MS.290         	10.532         	5.744
MS.291         	10.51          	5.577
MS.292         	10.49          	5.456
MS.293         	10.467         	5.456
MS.294         	10.448         	5.803
MS.295         	10.427         	5.315
MS.296         	10.405         	5.563
MS.297         	10.385         	5.65
MS.298         	10.365         	5.74
MS.299         	10.342         	5.928
MS.300         	10.323         	5.879
MS.301         	10.302         	5.615
MS.302         	10.282         	5.932
MS.303         	10.26          	5.857
MS.304         	10.24          	5.881
MS.305         	10.22          	5.817
MS.306         	10.2           	5.432
MS.307         	10.18          	5.269
MS.308         	10.16          	5.402
MS.309         	10.14          	5.193
MS.310         	10.117         	5.15
MS.311         	10.097         	5.154
MS.312         	10.077         	5.297
MS.313         	10.057         	4.896
MS.314         	10.037         	4.888
MS.315         	10.017         	4.435
MS.316         	9.997          	4.036
MS.317         	9.977          	4.461
MS.318         	9.957          	4.56
MS.319         	9.938          	5.114
MS.320         	9.917          	4.786
MS.321         	9.898          	4.878
MS.322         	9.877          	4.741
MS.323         	9.86           	4.399
MS.324         	9.84           	4.292
MS.325         	9.82           	4.266
MS.326         	9.8            	3.98
MS.327         	9.78           	4.373
MS.328         	9.76           	4.097
MS.329         	9.74           	3.64
MS.330         	9.722          	4.109
MS.331         	9.702          	3.646
MS.332         	9.682          	3.968
MS.333         	9.662          	4.016
MS.334         	9.645          	3.722
MS.335         	9.625          	3.771
MS.336         	9.605          	3.847
MS.337         	9.587          	3.291
MS.338         	9.568          	3.408
MS.339         	9.547          	3.303
MS.340         	9.53           	3.333
MS.341         	9.51           	3.621
MS.342         	9.49           	3.321
MS.343         	9.472          	3.436
MS.344         	9.452          	3.352
MS.345         	9.435          	3.168
MS.346         	9.415          	3.047
MS.347         	9.398          	3.072
MS.348         	9.377          	3.305
MS.349         	9.36           	3.198
MS.350         	9.34           	3.005
MS.351         	9.323          	2.745
MS.352         	9.302          	2.953
MS.353         	9.285          	2.759
MS.354         	9.265          	2.582
MS.355         	9.247          	2.78
MS.356         	9.23           	2.743
MS.357         	9.21           	2.52
MS.358         	9.193          	2.832
MS.359         	9.175          	2.983
MS.360         	9.155          	2.653
MS.361         	9.137          	2.576
MS.362         	9.12           	2.365
MS.363         	9.1            	2.349
MS.364         	9.082          	2.344
MS.365         	9.065          	2.391
MS.366         	9.047          	2.26
MS.367         	9.028          	2.471
MS.368         	9.01           	2.258
MS.369         	8.992          	2.33
MS.370         	8.975          	2.006
MS.371         	8.957          	2.107
MS.372         	8.938          	2.29
MS.373         	8.92           	2.201
MS.374         	8.903          	2.222
MS.375         	8.885          	2.165
MS.376         	8.867          	1.813
MS.377         	8.85           	1.998
MS.378         	8.832          	1.851
MS.379         	8.815          	1.98
MS.380         	8.797          	1.936
MS.381         	8.78           	1.907
MS.382         	8.762          	1.613
MS.383         	8.745          	1.684
MS.384         	8.727          	1.74
MS.385         	8.71           	1.837
MS.386         	8.693          	1.654
MS.387         	8.675          	1.573
MS.388         	8.658          	1.668
MS.389         	8.64           	1.468
MS.390         	8.622          	1.418
MS.391         	8.605          	1.426
MS.392         	8.587          	1.168
MS.393         	8.57           	1.434
MS.394         	8.552          	1.462
MS.395         	8.537          	1.269
MS.396         	8.52           	1.202
MS.397         	8.502          	1.247
MS.398         	8.485          	1.43
MS.399         	8.467          	1.229
MS.400         	8.452          	1.18
MS.401         	8.435          	1.2
MS.402         	8.417          	0.971
MS.403         	8.4            	1.227
MS.404         	8.385          	1.084
MS.405         	8.367          	0.9
MS.406         	8.35           	0.733
MS.407         	8.335          	1.07
MS.408         	8.318          	0.747
MS.409         	8.3            	0.86
MS.410         	8.285          	0.659
MS.411         	8.267          	0.878
MS.412         	8.252          	0.504
MS.413         	8.235          	0.757
MS.414         	8.217          	0.473
MS.415         	8.202          	0.453
MS.416         	8.185          	0.647
MS.417         	8.17           	0.495
MS.418         	8.153          	0.749
MS.419         	8.137          	0.761
MS.420         	8.12           	0.518
MS.421         	8.105          	0.536
MS.422         	8.087          	0.701
MS.423         	8.073          	0.57
MS.424         	8.055          	0.564
MS.425         	8.04           	0.419
MS.426         	8.023          	0.359
MS.427         	8.007          	0.336
MS.428         	7.992          	0.391
MS.429         	7.975          	0.395
MS.430         	7.96           	0.352
MS.431         	7.942          	0.383
MS.432         	7.927          	0.443
MS.433         	7.912          	0.564
MS.434         	7.895          	0.361
MS.435         	7.88           	0.508
MS.436         	7.865          	0.415
MS.437         	7.85           	0.29
MS.438         	7.832          	0.344
MS.439         	7.817          	0.361
MS.440         	7.802          	0.528
MS.441         	7.787          	0.304
MS.442         	7.77           	0.304
MS.443         	7.755          	0.411
MS.444         	7.74           	0.278
MS.445         	7.725          	0.336
MS.446         	7.71           	0.292
MS.447         	7.692          	0.276
MS.448         	7.677          	0.292
MS.449         	7.662          	0.258
MS.450         	7.648          	0.264
MS.451         	7.632          	0.226
MS.452         	7.617          	0.218
MS.453         	7.602          	0.189
MS.454         	7.587          	0.258
MS.455         	7.572          	0.189
MS.456         	7.555          	0.209
MS.457         	7.54           	0.187
MS.458         	7.525          	0.165
MS.459         	7.51           	0.159
MS.460         	7.495          	0.199
MS.461         	7.48           	0.201
MS.462         	7.465          	0.167
MS.463         	7.45           	0.171
MS.464         	7.438          	0.151
MS.465         	7.422          	0.141
MS.466         	7.407          	0.137
MS.467         	7.392          	0.157
MS.468         	7.378          	0.139
MS.469         	7.362          	0.147
MS.470         	7.347          	0.141
MS.471         	7.332          	0.139
MS.472         	7.317          	0.113
MS.473         	7.302          	0.103
MS.474         	7.29           	0.129
MS.475         	7.275          	0.117
MS.476         	7.26           	0.113
MS.477         	7.245          	0.097
MS.478         	7.23           	0.095
MS.479         	7.217          	0.105
MS.480         	7.202          	0.097
MS.481         	7.188          	0.075
MS.482         	7.172          	0.083
MS.483         	7.16           	0.046
MS.484         	7.145          	0.109
MS.485         	7.13           	0.083
MS.486         	7.115          	0.083
MS.487         	7.102          	0.075
MS.488         	7.087          	0.081
MS.489         	7.072          	0.052
MS.490         	7.06           	0.075
MS.491         	7.045          	0.046
MS.492         	7.032          	0.062
MS.493         	7.017          	0.06
MS.494         	7.003          	0.054
MS.495         	6.99           	0.048
MS.496         	6.975          	0.085
MS.497         	6.962          	0.085
MS.498         	6.947          	0.046
MS.499         	6.932          	0.077
MS.500         	6.92           	0.048
