File:              	C:\Qtrac\Data\Daniel M Sørensen\MScan multicentre study\Data from centres\Oxford\Processed data\ATC01215C.QZD
Name:              	UK.OXF.NC.8.2
Protocol:          	MSCAN-R2
Date:              	15/12/20
Start time:        	15:27:59
Age:               	30
Sex:               	F
Temperature:       	35
S/R sites:         	ADM
NC/disease:        	NC
Operator:          	AT
Comments:          	Ulnar N ADM 2nd
M-SCAN DATA (5.4-0.8m)
Scanpts: 5, 16, 484, 506
Stim. (mA)     	Amp. (mV)
MS.1           	19.5           	5.557
MS.2           	19.5           	5.555
MS.3           	19.5           	5.561
MS.4           	19.5           	5.547
MS.5           	19.5           	5.545
MS.6           	19.5           	5.547
MS.7           	19.5           	5.553
MS.8           	19.5           	5.541
MS.9           	19.5           	5.547
MS.10          	19.5           	5.553
MS.11          	19.5           	5.553
MS.12          	19.5           	5.545
MS.13          	19.5           	5.545
MS.14          	19.5           	5.545
MS.15          	19.5           	5.545
MS.16          	19.5           	5.549
MS.17          	19.5           	5.553
MS.18          	19.5           	5.539
MS.19          	19.5           	5.543
MS.20          	19.5           	5.531
MS.21          	19.5           	5.531
MS.22          	19.5           	5.549
MS.23          	19.5           	5.537
MS.24          	19.422         	5.545
MS.25          	19.382         	5.531
MS.26          	19.345         	5.535
MS.27          	19.305         	5.531
MS.28          	19.267         	5.517
MS.29          	19.23          	5.507
MS.30          	19.19          	5.525
MS.31          	19.153         	5.509
MS.32          	19.115         	5.517
MS.33          	19.075         	5.499
MS.34          	19.038         	5.517
MS.35          	19             	5.505
MS.36          	18.962         	5.521
MS.37          	18.922         	5.501
MS.38          	18.885         	5.517
MS.39          	18.847         	5.499
MS.40          	18.81          	5.521
MS.41          	18.772         	5.487
MS.42          	18.735         	5.505
MS.43          	18.698         	5.513
MS.44          	18.66          	5.523
MS.45          	18.622         	5.499
MS.46          	18.585         	5.485
MS.47          	18.55          	5.501
MS.48          	18.512         	5.477
MS.49          	18.475         	5.483
MS.50          	18.438         	5.382
MS.51          	18.4           	5.507
MS.52          	18.365         	5.485
MS.53          	18.327         	5.479
MS.54          	18.29          	5.384
MS.55          	18.255         	5.501
MS.56          	18.217         	5.499
MS.57          	18.182         	5.456
MS.58          	18.145         	5.47
MS.59          	18.11          	5.374
MS.60          	18.073         	5.362
MS.61          	18.038         	5.386
MS.62          	18             	5.468
MS.63          	17.965         	5.368
MS.64          	17.93          	5.366
MS.65          	17.892         	5.34
MS.66          	17.858         	5.346
MS.67          	17.823         	5.336
MS.68          	17.785         	5.454
MS.69          	17.75          	5.34
MS.70          	17.715         	5.358
MS.71          	17.68          	5.338
MS.72          	17.645         	5.329
MS.73          	17.61          	5.321
MS.74          	17.575         	5.325
MS.75          	17.538         	5.305
MS.76          	17.503         	5.34
MS.77          	17.467         	5.317
MS.78          	17.435         	5.327
MS.79          	17.4           	5.309
MS.80          	17.365         	5.323
MS.81          	17.33          	5.275
MS.82          	17.295         	5.221
MS.83          	17.26          	5.259
MS.84          	17.225         	5.263
MS.85          	17.192         	5.233
MS.86          	17.157         	5.299
MS.87          	17.122         	5.229
MS.88          	17.087         	5.213
MS.89          	17.055         	5.18
MS.90          	17.02          	5.207
MS.91          	16.987         	5.261
MS.92          	16.952         	5.245
MS.93          	16.917         	5.174
MS.94          	16.885         	5.138
MS.95          	16.85          	5.168
MS.96          	16.817         	5.146
MS.97          	16.782         	5.104
MS.98          	16.75          	5.07
MS.99          	16.717         	5.088
MS.100         	16.682         	5.094
MS.101         	16.65          	5.039
MS.102         	16.618         	5.06
MS.103         	16.583         	4.927
MS.104         	16.55          	4.917
MS.105         	16.517         	4.933
MS.106         	16.485         	4.86
MS.107         	16.452         	4.906
MS.108         	16.417         	4.9
MS.109         	16.385         	4.798
MS.110         	16.352         	4.872
MS.111         	16.32          	4.858
MS.112         	16.288         	4.84
MS.113         	16.255         	4.82
MS.114         	16.222         	4.772
MS.115         	16.19          	4.786
MS.116         	16.157         	4.784
MS.117         	16.125         	4.751
MS.118         	16.092         	4.721
MS.119         	16.062         	4.707
MS.120         	16.03          	4.721
MS.121         	15.997         	4.691
MS.122         	15.965         	4.61
MS.123         	15.932         	4.604
MS.124         	15.902         	4.59
MS.125         	15.87          	4.498
MS.126         	15.837         	4.52
MS.127         	15.807         	4.381
MS.128         	15.775         	4.49
MS.129         	15.742         	4.588
MS.130         	15.712         	4.339
MS.131         	15.68          	4.248
MS.132         	15.65          	4.272
MS.133         	15.617         	4.282
MS.134         	15.587         	4.198
MS.135         	15.555         	4.103
MS.136         	15.525         	4.224
MS.137         	15.492         	4.236
MS.138         	15.462         	4.153
MS.139         	15.432         	3.952
MS.140         	15.4           	4.087
MS.141         	15.37          	3.928
MS.142         	15.34          	4.008
MS.143         	15.307         	3.907
MS.144         	15.277         	3.847
MS.145         	15.247         	3.785
MS.146         	15.217         	3.956
MS.147         	15.188         	3.887
MS.148         	15.155         	3.903
MS.149         	15.125         	3.785
MS.150         	15.095         	3.613
MS.151         	15.065         	3.531
MS.152         	15.035         	3.539
MS.153         	15.005         	3.599
MS.154         	14.975         	3.605
MS.155         	14.945         	3.491
MS.156         	14.915         	3.549
MS.157         	14.885         	3.484
MS.158         	14.855         	3.648
MS.159         	14.827         	3.519
MS.160         	14.797         	3.436
MS.161         	14.767         	3.42
MS.162         	14.737         	3.305
MS.163         	14.707         	3.39
MS.164         	14.68          	3.424
MS.165         	14.65          	3.376
MS.166         	14.62          	3.348
MS.167         	14.59          	3.287
MS.168         	14.562         	3.303
MS.169         	14.532         	3.311
MS.170         	14.505         	3.255
MS.171         	14.475         	3.231
MS.172         	14.445         	3.13
MS.173         	14.417         	3.164
MS.174         	14.387         	3.223
MS.175         	14.36          	3.209
MS.176         	14.33          	3.192
MS.177         	14.302         	3.037
MS.178         	14.273         	2.973
MS.179         	14.245         	2.967
MS.180         	14.217         	3.055
MS.181         	14.188         	2.957
MS.182         	14.16          	2.888
MS.183         	14.132         	2.771
MS.184         	14.102         	2.917
MS.185         	14.075         	2.983
MS.186         	14.047         	2.89
MS.187         	14.02          	2.798
MS.188         	13.99          	2.848
MS.189         	13.962         	2.892
MS.190         	13.935         	2.769
MS.191         	13.907         	2.653
MS.192         	13.88          	2.637
MS.193         	13.852         	2.961
MS.194         	13.825         	2.524
MS.195         	13.797         	2.592
MS.196         	13.77          	2.54
MS.197         	13.742         	2.616
MS.198         	13.715         	2.504
MS.199         	13.688         	2.425
MS.200         	13.66          	2.554
MS.201         	13.632         	2.457
MS.202         	13.605         	2.532
MS.203         	13.577         	2.445
MS.204         	13.55          	2.421
MS.205         	13.523         	2.393
MS.206         	13.495         	2.455
MS.207         	13.47          	2.338
MS.208         	13.443         	2.332
MS.209         	13.415         	2.346
MS.210         	13.387         	2.282
MS.211         	13.362         	2.332
MS.212         	13.335         	2.316
MS.213         	13.307         	2.079
MS.214         	13.282         	2.286
MS.215         	13.255         	1.966
MS.216         	13.23          	2.322
MS.217         	13.202         	1.96
MS.218         	13.175         	2.022
MS.219         	13.15          	2.328
MS.220         	13.122         	2.23
MS.221         	13.097         	1.988
MS.222         	13.07          	2.248
MS.223         	13.045         	1.895
MS.224         	13.02          	2.109
MS.225         	12.992         	1.726
MS.226         	12.967         	1.781
MS.227         	12.94          	1.791
MS.228         	12.915         	1.837
MS.229         	12.89          	1.984
MS.230         	12.862         	1.742
MS.231         	12.837         	1.754
MS.232         	12.812         	1.785
MS.233         	12.787         	1.776
MS.234         	12.76          	1.714
MS.235         	12.735         	1.64
MS.236         	12.71          	1.686
MS.237         	12.685         	1.704
MS.238         	12.66          	1.875
MS.239         	12.635         	1.656
MS.240         	12.61          	1.64
MS.241         	12.585         	1.642
MS.242         	12.557         	1.585
MS.243         	12.532         	1.587
MS.244         	12.507         	1.7
MS.245         	12.483         	1.525
MS.246         	12.457         	1.505
MS.247         	12.432         	1.501
MS.248         	12.41          	1.519
MS.249         	12.385         	1.48
MS.250         	12.36          	1.297
MS.251         	12.335         	1.229
MS.252         	12.31          	1.474
MS.253         	12.285         	1.305
MS.254         	12.26          	1.18
MS.255         	12.238         	1.462
MS.256         	12.212         	1.16
MS.257         	12.188         	1.148
MS.258         	12.162         	1.223
MS.259         	12.14          	0.987
MS.260         	12.115         	1.128
MS.261         	12.09          	1.068
MS.262         	12.065         	1.182
MS.263         	12.042         	1.045
MS.264         	12.017         	1.033
MS.265         	11.995         	1.106
MS.266         	11.97          	0.927
MS.267         	11.945         	0.933
MS.268         	11.922         	0.927
MS.269         	11.898         	0.955
MS.270         	11.875         	0.92
MS.271         	11.85          	0.937
MS.272         	11.827         	0.965
MS.273         	11.802         	0.965
MS.274         	11.78          	0.963
MS.275         	11.757         	0.959
MS.276         	11.733         	0.878
MS.277         	11.71          	0.927
MS.278         	11.685         	0.927
MS.279         	11.662         	0.927
MS.280         	11.64          	0.922
MS.281         	11.617         	0.91
MS.282         	11.592         	0.786
MS.283         	11.57          	0.794
MS.284         	11.547         	0.874
MS.285         	11.525         	0.804
MS.286         	11.5           	0.916
MS.287         	11.477         	0.781
MS.288         	11.455         	0.777
MS.289         	11.432         	0.792
MS.290         	11.41          	0.804
MS.291         	11.387         	0.747
MS.292         	11.363         	0.804
MS.293         	11.34          	0.802
MS.294         	11.318         	0.84
MS.295         	11.295         	0.771
MS.296         	11.273         	0.779
MS.297         	11.25          	0.784
MS.298         	11.227         	0.896
MS.299         	11.205         	0.792
MS.300         	11.182         	0.798
MS.301         	11.16          	0.759
MS.302         	11.137         	0.8
MS.303         	11.117         	0.939
MS.304         	11.095         	0.665
MS.305         	11.073         	0.749
MS.306         	11.05          	0.784
MS.307         	11.028         	0.786
MS.308         	11.005         	0.721
MS.309         	10.983         	0.725
MS.310         	10.962         	0.733
MS.311         	10.94          	0.8
MS.312         	10.917         	0.673
MS.313         	10.895         	0.578
MS.314         	10.875         	0.318
MS.315         	10.852         	0.777
MS.316         	10.83          	0.423
MS.317         	10.81          	0.636
MS.318         	10.787         	0.401
MS.319         	10.765         	0.463
MS.320         	10.745         	0.57
MS.321         	10.722         	0.584
MS.322         	10.702         	0.653
MS.323         	10.68          	0.318
MS.324         	10.66          	0.626
MS.325         	10.637         	0.234
MS.326         	10.617         	0.449
MS.327         	10.595         	0.52
MS.328         	10.575         	0.508
MS.329         	10.552         	0.314
MS.330         	10.532         	0.232
MS.331         	10.51          	0.234
MS.332         	10.49          	0.268
MS.333         	10.47          	0.286
MS.334         	10.448         	0.25
MS.335         	10.427         	0.23
MS.336         	10.407         	0.236
MS.337         	10.385         	0.284
MS.338         	10.365         	0.244
MS.339         	10.345         	0.246
MS.340         	10.323         	0.24
MS.341         	10.302         	0.236
MS.342         	10.282         	0.254
MS.343         	10.262         	0.199
MS.344         	10.24          	0.201
MS.345         	10.22          	0.191
MS.346         	10.2           	0.236
MS.347         	10.18          	0.189
MS.348         	10.16          	0.193
MS.349         	10.14          	0.193
MS.350         	10.12          	0.191
MS.351         	10.097         	0.187
MS.352         	10.077         	0.185
MS.353         	10.057         	0.151
MS.354         	10.037         	0.159
MS.355         	10.017         	0.191
MS.356         	9.997          	0.179
MS.357         	9.977          	0.149
MS.358         	9.957          	0.191
MS.359         	9.938          	0.161
MS.360         	9.917          	0.193
MS.361         	9.9            	0.163
MS.362         	9.88           	0.155
MS.363         	9.86           	0.155
MS.364         	9.84           	0.151
MS.365         	9.82           	0.157
MS.366         	9.8            	0.153
MS.367         	9.78           	0.151
MS.368         	9.76           	0.157
MS.369         	9.742          	0.155
MS.370         	9.722          	0.157
MS.371         	9.702          	0.161
MS.372         	9.682          	0.147
MS.373         	9.665          	0.151
MS.374         	9.645          	0.147
MS.375         	9.625          	0.141
MS.376         	9.605          	0.155
MS.377         	9.587          	0.143
MS.378         	9.568          	0.149
MS.379         	9.55           	0.151
MS.380         	9.53           	0.159
MS.381         	9.51           	0.153
MS.382         	9.492          	0.143
MS.383         	9.472          	0.143
MS.384         	9.452          	0.159
MS.385         	9.435          	0.153
MS.386         	9.415          	0.139
MS.387         	9.398          	0.143
MS.388         	9.377          	0.143
MS.389         	9.36           	0.149
MS.390         	9.34           	0.147
MS.391         	9.323          	0.097
MS.392         	9.302          	0.145
MS.393         	9.285          	0.093
MS.394         	9.267          	0.145
MS.395         	9.247          	0.141
MS.396         	9.23           	0.141
MS.397         	9.21           	0.095
MS.398         	9.193          	0.097
MS.399         	9.175          	0.097
MS.400         	9.155          	0.095
MS.401         	9.137          	0.095
MS.402         	9.12           	0.145
MS.403         	9.1            	0.095
MS.404         	9.082          	0.097
MS.405         	9.065          	0.093
MS.406         	9.047          	0.095
MS.407         	9.028          	0.062
MS.408         	9.01           	0.141
MS.409         	8.992          	0.097
MS.410         	8.975          	0.143
MS.411         	8.957          	0.141
MS.412         	8.94           	0.091
MS.413         	8.92           	0.093
MS.414         	8.903          	0.145
MS.415         	8.885          	0.095
MS.416         	8.867          	0.064
MS.417         	8.85           	0.095
MS.418         	8.832          	0.093
MS.419         	8.815          	0.06
MS.420         	8.797          	0.075
MS.421         	8.78           	0.143
MS.422         	8.762          	0.095
MS.423         	8.745          	0.052
MS.424         	8.727          	0.062
MS.425         	8.71           	0.044
MS.426         	8.693          	0.066
MS.427         	8.675          	0.02
MS.428         	8.658          	0.095
MS.429         	8.64           	0.024
MS.430         	8.622          	0.058
MS.431         	8.605          	0.054
MS.432         	8.587          	0.028
MS.433         	8.57           	0.026
MS.434         	8.555          	0.026
MS.435         	8.537          	0.012
MS.436         	8.52           	0.093
MS.437         	8.502          	0.028
MS.438         	8.485          	0.016
MS.439         	8.47           	0.01
MS.440         	8.452          	0.028
MS.441         	8.435          	0.042
MS.442         	8.417          	0.054
MS.443         	8.403          	0.01
MS.444         	8.385          	0.018
MS.445         	8.367          	0.01
MS.446         	8.35           	0.01
MS.447         	8.335          	0.006
MS.448         	8.318          	0.012
MS.449         	8.302          	0.014
MS.450         	8.285          	0.006
MS.451         	8.267          	0.008
MS.452         	8.252          	0.008
MS.453         	8.235          	0.004
MS.454         	8.217          	0.006
MS.455         	8.202          	0.014
MS.456         	8.185          	0.01
MS.457         	8.17           	0.01
MS.458         	8.153          	0.004
MS.459         	8.137          	0.006
MS.460         	8.12           	0.006
MS.461         	8.105          	0.006
MS.462         	8.087          	0.01
MS.463         	8.073          	0.006
MS.464         	8.055          	0.008
MS.465         	8.04           	0.012
MS.466         	8.025          	0.016
MS.467         	8.007          	0.01
MS.468         	7.992          	0.016
MS.469         	7.975          	0.014
MS.470         	7.96           	0.014
MS.471         	7.945          	0.014
MS.472         	7.927          	0.012
MS.473         	7.912          	0.012
MS.474         	7.898          	0.012
MS.475         	7.88           	0.018
MS.476         	7.865          	0.016
MS.477         	7.85           	0.01
MS.478         	7.832          	0.012
MS.479         	7.817          	0.014
MS.480         	7.802          	0.014
MS.481         	7.787          	0.012
MS.482         	7.77           	0.012
MS.483         	7.755          	0.02
MS.484         	7.74           	0.012
MS.485         	7.725          	0.02
MS.486         	7.71           	0.01
MS.487         	7.695          	0.012
MS.488         	7.677          	0.016
MS.489         	7.662          	0.018
MS.490         	7.648          	0.018
MS.491         	7.632          	0.016
MS.492         	7.617          	0.016
MS.493         	7.602          	0.014
MS.494         	7.587          	0.016
MS.495         	7.572          	0.014
MS.496         	7.557          	0.016
MS.497         	7.543          	0.016
MS.498         	7.527          	0.012
MS.499         	7.512          	0.014
MS.500         	7.497          	0.018
MS.501         	7.482          	0.01
