File:              	C:\Qtrac\Data\Daniel M Sørensen\MScan multicentre study\Data from centres\Oxford\Processed data\ATC01214E.QZD
Name:              	UK.OXF.NC.5.2
Protocol:          	MSCAN-R2
Date:              	14/12/20
Start time:        	12:44:25
Age:               	48
Sex:               	F
Temperature:       	34.3
S/R sites:         	ADM
NC/disease:        	NC
Operator:          	AT
Comments:          	Ulnar N ADM 2nd
M-SCAN DATA (5.7-1.1m)
Scanpts: 60, 65, 437, 456
Stim. (mA)     	Amp. (mV)
MS.1           	21.5           	4.455
MS.2           	21.5           	4.435
MS.3           	21.5           	4.471
MS.4           	21.5           	4.512
MS.5           	21.5           	4.399
MS.6           	21.5           	4.413
MS.7           	21.5           	4.206
MS.8           	21.5           	4.353
MS.9           	21.5           	4.063
MS.10          	21.5           	4.008
MS.11          	21.5           	4.046
MS.12          	21.5           	4.004
MS.13          	21.5           	4.117
MS.14          	21.5           	4.036
MS.15          	21.5           	4.087
MS.16          	21.5           	4.155
MS.17          	21.5           	4.095
MS.18          	21.5           	4.085
MS.19          	21.5           	4.036
MS.20          	21.5           	4.044
MS.21          	21.5           	4.006
MS.22          	21.5           	3.964
MS.23          	21.5           	3.934
MS.24          	21.415         	4.006
MS.25          	21.372         	3.952
MS.26          	21.327         	4.044
MS.27          	21.285         	3.914
MS.28          	21.243         	3.883
MS.29          	21.2           	3.863
MS.30          	21.157         	3.855
MS.31          	21.118         	3.799
MS.32          	21.075         	3.801
MS.33          	21.032         	3.768
MS.34          	20.99          	3.595
MS.35          	20.948         	3.632
MS.36          	20.907         	3.619
MS.37          	20.865         	3.569
MS.38          	20.823         	3.563
MS.39          	20.78          	3.547
MS.40          	20.74          	3.517
MS.41          	20.698         	3.555
MS.42          	20.657         	3.593
MS.43          	20.615         	3.484
MS.44          	20.575         	3.527
MS.45          	20.532         	3.541
MS.46          	20.493         	3.497
MS.47          	20.452         	3.499
MS.48          	20.41          	3.47
MS.49          	20.37          	3.513
MS.50          	20.33          	3.416
MS.51          	20.288         	3.301
MS.52          	20.247         	3.382
MS.53          	20.208         	3.329
MS.54          	20.167         	3.378
MS.55          	20.127         	3.414
MS.56          	20.087         	3.285
MS.57          	20.047         	3.325
MS.58          	20.007         	3.39
MS.59          	19.967         	3.412
MS.60          	19.927         	3.396
MS.61          	19.887         	3.372
MS.62          	19.847         	3.45
MS.63          	19.807         	3.41
MS.64          	19.767         	3.45
MS.65          	19.727         	3.436
MS.66          	19.69          	3.341
MS.67          	19.65          	3.386
MS.68          	19.61          	3.378
MS.69          	19.57          	3.225
MS.70          	19.532         	3.291
MS.71          	19.493         	3.271
MS.72          	19.455         	3.297
MS.73          	19.415         	3.233
MS.74          	19.377         	3.211
MS.75          	19.337         	3.245
MS.76          	19.3           	3.319
MS.77          	19.26          	3.299
MS.78          	19.222         	3.229
MS.79          	19.182         	3.144
MS.80          	19.145         	3.285
MS.81          	19.108         	3.132
MS.82          	19.067         	3.11
MS.83          	19.03          	3.17
MS.84          	18.993         	3.1
MS.85          	18.955         	3.203
MS.86          	18.917         	3.09
MS.87          	18.88          	3.023
MS.88          	18.842         	3.06
MS.89          	18.802         	3.021
MS.90          	18.765         	3.009
MS.91          	18.727         	3.033
MS.92          	18.69          	2.953
MS.93          	18.655         	2.999
MS.94          	18.618         	2.923
MS.95          	18.58          	2.961
MS.96          	18.542         	2.927
MS.97          	18.505         	2.949
MS.98          	18.467         	2.979
MS.99          	18.432         	2.86
MS.100         	18.395         	2.864
MS.101         	18.358         	2.8
MS.102         	18.32          	2.906
MS.103         	18.285         	2.846
MS.104         	18.247         	2.767
MS.105         	18.212         	2.806
MS.106         	18.175         	2.941
MS.107         	18.137         	2.822
MS.108         	18.102         	2.878
MS.109         	18.067         	2.82
MS.110         	18.03          	2.846
MS.111         	17.995         	2.705
MS.112         	17.958         	2.729
MS.113         	17.922         	2.828
MS.114         	17.887         	2.691
MS.115         	17.85          	2.711
MS.116         	17.815         	2.639
MS.117         	17.78          	2.653
MS.118         	17.745         	2.647
MS.119         	17.708         	2.683
MS.120         	17.672         	2.663
MS.121         	17.637         	2.713
MS.122         	17.602         	2.624
MS.123         	17.567         	2.626
MS.124         	17.532         	2.586
MS.125         	17.497         	2.592
MS.126         	17.462         	2.608
MS.127         	17.427         	2.552
MS.128         	17.392         	2.622
MS.129         	17.358         	2.604
MS.130         	17.323         	2.532
MS.131         	17.288         	2.592
MS.132         	17.255         	2.522
MS.133         	17.22          	2.538
MS.134         	17.185         	2.596
MS.135         	17.15          	2.536
MS.136         	17.118         	2.522
MS.137         	17.083         	2.546
MS.138         	17.047         	2.431
MS.139         	17.015         	2.467
MS.140         	16.98          	2.403
MS.141         	16.948         	2.312
MS.142         	16.913         	2.34
MS.143         	16.878         	2.443
MS.144         	16.845         	2.487
MS.145         	16.812         	2.457
MS.146         	16.778         	2.383
MS.147         	16.745         	2.367
MS.148         	16.71          	2.326
MS.149         	16.677         	2.365
MS.150         	16.645         	2.322
MS.151         	16.61          	2.302
MS.152         	16.577         	2.26
MS.153         	16.545         	2.246
MS.154         	16.512         	2.298
MS.155         	16.477         	2.367
MS.156         	16.445         	2.379
MS.157         	16.413         	2.258
MS.158         	16.38          	2.256
MS.159         	16.347         	2.214
MS.160         	16.315         	2.206
MS.161         	16.282         	2.153
MS.162         	16.25          	2.199
MS.163         	16.217         	2.153
MS.164         	16.185         	2.028
MS.165         	16.153         	2.091
MS.166         	16.12          	2.22
MS.167         	16.087         	1.994
MS.168         	16.055         	1.825
MS.169         	16.022         	1.994
MS.170         	15.992         	1.907
MS.171         	15.96          	1.968
MS.172         	15.927         	1.907
MS.173         	15.895         	1.938
MS.174         	15.865         	1.966
MS.175         	15.832         	1.793
MS.176         	15.8           	1.857
MS.177         	15.77          	1.795
MS.178         	15.737         	1.843
MS.179         	15.705         	1.799
MS.180         	15.675         	1.752
MS.181         	15.642         	1.857
MS.182         	15.612         	1.668
MS.183         	15.58          	1.702
MS.184         	15.55          	1.549
MS.185         	15.52          	1.452
MS.186         	15.487         	1.432
MS.187         	15.457         	1.446
MS.188         	15.425         	1.428
MS.189         	15.395         	1.49
MS.190         	15.365         	1.124
MS.191         	15.332         	1.281
MS.192         	15.302         	1.265
MS.193         	15.273         	1.39
MS.194         	15.242         	1.124
MS.195         	15.212         	1.337
MS.196         	15.18          	1.196
MS.197         	15.15          	1.384
MS.198         	15.12          	1.241
MS.199         	15.09          	1.092
MS.200         	15.06          	1.08
MS.201         	15.03          	1.116
MS.202         	15             	1.088
MS.203         	14.97          	1.076
MS.204         	14.94          	1.116
MS.205         	14.91          	1.021
MS.206         	14.88          	1.011
MS.207         	14.85          	0.997
MS.208         	14.82          	0.816
MS.209         	14.792         	0.89
MS.210         	14.762         	1.009
MS.211         	14.733         	1.045
MS.212         	14.702         	0.975
MS.213         	14.672         	0.882
MS.214         	14.645         	0.886
MS.215         	14.615         	0.937
MS.216         	14.585         	0.904
MS.217         	14.557         	0.888
MS.218         	14.527         	0.838
MS.219         	14.497         	0.876
MS.220         	14.47          	0.84
MS.221         	14.44          	0.955
MS.222         	14.412         	0.848
MS.223         	14.382         	0.681
MS.224         	14.355         	0.667
MS.225         	14.325         	0.784
MS.226         	14.297         	0.866
MS.227         	14.267         	0.622
MS.228         	14.24          	0.85
MS.229         	14.212         	0.57
MS.230         	14.182         	0.649
MS.231         	14.155         	0.685
MS.232         	14.127         	0.663
MS.233         	14.097         	0.564
MS.234         	14.07          	0.51
MS.235         	14.042         	0.604
MS.236         	14.015         	0.645
MS.237         	13.985         	0.455
MS.238         	13.957         	0.57
MS.239         	13.93          	0.634
MS.240         	13.903         	0.522
MS.241         	13.875         	0.483
MS.242         	13.847         	0.564
MS.243         	13.82          	0.491
MS.244         	13.792         	0.473
MS.245         	13.765         	0.435
MS.246         	13.737         	0.497
MS.247         	13.71          	0.489
MS.248         	13.682         	0.497
MS.249         	13.655         	0.427
MS.250         	13.627         	0.413
MS.251         	13.6           	0.479
MS.252         	13.572         	0.427
MS.253         	13.545         	0.483
MS.254         	13.517         	0.383
MS.255         	13.492         	0.407
MS.256         	13.465         	0.445
MS.257         	13.438         	0.381
MS.258         	13.41          	0.361
MS.259         	13.385         	0.367
MS.260         	13.358         	0.371
MS.261         	13.33          	0.359
MS.262         	13.305         	0.344
MS.263         	13.278         	0.379
MS.264         	13.25          	0.284
MS.265         	13.225         	0.33
MS.266         	13.197         	0.363
MS.267         	13.172         	0.246
MS.268         	13.145         	0.296
MS.269         	13.12          	0.357
MS.270         	13.092         	0.29
MS.271         	13.068         	0.322
MS.272         	13.04          	0.284
MS.273         	13.015         	0.316
MS.274         	12.987         	0.296
MS.275         	12.962         	0.286
MS.276         	12.938         	0.282
MS.277         	12.91          	0.316
MS.278         	12.885         	0.185
MS.279         	12.86          	0.246
MS.280         	12.832         	0.209
MS.281         	12.807         	0.246
MS.282         	12.782         	0.179
MS.283         	12.757         	0.195
MS.284         	12.73          	0.189
MS.285         	12.705         	0.23
MS.286         	12.68          	0.103
MS.287         	12.655         	0.179
MS.288         	12.63          	0.115
MS.289         	12.605         	0.083
MS.290         	12.58          	0.201
MS.291         	12.555         	0.111
MS.292         	12.53          	0.103
MS.293         	12.505         	0.113
MS.294         	12.48          	0.171
MS.295         	12.455         	0.111
MS.296         	12.43          	0.149
MS.297         	12.405         	0.089
MS.298         	12.38          	0.147
MS.299         	12.355         	0.161
MS.300         	12.33          	0.087
MS.301         	12.305         	0.068
MS.302         	12.28          	0.153
MS.303         	12.257         	0.159
MS.304         	12.233         	0.139
MS.305         	12.207         	0.087
MS.306         	12.182         	0.068
MS.307         	12.157         	0.07
MS.308         	12.135         	0.07
MS.309         	12.11          	0.073
MS.310         	12.085         	0.064
MS.311         	12.062         	0.066
MS.312         	12.037         	0.073
MS.313         	12.012         	0.068
MS.314         	11.99          	0.07
MS.315         	11.965         	0.073
MS.316         	11.943         	0.07
MS.317         	11.917         	0.066
MS.318         	11.895         	0.075
MS.319         	11.87          	0.073
MS.320         	11.847         	0.058
MS.321         	11.822         	0.07
MS.322         	11.8           	0.048
MS.323         	11.775         	0.07
MS.324         	11.752         	0.048
MS.325         	11.73          	0.068
MS.326         	11.705         	0.077
MS.327         	11.682         	0.07
MS.328         	11.657         	0.048
MS.329         	11.635         	0.06
MS.330         	11.613         	0.073
MS.331         	11.59          	0.075
MS.332         	11.565         	0.07
MS.333         	11.542         	0.048
MS.334         	11.52          	0.056
MS.335         	11.497         	0.058
MS.336         	11.472         	0.048
MS.337         	11.45          	0.056
MS.338         	11.427         	0.048
MS.339         	11.405         	0.046
MS.340         	11.382         	0.042
MS.341         	11.36          	0.038
MS.342         	11.337         	0.036
MS.343         	11.315         	0.04
MS.344         	11.292         	0.04
MS.345         	11.27          	0.042
MS.346         	11.247         	0.04
MS.347         	11.225         	0.058
MS.348         	11.202         	0.04
MS.349         	11.18          	0.04
MS.350         	11.157         	0.052
MS.351         	11.135         	0.038
MS.352         	11.113         	0.032
MS.353         	11.09          	0.042
MS.354         	11.068         	0.04
MS.355         	11.045         	0.038
MS.356         	11.023         	0.04
MS.357         	11.002         	0.052
MS.358         	10.98          	0.042
MS.359         	10.957         	0.036
MS.360         	10.935         	0.038
MS.361         	10.915         	0.036
MS.362         	10.892         	0.036
MS.363         	10.87          	0.026
MS.364         	10.847         	0.028
MS.365         	10.827         	0.022
MS.366         	10.805         	0.04
MS.367         	10.785         	0.04
MS.368         	10.762         	0.02
MS.369         	10.74          	0.034
MS.370         	10.72          	0.04
MS.371         	10.698         	0.038
MS.372         	10.677         	0.024
MS.373         	10.655         	0.024
MS.374         	10.635         	0.018
MS.375         	10.613         	0.036
MS.376         	10.592         	0.038
MS.377         	10.57          	0.024
MS.378         	10.55          	0.024
MS.379         	10.528         	0.018
MS.380         	10.507         	0.026
MS.381         	10.485         	0.022
MS.382         	10.465         	0.026
MS.383         	10.445         	0.03
MS.384         	10.422         	0.024
MS.385         	10.403         	0.026
MS.386         	10.382         	0.018
MS.387         	10.36          	0.026
MS.388         	10.34          	0.028
MS.389         	10.32          	0.044
MS.390         	10.3           	0.028
MS.391         	10.278         	0.028
MS.392         	10.257         	0.028
MS.393         	10.238         	0.022
MS.394         	10.217         	0.028
MS.395         	10.198         	0.028
MS.396         	10.175         	0.026
MS.397         	10.155         	0.028
MS.398         	10.135         	0.032
MS.399         	10.115         	0.032
MS.400         	10.095         	0.026
MS.401         	10.075         	0.026
MS.402         	10.055         	0.026
MS.403         	10.035         	0.03
MS.404         	10.015         	0.022
MS.405         	9.995          	0.03
MS.406         	9.975          	0.028
MS.407         	9.955          	0.026
MS.408         	9.935          	0.026
MS.409         	9.915          	0.026
MS.410         	9.895          	0.026
MS.411         	9.875          	0.032
MS.412         	9.855          	0.028
MS.413         	9.835          	0.028
MS.414         	9.818          	0.028
MS.415         	9.797          	0.028
MS.416         	9.778          	0.03
MS.417         	9.757          	0.026
MS.418         	9.738          	0.026
MS.419         	9.717          	0.028
MS.420         	9.7            	0.03
MS.421         	9.68           	0.03
MS.422         	9.66           	0.028
MS.423         	9.64           	0.026
MS.424         	9.622          	0.024
MS.425         	9.602          	0.028
MS.426         	9.582          	0.03
MS.427         	9.565          	0.03
MS.428         	9.545          	0.028
MS.429         	9.525          	0.028
MS.430         	9.507          	0.028
MS.431         	9.488          	0.028
MS.432         	9.47           	0.026
MS.433         	9.45           	0.028
MS.434         	9.432          	0.028
MS.435         	9.412          	0.028
MS.436         	9.395          	0.03
MS.437         	9.375          	0.028
MS.438         	9.358          	0.024
MS.439         	9.337          	0.028
MS.440         	9.32           	0.024
MS.441         	9.3            	0.03
MS.442         	9.283          	0.026
MS.443         	9.262          	0.016
MS.444         	9.245          	0.03
MS.445         	9.225          	0.026
MS.446         	9.207          	0.026
MS.447         	9.19           	0.024
MS.448         	9.17           	0.028
MS.449         	9.153          	0.028
MS.450         	9.135          	0.03
MS.451         	9.115          	0.03
MS.452         	9.097          	0.028
MS.453         	9.08           	0.03
MS.454         	9.062          	0.032
MS.455         	9.042          	0.03
MS.456         	9.025          	0.03
MS.457         	9.007          	0.026
MS.458         	8.99           	0.026
MS.459         	8.972          	0.028
MS.460         	8.952          	0.03
MS.461         	8.935          	0.028
MS.462         	8.917          	0.032
MS.463         	8.9            	0.03
MS.464         	8.882          	0.028
MS.465         	8.865          	0.026
MS.466         	8.847          	0.028
MS.467         	8.83           	0.028
MS.468         	8.812          	0.026
MS.469         	8.795          	0.028
MS.470         	8.775          	0.026
MS.471         	8.757          	0.026
MS.472         	8.74           	0.03
MS.473         	8.722          	0.03
MS.474         	8.707          	0.028
MS.475         	8.69           	0.026
MS.476         	8.672          	0.032
MS.477         	8.655          	0.026
MS.478         	8.637          	0.032
MS.479         	8.62           	0.03
MS.480         	8.602          	0.028
MS.481         	8.585          	0.032
MS.482         	8.568          	0.03
MS.483         	8.55           	0.028
MS.484         	8.535          	0.028
MS.485         	8.517          	0.026
MS.486         	8.5            	0.03
MS.487         	8.483          	0.032
MS.488         	8.465          	0.03
MS.489         	8.45           	0.03
MS.490         	8.432          	0.028
MS.491         	8.415          	0.028
MS.492         	8.398          	0.026
MS.493         	8.382          	0.032
MS.494         	8.365          	0.032
MS.495         	8.347          	0.032
MS.496         	8.332          	0.032
MS.497         	8.315          	0.034
MS.498         	8.297          	0.032
MS.499         	8.283          	0.032
MS.500         	8.265          	0.034
MS.501         	8.247          	0.032
