File:              	C:\Qtrac\Data\Daniel M Sørensen\MScan multicentre study\Data from centres\Ankara\Processed data\ÇCC10122B.QZD
Name:              	TR.ANK.NC.3.2
Protocol:          	MSCAN-R2
Date:              	22/1/21
Start time:        	17:42:04
Age:               	29
Sex:               	M
Temperature:
S/R sites:         	ADM
NC/disease:        	NC
Operator:          	HA
Comments:
M-SCAN DATA (5.7-1.1m)
Scanpts: 25, 28, 431, 436
Stim. (mA)     	Amp. (mV)
MS.1           	35.5           	8.578
MS.2           	35.5           	8.593
MS.3           	35.5           	8.447
MS.4           	35.5           	8.447
MS.5           	35.5           	8.516
MS.6           	35.5           	8.425
MS.7           	35.5           	8.508
MS.8           	35.5           	8.386
MS.9           	35.5           	8.492
MS.10          	35.5           	8.435
MS.11          	35.5           	8.418
MS.12          	35.5           	8.347
MS.13          	35.5           	8.485
MS.14          	35.5           	8.436
MS.15          	35.5           	8.441
MS.16          	35.5           	8.376
MS.17          	35.5           	8.392
MS.18          	35.5           	8.387
MS.19          	35.5           	8.44
MS.20          	35.5           	8.373
MS.21          	35.5           	8.374
MS.22          	35.5           	8.416
MS.23          	35.43          	8.274
MS.24          	35.357         	8.376
MS.25          	35.287         	8.414
MS.26          	35.217         	8.413
MS.27          	35.147         	8.363
MS.28          	35.077         	8.375
MS.29          	35.007         	8.424
MS.30          	34.938         	8.448
MS.31          	34.868         	8.395
MS.32          	34.798         	8.428
MS.33          	34.728         	8.391
MS.34          	34.657         	8.353
MS.35          	34.59          	8.341
MS.36          	34.52          	8.337
MS.37          	34.45          	8.387
MS.38          	34.382         	8.375
MS.39          	34.312         	8.325
MS.40          	34.245         	8.402
MS.41          	34.177         	8.319
MS.42          	34.107         	8.365
MS.43          	34.04          	8.387
MS.44          	33.972         	8.318
MS.45          	33.905         	8.25
MS.46          	33.837         	8.065
MS.47          	33.767         	8.042
MS.48          	33.7           	8.209
MS.49          	33.635         	8.243
MS.50          	33.568         	8.203
MS.51          	33.5           	8.158
MS.52          	33.432         	8.071
MS.53          	33.365         	8.121
MS.54          	33.3           	8.148
MS.55          	33.232         	7.922
MS.56          	33.167         	7.992
MS.57          	33.1           	8.208
MS.58          	33.035         	7.982
MS.59          	32.967         	8.024
MS.60          	32.903         	7.899
MS.61          	32.835         	7.927
MS.62          	32.77          	7.77
MS.63          	32.705         	7.754
MS.64          	32.64          	7.882
MS.65          	32.575         	7.789
MS.66          	32.51          	7.816
MS.67          	32.445         	7.902
MS.68          	32.38          	7.808
MS.69          	32.315         	7.673
MS.70          	32.25          	7.874
MS.71          	32.185         	7.948
MS.72          	32.122         	7.843
MS.73          	32.057         	7.891
MS.74          	31.992         	7.791
MS.75          	31.93          	7.734
MS.76          	31.865         	7.784
MS.77          	31.802         	7.891
MS.78          	31.737         	7.74
MS.79          	31.675         	7.539
MS.80          	31.612         	7.599
MS.81          	31.547         	7.855
MS.82          	31.485         	7.842
MS.83          	31.422         	7.732
MS.84          	31.36          	7.692
MS.85          	31.297         	7.643
MS.86          	31.235         	7.711
MS.87          	31.172         	7.695
MS.88          	31.11          	7.659
MS.89          	31.047         	7.421
MS.90          	30.985         	7.639
MS.91          	30.925         	7.467
MS.92          	30.862         	7.418
MS.93          	30.8           	7.759
MS.94          	30.74          	7.49
MS.95          	30.677         	7.325
MS.96          	30.617         	7.395
MS.97          	30.555         	7.404
MS.98          	30.495         	7.261
MS.99          	30.432         	7.356
MS.100         	30.372         	7.139
MS.101         	30.312         	7.29
MS.102         	30.25          	7.327
MS.103         	30.19          	7.155
MS.104         	30.13          	7.139
MS.105         	30.07          	7.194
MS.106         	30.01          	7.065
MS.107         	29.95          	7.231
MS.108         	29.89          	6.98
MS.109         	29.83          	6.959
MS.110         	29.77          	6.96
MS.111         	29.712         	7.056
MS.112         	29.653         	6.962
MS.113         	29.592         	6.888
MS.114         	29.532         	6.881
MS.115         	29.475         	6.818
MS.116         	29.415         	6.764
MS.117         	29.358         	6.875
MS.118         	29.297         	6.75
MS.119         	29.24          	6.909
MS.120         	29.182         	6.76
MS.121         	29.122         	6.826
MS.122         	29.065         	6.741
MS.123         	29.007         	6.805
MS.124         	28.95          	6.581
MS.125         	28.89          	6.694
MS.126         	28.832         	6.428
MS.127         	28.775         	6.459
MS.128         	28.717         	6.322
MS.129         	28.66          	6.532
MS.130         	28.602         	6.307
MS.131         	28.547         	6.483
MS.132         	28.49          	6.3
MS.133         	28.432         	6.493
MS.134         	28.375         	6.307
MS.135         	28.32          	6.299
MS.136         	28.262         	6.1
MS.137         	28.205         	6.178
MS.138         	28.15          	6.21
MS.139         	28.092         	6.04
MS.140         	28.037         	6.169
MS.141         	27.98          	5.872
MS.142         	27.925         	5.95
MS.143         	27.87          	6.141
MS.144         	27.815         	5.985
MS.145         	27.757         	5.332
MS.146         	27.702         	5.369
MS.147         	27.647         	5.725
MS.148         	27.592         	5.602
MS.149         	27.537         	5.542
MS.150         	27.483         	5.245
MS.151         	27.427         	5.455
MS.152         	27.372         	5.222
MS.153         	27.317         	5.337
MS.154         	27.262         	5.015
MS.155         	27.207         	5.203
MS.156         	27.155         	5.277
MS.157         	27.1           	5.277
MS.158         	27.045         	5.052
MS.159         	26.993         	5.175
MS.160         	26.938         	5.101
MS.161         	26.885         	5.032
MS.162         	26.83          	4.926
MS.163         	26.778         	4.899
MS.164         	26.722         	4.746
MS.165         	26.67          	4.888
MS.166         	26.618         	4.875
MS.167         	26.562         	4.745
MS.168         	26.51          	4.74
MS.169         	26.457         	4.852
MS.170         	26.405         	4.706
MS.171         	26.352         	4.526
MS.172         	26.3           	4.586
MS.173         	26.247         	4.618
MS.174         	26.195         	4.548
MS.175         	26.142         	4.76
MS.176         	26.09          	4.636
MS.177         	26.037         	4.409
MS.178         	25.985         	4.557
MS.179         	25.932         	4.397
MS.180         	25.882         	4.319
MS.181         	25.83          	4.498
MS.182         	25.778         	4.315
MS.183         	25.727         	4.447
MS.184         	25.675         	4.185
MS.185         	25.625         	4.316
MS.186         	25.573         	4.06
MS.187         	25.522         	4.103
MS.188         	25.47          	4.159
MS.189         	25.42          	3.986
MS.190         	25.37          	4.091
MS.191         	25.317         	4.027
MS.192         	25.267         	3.855
MS.193         	25.217         	4.014
MS.194         	25.167         	3.744
MS.195         	25.118         	3.74
MS.196         	25.067         	3.595
MS.197         	25.017         	3.732
MS.198         	24.967         	3.767
MS.199         	24.917         	3.779
MS.200         	24.868         	3.655
MS.201         	24.817         	3.671
MS.202         	24.767         	3.641
MS.203         	24.717         	3.749
MS.204         	24.667         	3.508
MS.205         	24.62          	3.64
MS.206         	24.57          	3.553
MS.207         	24.52          	3.398
MS.208         	24.472         	3.485
MS.209         	24.422         	3.545
MS.210         	24.375         	3.398
MS.211         	24.325         	2.921
MS.212         	24.278         	3.269
MS.213         	24.227         	3.246
MS.214         	24.18          	3.079
MS.215         	24.132         	3.184
MS.216         	24.082         	3.015
MS.217         	24.035         	3.269
MS.218         	23.987         	3.065
MS.219         	23.94          	2.847
MS.220         	23.892         	2.917
MS.221         	23.845         	2.919
MS.222         	23.797         	2.778
MS.223         	23.75          	2.562
MS.224         	23.702         	2.643
MS.225         	23.655         	2.7
MS.226         	23.608         	2.6
MS.227         	23.56          	2.896
MS.228         	23.512         	2.454
MS.229         	23.465         	2.787
MS.230         	23.417         	2.686
MS.231         	23.372         	2.384
MS.232         	23.325         	2.5
MS.233         	23.278         	2.527
MS.234         	23.233         	2.201
MS.235         	23.185         	2.015
MS.236         	23.14          	1.836
MS.237         	23.092         	2.209
MS.238         	23.047         	2.124
MS.239         	23             	2.174
MS.240         	22.955         	1.899
MS.241         	22.91          	1.998
MS.242         	22.862         	2.076
MS.243         	22.817         	2.101
MS.244         	22.772         	1.949
MS.245         	22.727         	1.758
MS.246         	22.68          	1.755
MS.247         	22.635         	1.759
MS.248         	22.59          	1.671
MS.249         	22.545         	1.638
MS.250         	22.5           	1.564
MS.251         	22.455         	1.631
MS.252         	22.41          	1.523
MS.253         	22.365         	1.57
MS.254         	22.32          	1.541
MS.255         	22.278         	1.775
MS.256         	22.233         	1.477
MS.257         	22.188         	1.544
MS.258         	22.142         	1.332
MS.259         	22.1           	1.423
MS.260         	22.055         	1.309
MS.261         	22.01          	1.239
MS.262         	21.967         	1.234
MS.263         	21.922         	1.387
MS.264         	21.88          	1.202
MS.265         	21.835         	1.339
MS.266         	21.792         	1.305
MS.267         	21.747         	1.339
MS.268         	21.705         	1.317
MS.269         	21.663         	1.127
MS.270         	21.618         	1.045
MS.271         	21.575         	1.038
MS.272         	21.532         	1.287
MS.273         	21.49          	1.061
MS.274         	21.445         	1.16
MS.275         	21.403         	1.143
MS.276         	21.36          	1.146
MS.277         	21.317         	0.991
MS.278         	21.275         	1.216
MS.279         	21.233         	1.261
MS.280         	21.19          	0.992
MS.281         	21.147         	1.011
MS.282         	21.105         	0.922
MS.283         	21.062         	0.995
MS.284         	21.02          	0.929
MS.285         	20.98          	1.022
MS.286         	20.938         	1.002
MS.287         	20.895         	0.967
MS.288         	20.852         	0.966
MS.289         	20.812         	0.868
MS.290         	20.77          	0.876
MS.291         	20.73          	0.885
MS.292         	20.688         	0.762
MS.293         	20.645         	0.895
MS.294         	20.605         	0.925
MS.295         	20.565         	0.841
MS.296         	20.522         	0.834
MS.297         	20.483         	0.817
MS.298         	20.44          	0.785
MS.299         	20.4           	0.787
MS.300         	20.36          	0.719
MS.301         	20.317         	0.682
MS.302         	20.278         	0.712
MS.303         	20.237         	0.585
MS.304         	20.198         	0.587
MS.305         	20.157         	0.63
MS.306         	20.118         	0.629
MS.307         	20.075         	0.514
MS.308         	20.035         	0.64
MS.309         	19.995         	0.597
MS.310         	19.955         	0.654
MS.311         	19.915         	0.441
MS.312         	19.877         	0.594
MS.313         	19.837         	0.643
MS.314         	19.797         	0.564
MS.315         	19.757         	0.488
MS.316         	19.717         	0.482
MS.317         	19.677         	0.487
MS.318         	19.64          	0.518
MS.319         	19.6           	0.463
MS.320         	19.56          	0.432
MS.321         	19.522         	0.391
MS.322         	19.483         	0.366
MS.323         	19.445         	0.471
MS.324         	19.405         	0.52
MS.325         	19.368         	0.549
MS.326         	19.327         	0.386
MS.327         	19.29          	0.424
MS.328         	19.25          	0.338
MS.329         	19.212         	0.393
MS.330         	19.172         	0.406
MS.331         	19.135         	0.366
MS.332         	19.097         	0.332
MS.333         	19.06          	0.272
MS.334         	19.02          	0.231
MS.335         	18.983         	0.278
MS.336         	18.945         	0.192
MS.337         	18.907         	0.28
MS.338         	18.87          	0.253
MS.339         	18.833         	0.209
MS.340         	18.795         	0.219
MS.341         	18.757         	0.221
MS.342         	18.72          	0.179
MS.343         	18.682         	0.231
MS.344         	18.645         	0.162
MS.345         	18.608         	0.155
MS.346         	18.57          	0.195
MS.347         	18.532         	0.112
MS.348         	18.495         	0.159
MS.349         	18.458         	0.079
MS.350         	18.422         	0.148
MS.351         	18.385         	0.181
MS.352         	18.347         	0.131
MS.353         	18.312         	0.143
MS.354         	18.275         	0.118
MS.355         	18.237         	0.188
MS.356         	18.202         	0.182
MS.357         	18.165         	0.192
MS.358         	18.13          	0.151
MS.359         	18.092         	0.125
MS.360         	18.057         	0.145
MS.361         	18.02          	0.115
MS.362         	17.985         	0.221
MS.363         	17.95          	0.15
MS.364         	17.913         	0.107
MS.365         	17.878         	0.081
MS.366         	17.842         	0.128
MS.367         	17.805         	0.11
MS.368         	17.77          	0.208
MS.369         	17.735         	0.065
MS.370         	17.7           	0.093
MS.371         	17.665         	0.125
MS.372         	17.63          	0.144
MS.373         	17.592         	0.095
MS.374         	17.557         	0.087
MS.375         	17.522         	0.072
MS.376         	17.487         	0.107
MS.377         	17.452         	0.104
MS.378         	17.417         	0.068
MS.379         	17.382         	0.117
MS.380         	17.35          	0.079
MS.381         	17.315         	0.095
MS.382         	17.28          	0.093
MS.383         	17.245         	0.065
MS.384         	17.21          	0.093
MS.385         	17.177         	0.101
MS.386         	17.142         	0.101
MS.387         	17.108         	0.072
MS.388         	17.073         	0.117
MS.389         	17.04          	0.123
MS.390         	17.005         	0.062
MS.391         	16.972         	0.042
MS.392         	16.938         	0.101
MS.393         	16.903         	0.092
MS.394         	16.87          	0.093
MS.395         	16.835         	0.063
MS.396         	16.802         	0.085
MS.397         	16.77          	0.087
MS.398         	16.735         	0.087
MS.399         	16.702         	0.062
MS.400         	16.667         	0.085
MS.401         	16.635         	0.021
MS.402         	16.602         	0.027
MS.403         	16.57          	0.024
MS.404         	16.535         	0.078
MS.405         	16.503         	0.033
MS.406         	16.47          	0.034
MS.407         	16.438         	0.052
MS.408         	16.405         	0.076
MS.409         	16.372         	0.034
MS.410         	16.337         	0.01
MS.411         	16.305         	0.048
MS.412         	16.272         	0.026
MS.413         	16.24          	0.02
MS.414         	16.208         	0.037
MS.415         	16.175         	0.017
MS.416         	16.145         	0.023
MS.417         	16.112         	0.015
MS.418         	16.08          	0.024
MS.419         	16.047         	0.063
MS.420         	16.015         	0.029
MS.421         	15.983         	0.079
MS.422         	15.95          	0.06
MS.423         	15.92          	0.023
MS.424         	15.887         	0.021
MS.425         	15.855         	0.024
MS.426         	15.825         	0.017
MS.427         	15.792         	0.022
MS.428         	15.76          	0.02
MS.429         	15.73          	0.027
MS.430         	15.697         	0.029
MS.431         	15.667         	0.021
MS.432         	15.635         	0.026
MS.433         	15.605         	0.031
MS.434         	15.572         	0.028
MS.435         	15.542         	0.023
MS.436         	15.51          	0.032
MS.437         	15.48          	0.033
MS.438         	15.45          	0.018
MS.439         	15.417         	0.028
MS.440         	15.387         	0.028
MS.441         	15.358         	0.024
MS.442         	15.325         	0.048
MS.443         	15.295         	0.027
MS.444         	15.265         	0.027
MS.445         	15.235         	0.023
MS.446         	15.202         	0.022
MS.447         	15.172         	0.035
MS.448         	15.142         	0.029
MS.449         	15.112         	0.048
MS.450         	15.082         	0.024
MS.451         	15.052         	0.033
MS.452         	15.023         	0.031
MS.453         	14.992         	0.034
MS.454         	14.962         	0.039
MS.455         	14.932         	0.043
MS.456         	14.902         	0.04
MS.457         	14.872         	0.039
MS.458         	14.842         	0.038
MS.459         	14.812         	0.035
MS.460         	14.785         	0.051
MS.461         	14.755         	0.043
MS.462         	14.725         	0.031
MS.463         	14.695         	0.043
MS.464         	14.665         	0.045
MS.465         	14.637         	0.045
MS.466         	14.608         	0.067
MS.467         	14.577         	0.043
MS.468         	14.55          	0.04
MS.469         	14.52          	0.043
MS.470         	14.49          	0.056
MS.471         	14.462         	0.04
MS.472         	14.432         	0.048
MS.473         	14.405         	0.048
MS.474         	14.375         	0.039
MS.475         	14.347         	0.032
MS.476         	14.318         	0.055
MS.477         	14.29          	0.024
MS.478         	14.26          	0.043
MS.479         	14.233         	0.028
MS.480         	14.205         	0.038
MS.481         	14.175         	0.023
MS.482         	14.148         	0.039
MS.483         	14.12          	0.028
MS.484         	14.09          	0.068
MS.485         	14.062         	0.038
MS.486         	14.035         	0.029
MS.487         	14.007         	0.032
MS.488         	13.977         	0.038
MS.489         	13.95          	0.031
MS.490         	13.922         	0.031
MS.491         	13.895         	0.035
MS.492         	13.867         	0.057
MS.493         	13.84          	0.038
MS.494         	13.812         	0.039
DERIVED EXCITABILITY VARIABLES
Program = QTracP 3/4/2020
Threshold method = 6 (optimised for CAP, using data for present condition only)
SR method = 1 (using actual data values)
6.                 	0.000               	Peak response\(mV)
17.                	29                  	Age (years)
