File:              	C:\Qtrac\Data\Daniel M Sørensen\MScan multicentre study\Data from centres\Aarhus\Processed data\DMSB91202B (2).QZD
Name:              	DK.AAR.NC.11.1
Protocol:          	MSCAN-R2
Date:              	2/12/19
Start time:        	15:05:12
Age:               	80
Sex:               	f
Temperature:       	35,9
S/R sites:         	ADM
NC/disease:        	Controle
Operator:          	DS
Comments:
M-SCAN DATA (10.2-2.5m)
Scanpts: 8, 21, 732, 747
Stim. (mA)     	Amp. (mV)
MS.1           	25             	7.559
MS.2           	25             	7.553
MS.3           	25             	7.551
MS.4           	25             	7.561
MS.5           	25             	7.539
MS.6           	25             	7.551
MS.7           	25             	7.587
MS.8           	25             	7.585
MS.9           	25             	7.561
MS.10          	25             	7.571
MS.11          	25             	7.555
MS.12          	25             	7.527
MS.13          	25             	7.553
MS.14          	25             	7.573
MS.15          	25             	7.557
MS.16          	25             	7.577
MS.17          	25             	7.589
MS.18          	25             	7.593
MS.19          	25             	7.593
MS.20          	25             	7.571
MS.21          	25             	7.579
MS.22          	25             	7.583
MS.23          	25             	7.581
MS.24          	24.9           	7.583
MS.25          	24.85          	7.575
MS.26          	24.8           	7.575
MS.27          	24.75          	7.545
MS.28          	24.702         	7.579
MS.29          	24.653         	7.575
MS.30          	24.602         	7.533
MS.31          	24.555         	7.559
MS.32          	24.505         	7.519
MS.33          	24.455         	7.599
MS.34          	24.407         	7.601
MS.35          	24.358         	7.591
MS.36          	24.31          	7.583
MS.37          	24.26          	7.493
MS.38          	24.212         	7.573
MS.39          	24.165         	7.575
MS.40          	24.115         	7.583
MS.41          	24.067         	7.587
MS.42          	24.02          	7.573
MS.43          	23.972         	7.585
MS.44          	23.925         	7.565
MS.45          	23.875         	7.593
MS.46          	23.827         	7.551
MS.47          	23.78          	7.569
MS.48          	23.733         	7.507
MS.49          	23.685         	7.561
MS.50          	23.637         	7.499
MS.51          	23.59          	7.579
MS.52          	23.545         	7.483
MS.53          	23.497         	7.569
MS.54          	23.45          	7.485
MS.55          	23.403         	7.483
MS.56          	23.358         	7.477
MS.57          	23.31          	7.549
MS.58          	23.262         	7.507
MS.59          	23.217         	7.501
MS.60          	23.17          	7.466
MS.61          	23.125         	7.591
MS.62          	23.077         	7.46
MS.63          	23.032         	7.485
MS.64          	22.985         	7.426
MS.65          	22.94          	7.521
MS.66          	22.895         	7.479
MS.67          	22.847         	7.517
MS.68          	22.802         	7.481
MS.69          	22.757         	7.493
MS.70          	22.712         	7.475
MS.71          	22.665         	7.509
MS.72          	22.62          	7.489
MS.73          	22.575         	7.487
MS.74          	22.53          	7.469
MS.75          	22.485         	7.477
MS.76          	22.44          	7.44
MS.77          	22.395         	7.491
MS.78          	22.35          	7.487
MS.79          	22.307         	7.438
MS.80          	22.262         	7.42
MS.81          	22.217         	7.452
MS.82          	22.172         	7.416
MS.83          	22.127         	7.42
MS.84          	22.085         	7.458
MS.85          	22.04          	7.432
MS.86          	21.995         	7.444
MS.87          	21.952         	7.428
MS.88          	21.907         	7.428
MS.89          	21.865         	7.384
MS.90          	21.82          	7.408
MS.91          	21.778         	7.398
MS.92          	21.735         	7.424
MS.93          	21.69          	7.434
MS.94          	21.647         	7.414
MS.95          	21.605         	7.444
MS.96          	21.56          	7.42
MS.97          	21.517         	7.366
MS.98          	21.475         	7.338
MS.99          	21.432         	7.368
MS.100         	21.39          	7.303
MS.101         	21.345         	7.346
MS.102         	21.302         	7.323
MS.103         	21.26          	7.398
MS.104         	21.217         	7.398
MS.105         	21.175         	7.338
MS.106         	21.135         	7.398
MS.107         	21.092         	7.39
MS.108         	21.05          	7.386
MS.109         	21.007         	7.408
MS.110         	20.965         	7.338
MS.111         	20.922         	7.406
MS.112         	20.882         	7.412
MS.113         	20.84          	7.334
MS.114         	20.797         	7.259
MS.115         	20.757         	7.368
MS.116         	20.715         	7.326
MS.117         	20.675         	7.372
MS.118         	20.632         	7.309
MS.119         	20.592         	7.338
MS.120         	20.55          	7.295
MS.121         	20.51          	7.374
MS.122         	20.467         	7.267
MS.123         	20.427         	7.321
MS.124         	20.387         	7.275
MS.125         	20.345         	7.35
MS.126         	20.305         	7.217
MS.127         	20.265         	7.283
MS.128         	20.225         	7.231
MS.129         	20.182         	7.231
MS.130         	20.142         	7.283
MS.131         	20.102         	7.293
MS.132         	20.062         	7.328
MS.133         	20.022         	7.205
MS.134         	19.983         	7.207
MS.135         	19.942         	7.225
MS.136         	19.903         	7.076
MS.137         	19.862         	7.158
MS.138         	19.823         	7.13
MS.139         	19.785         	7.156
MS.140         	19.745         	7.14
MS.141         	19.705         	7.144
MS.142         	19.665         	7.166
MS.143         	19.627         	7.132
MS.144         	19.587         	7.154
MS.145         	19.547         	7.086
MS.146         	19.51          	7.16
MS.147         	19.47          	7.11
MS.148         	19.43          	7.225
MS.149         	19.392         	7.078
MS.150         	19.352         	7.174
MS.151         	19.315         	7.08
MS.152         	19.275         	7.176
MS.153         	19.237         	7.182
MS.154         	19.2           	7.092
MS.155         	19.16          	7.172
MS.156         	19.122         	7.068
MS.157         	19.085         	7.195
MS.158         	19.047         	7.082
MS.159         	19.007         	7.118
MS.160         	18.97          	7.102
MS.161         	18.932         	7.112
MS.162         	18.895         	7.092
MS.163         	18.858         	7.092
MS.164         	18.82          	7.138
MS.165         	18.782         	7.124
MS.166         	18.745         	7.098
MS.167         	18.708         	7.14
MS.168         	18.67          	7.098
MS.169         	18.632         	7.096
MS.170         	18.595         	7.17
MS.171         	18.557         	7.182
MS.172         	18.52          	6.864
MS.173         	18.483         	7.126
MS.174         	18.448         	7.146
MS.175         	18.41          	7.148
MS.176         	18.372         	7.074
MS.177         	18.335         	7.084
MS.178         	18.3           	7.058
MS.179         	18.262         	7.058
MS.180         	18.227         	7.035
MS.181         	18.19          	7.148
MS.182         	18.153         	7.138
MS.183         	18.118         	7.052
MS.184         	18.08          	7.044
MS.185         	18.045         	7.021
MS.186         	18.01          	7.072
MS.187         	17.972         	7.007
MS.188         	17.938         	7.042
MS.189         	17.903         	6.905
MS.190         	17.865         	7.072
MS.191         	17.83          	7.033
MS.192         	17.795         	6.959
MS.193         	17.757         	7.106
MS.194         	17.722         	7.011
MS.195         	17.688         	7.013
MS.196         	17.653         	7.037
MS.197         	17.618         	7.042
MS.198         	17.583         	7.05
MS.199         	17.547         	7.064
MS.200         	17.512         	7.029
MS.201         	17.477         	6.878
MS.202         	17.442         	6.985
MS.203         	17.407         	7.017
MS.204         	17.372         	6.933
MS.205         	17.337         	6.973
MS.206         	17.302         	6.911
MS.207         	17.267         	6.905
MS.208         	17.235         	6.588
MS.209         	17.2           	6.894
MS.210         	17.165         	6.884
MS.211         	17.13          	6.848
MS.212         	17.097         	6.814
MS.213         	17.062         	6.84
MS.214         	17.028         	6.872
MS.215         	16.995         	6.796
MS.216         	16.96          	6.87
MS.217         	16.927         	6.816
MS.218         	16.892         	6.784
MS.219         	16.86          	6.778
MS.220         	16.825         	6.937
MS.221         	16.792         	6.888
MS.222         	16.757         	6.844
MS.223         	16.725         	6.832
MS.224         	16.69          	6.828
MS.225         	16.657         	6.84
MS.226         	16.625         	6.778
MS.227         	16.59          	6.848
MS.228         	16.557         	6.784
MS.229         	16.525         	6.762
MS.230         	16.493         	6.784
MS.231         	16.46          	6.838
MS.232         	16.425         	6.884
MS.233         	16.392         	6.848
MS.234         	16.36          	6.818
MS.235         	16.327         	6.848
MS.236         	16.295         	6.8
MS.237         	16.262         	6.844
MS.238         	16.23          	6.784
MS.239         	16.198         	6.852
MS.240         	16.165         	6.8
MS.241         	16.132         	6.846
MS.242         	16.1           	6.808
MS.243         	16.067         	6.76
MS.244         	16.038         	6.864
MS.245         	16.005         	6.758
MS.246         	15.972         	6.888
MS.247         	15.94          	6.751
MS.248         	15.91          	6.796
MS.249         	15.877         	6.753
MS.250         	15.845         	6.786
MS.251         	15.812         	6.768
MS.252         	15.782         	6.79
MS.253         	15.75          	6.8
MS.254         	15.72          	6.82
MS.255         	15.688         	6.721
MS.256         	15.657         	6.745
MS.257         	15.625         	6.737
MS.258         	15.595         	6.766
MS.259         	15.562         	6.719
MS.260         	15.532         	6.707
MS.261         	15.5           	6.751
MS.262         	15.47          	6.719
MS.263         	15.438         	6.711
MS.264         	15.407         	6.717
MS.265         	15.377         	6.691
MS.266         	15.347         	6.753
MS.267         	15.315         	6.745
MS.268         	15.285         	6.353
MS.269         	15.255         	6.707
MS.270         	15.225         	6.324
MS.271         	15.193         	6.562
MS.272         	15.162         	6.576
MS.273         	15.132         	6.745
MS.274         	15.102         	6.737
MS.275         	15.072         	6.685
MS.276         	15.042         	6.53
MS.277         	15.012         	6.723
MS.278         	14.983         	6.522
MS.279         	14.952         	6.729
MS.280         	14.922         	6.57
MS.281         	14.892         	6.554
MS.282         	14.862         	6.552
MS.283         	14.832         	6.546
MS.284         	14.802         	6.528
MS.285         	14.775         	6.568
MS.286         	14.745         	6.677
MS.287         	14.715         	6.425
MS.288         	14.685         	6.447
MS.289         	14.657         	6.441
MS.290         	14.627         	6.316
MS.291         	14.597         	6.492
MS.292         	14.568         	6.322
MS.293         	14.54          	6.566
MS.294         	14.51          	6.478
MS.295         	14.483         	6.59
MS.296         	14.452         	6.671
MS.297         	14.422         	6.546
MS.298         	14.395         	6.671
MS.299         	14.365         	6.496
MS.300         	14.337         	6.578
MS.301         	14.31          	6.701
MS.302         	14.28          	6.482
MS.303         	14.252         	6.623
MS.304         	14.222         	6.669
MS.305         	14.195         	6.548
MS.306         	14.167         	6.532
MS.307         	14.137         	6.554
MS.308         	14.11          	6.451
MS.309         	14.082         	6.471
MS.310         	14.052         	6.576
MS.311         	14.025         	6.447
MS.312         	13.997         	6.411
MS.313         	13.97          	6.433
MS.314         	13.943         	6.463
MS.315         	13.912         	6.433
MS.316         	13.885         	6.379
MS.317         	13.858         	6.318
MS.318         	13.83          	6.381
MS.319         	13.802         	6.451
MS.320         	13.775         	6.451
MS.321         	13.747         	6.167
MS.322         	13.72          	6.314
MS.323         	13.693         	6.337
MS.324         	13.665         	6.294
MS.325         	13.637         	6.298
MS.326         	13.61          	6.314
MS.327         	13.582         	6.302
MS.328         	13.557         	5.916
MS.329         	13.53          	5.92
MS.330         	13.502         	5.99
MS.331         	13.475         	6.208
MS.332         	13.447         	5.676
MS.333         	13.422         	5.998
MS.334         	13.395         	5.952
MS.335         	13.367         	5.966
MS.336         	13.342         	5.718
MS.337         	13.315         	5.952
MS.338         	13.287         	5.895
MS.339         	13.262         	6.044
MS.340         	13.235         	5.91
MS.341         	13.207         	6.085
MS.342         	13.182         	5.694
MS.343         	13.155         	5.968
MS.344         	13.13          	5.885
MS.345         	13.102         	6.111
MS.346         	13.077         	5.861
MS.347         	13.05          	5.916
MS.348         	13.025         	5.831
MS.349         	13             	5.823
MS.350         	12.972         	5.726
MS.351         	12.947         	5.895
MS.352         	12.92          	5.7
MS.353         	12.895         	5.428
MS.354         	12.87          	5.142
MS.355         	12.845         	5.632
MS.356         	12.818         	5.354
MS.357         	12.792         	5.049
MS.358         	12.767         	5.245
MS.359         	12.742         	5.408
MS.360         	12.715         	5.066
MS.361         	12.69          	5.186
MS.362         	12.665         	5.015
MS.363         	12.64          	5.706
MS.364         	12.615         	5.106
MS.365         	12.59          	5.527
MS.366         	12.565         	4.816
MS.367         	12.54          	5.219
MS.368         	12.515         	4.904
MS.369         	12.49          	5.178
MS.370         	12.465         	4.653
MS.371         	12.44          	5.007
MS.372         	12.415         	4.665
MS.373         	12.39          	5.555
MS.374         	12.365         	4.596
MS.375         	12.34          	4.943
MS.376         	12.315         	4.51
MS.377         	12.29          	4.935
MS.378         	12.267         	4.772
MS.379         	12.242         	4.953
MS.380         	12.217         	4.663
MS.381         	12.193         	4.919
MS.382         	12.17          	4.457
MS.383         	12.145         	4.842
MS.384         	12.12          	4.492
MS.385         	12.095         	4.79
MS.386         	12.072         	4.701
MS.387         	12.047         	4.737
MS.388         	12.023         	4.431
MS.389         	12             	4.629
MS.390         	11.975         	4.411
MS.391         	11.952         	4.651
MS.392         	11.927         	4.695
MS.393         	11.905         	4.723
MS.394         	11.88          	4.421
MS.395         	11.858         	4.397
MS.396         	11.832         	4.377
MS.397         	11.81          	4.397
MS.398         	11.785         	4.629
MS.399         	11.762         	4.359
MS.400         	11.738         	4.425
MS.401         	11.715         	4.23
MS.402         	11.693         	3.857
MS.403         	11.667         	4.365
MS.404         	11.645         	3.879
MS.405         	11.622         	3.948
MS.406         	11.597         	4.113
MS.407         	11.575         	3.905
MS.408         	11.552         	3.829
MS.409         	11.53          	4.193
MS.410         	11.505         	3.783
MS.411         	11.483         	3.684
MS.412         	11.46          	3.787
MS.413         	11.438         	3.593
MS.414         	11.415         	3.738
MS.415         	11.392         	3.909
MS.416         	11.37          	3.69
MS.417         	11.345         	3.529
MS.418         	11.322         	3.716
MS.419         	11.3           	3.521
MS.420         	11.278         	3.501
MS.421         	11.255         	3.394
MS.422         	11.233         	3.344
MS.423         	11.21          	3.352
MS.424         	11.188         	3.39
MS.425         	11.165         	3.311
MS.426         	11.142         	3.162
MS.427         	11.122         	3.344
MS.428         	11.1           	3.168
MS.429         	11.077         	2.959
MS.430         	11.055         	3.14
MS.431         	11.032         	3.118
MS.432         	11.01          	3.148
MS.433         	10.988         	3.227
MS.434         	10.967         	3.154
MS.435         	10.945         	3.158
MS.436         	10.922         	3.043
MS.437         	10.9           	2.965
MS.438         	10.88          	2.983
MS.439         	10.858         	3.055
MS.440         	10.835         	2.927
MS.441         	10.815         	3.072
MS.442         	10.792         	3.055
MS.443         	10.77          	2.902
MS.444         	10.75          	2.826
MS.445         	10.727         	2.955
MS.446         	10.707         	2.985
MS.447         	10.685         	2.967
MS.448         	10.665         	2.935
MS.449         	10.642         	3.003
MS.450         	10.622         	2.826
MS.451         	10.6           	2.816
MS.452         	10.58          	2.977
MS.453         	10.557         	2.749
MS.454         	10.537         	2.796
MS.455         	10.515         	2.888
MS.456         	10.495         	2.618
MS.457         	10.472         	2.852
MS.458         	10.452         	2.745
MS.459         	10.432         	2.834
MS.460         	10.41          	2.673
MS.461         	10.39          	2.784
MS.462         	10.37          	2.536
MS.463         	10.35          	2.643
MS.464         	10.327         	2.524
MS.465         	10.307         	2.808
MS.466         	10.287         	2.514
MS.467         	10.267         	2.749
MS.468         	10.245         	2.465
MS.469         	10.225         	2.626
MS.470         	10.205         	2.479
MS.471         	10.185         	2.782
MS.472         	10.165         	2.637
MS.473         	10.145         	2.57
MS.474         	10.122         	2.556
MS.475         	10.102         	2.737
MS.476         	10.082         	2.506
MS.477         	10.062         	2.709
MS.478         	10.042         	2.455
MS.479         	10.023         	2.635
MS.480         	10.002         	2.514
MS.481         	9.983          	2.63
MS.482         	9.962          	2.336
MS.483         	9.943          	2.455
MS.484         	9.922          	2.52
MS.485         	9.903          	2.568
MS.486         	9.882          	2.457
MS.487         	9.865          	2.222
MS.488         	9.845          	2.407
MS.489         	9.825          	2.228
MS.490         	9.805          	2.278
MS.491         	9.785          	2.226
MS.492         	9.765          	2.34
MS.493         	9.745          	1.994
MS.494         	9.727          	2.224
MS.495         	9.707          	2.111
MS.496         	9.688          	2.165
MS.497         	9.667          	1.962
MS.498         	9.65           	2.276
MS.499         	9.63           	1.853
MS.500         	9.61           	2.109
MS.501         	9.592          	2.02
