File:              	C:\Qtrac\Data\Daniel M Sørensen\MScan multicentre study\Data from centres\Aarhus\Processed data\DMSC00303B.QZD
Name:              	DK.AAR.NC.3.2
Protocol:          	MSCAN-R2
Date:              	3/3/20
Start time:        	14:23:08
Age:               	48
Sex:               	m
Temperature:       	35,0
S/R sites:         	ADM
NC/disease:        	NC
Operator:          	DS
Comments:
M-SCAN DATA (8.5-3.1m)
Scanpts: 19, 24, 566, 587
Stim. (mA)     	Amp. (mV)
MS.1           	28.5           	11.179
MS.2           	28.5           	11.152
MS.3           	28.5           	11.162
MS.4           	28.5           	11.12
MS.5           	28.5           	11.12
MS.6           	28.5           	11.12
MS.7           	28.5           	11.106
MS.8           	28.5           	11.118
MS.9           	28.5           	11.122
MS.10          	28.5           	11.158
MS.11          	28.5           	11.112
MS.12          	28.5           	11.175
MS.13          	28.5           	11.185
MS.14          	28.5           	11.199
MS.15          	28.5           	11.16
MS.16          	28.5           	11.134
MS.17          	28.5           	11.175
MS.18          	28.5           	11.209
MS.19          	28.5           	11.203
MS.20          	28.5           	11.158
MS.21          	28.5           	11.201
MS.22          	28.5           	11.156
MS.23          	28.385         	11.126
MS.24          	28.33          	11.148
MS.25          	28.272         	11.164
MS.26          	28.217         	11.177
MS.27          	28.16          	11.104
MS.28          	28.102         	11.167
MS.29          	28.047         	11.138
MS.30          	27.993         	11.193
MS.31          	27.935         	11.142
MS.32          	27.88          	11.205
MS.33          	27.825         	11.207
MS.34          	27.767         	11.16
MS.35          	27.712         	11.179
MS.36          	27.657         	11.177
MS.37          	27.602         	11.08
MS.38          	27.547         	11.164
MS.39          	27.493         	11.16
MS.40          	27.438         	11.116
MS.41          	27.382         	11.064
MS.42          	27.327         	11.076
MS.43          	27.272         	11.046
MS.44          	27.217         	11.126
MS.45          	27.165         	11.082
MS.46          	27.11          	11.064
MS.47          	27.055         	11.156
MS.48          	27.002         	11.072
MS.49          	26.948         	11.154
MS.50          	26.895         	11.164
MS.51          	26.84          	11.102
MS.52          	26.787         	11.013
MS.53          	26.733         	11.181
MS.54          	26.68          	10.889
MS.55          	26.627         	11.005
MS.56          	26.573         	11.003
MS.57          	26.52          	10.895
MS.58          	26.467         	10.953
MS.59          	26.415         	10.933
MS.60          	26.362         	10.943
MS.61          	26.307         	10.893
MS.62          	26.255         	10.923
MS.63          	26.202         	10.991
MS.64          	26.153         	10.893
MS.65          	26.1           	10.977
MS.66          	26.047         	10.973
MS.67          	25.995         	10.931
MS.68          	25.942         	10.891
MS.69          	25.89          	10.889
MS.70          	25.84          	10.872
MS.71          	25.787         	11.028
MS.72          	25.735         	10.951
MS.73          	25.685         	10.893
MS.74          	25.632         	10.951
MS.75          	25.582         	10.891
MS.76          	25.53          	10.911
MS.77          	25.48          	10.878
MS.78          	25.43          	10.893
MS.79          	25.377         	10.919
MS.80          	25.327         	10.919
MS.81          	25.278         	10.979
MS.82          	25.227         	11.028
MS.83          	25.175         	10.989
MS.84          	25.125         	10.977
MS.85          	25.075         	10.975
MS.86          	25.025         	10.993
MS.87          	24.975         	11.005
MS.88          	24.925         	10.883
MS.89          	24.875         	10.989
MS.90          	24.825         	11.011
MS.91          	24.778         	11.009
MS.92          	24.727         	10.911
MS.93          	24.677         	11.023
MS.94          	24.627         	11.011
MS.95          	24.58          	10.997
MS.96          	24.53          	11.026
MS.97          	24.48          	11.017
MS.98          	24.432         	10.973
MS.99          	24.382         	11.017
MS.100         	24.335         	10.903
MS.101         	24.285         	11.019
MS.102         	24.237         	10.897
MS.103         	24.19          	11.06
MS.104         	24.14          	11.011
MS.105         	24.092         	10.866
MS.106         	24.045         	10.669
MS.107         	23.997         	10.818
MS.108         	23.948         	10.786
MS.109         	23.9           	11.03
MS.110         	23.852         	10.822
MS.111         	23.805         	10.935
MS.112         	23.757         	10.858
MS.113         	23.71          	10.8
MS.114         	23.663         	10.639
MS.115         	23.615         	10.671
MS.116         	23.567         	10.631
MS.117         	23.52          	10.778
MS.118         	23.475         	10.705
MS.119         	23.427         	10.649
MS.120         	23.38          	10.673
MS.121         	23.332         	10.641
MS.122         	23.288         	10.605
MS.123         	23.24          	10.55
MS.124         	23.195         	10.681
MS.125         	23.147         	10.687
MS.126         	23.102         	10.711
MS.127         	23.055         	10.659
MS.128         	23.01          	10.59
MS.129         	22.962         	10.48
MS.130         	22.917         	10.48
MS.131         	22.872         	10.645
MS.132         	22.825         	10.723
MS.133         	22.78          	10.663
MS.134         	22.735         	10.586
MS.135         	22.69          	10.639
MS.136         	22.645         	10.391
MS.137         	22.6           	10.274
MS.138         	22.552         	10.584
MS.139         	22.507         	10.304
MS.140         	22.462         	10.345
MS.141         	22.42          	10.008
MS.142         	22.375         	10.18
MS.143         	22.33          	10.115
MS.144         	22.285         	10.067
MS.145         	22.24          	10.341
MS.146         	22.195         	10.296
MS.147         	22.153         	10.026
MS.148         	22.108         	10.317
MS.149         	22.062         	9.992
MS.150         	22.02          	10.117
MS.151         	21.975         	10.129
MS.152         	21.93          	9.855
MS.153         	21.887         	9.875
MS.154         	21.842         	9.888
MS.155         	21.8           	9.902
MS.156         	21.755         	9.964
MS.157         	21.712         	9.777
MS.158         	21.67          	10.004
MS.159         	21.625         	9.68
MS.160         	21.583         	9.791
MS.161         	21.54          	9.706
MS.162         	21.497         	9.527
MS.163         	21.455         	9.513
MS.164         	21.41          	9.666
MS.165         	21.368         	9.696
MS.166         	21.325         	9.559
MS.167         	21.282         	9.579
MS.168         	21.24          	9.658
MS.169         	21.198         	9.493
MS.170         	21.155         	9.583
MS.171         	21.112         	9.71
MS.172         	21.07          	9.322
MS.173         	21.03          	9.235
MS.174         	20.987         	9.247
MS.175         	20.945         	9.45
MS.176         	20.903         	9.465
MS.177         	20.862         	9.275
MS.178         	20.82          	9.305
MS.179         	20.778         	9.207
MS.180         	20.737         	9.205
MS.181         	20.695         	9.346
MS.182         	20.655         	9.209
MS.183         	20.612         	9.148
MS.184         	20.573         	9.066
MS.185         	20.53          	9.199
MS.186         	20.49          	9.183
MS.187         	20.448         	9.009
MS.188         	20.407         	9.009
MS.189         	20.368         	9.042
MS.190         	20.325         	9.038
MS.191         	20.285         	9.036
MS.192         	20.245         	8.77
MS.193         	20.205         	8.826
MS.194         	20.165         	8.832
MS.195         	20.122         	8.743
MS.196         	20.083         	8.649
MS.197         	20.042         	8.443
MS.198         	20.002         	8.633
MS.199         	19.962         	8.496
MS.200         	19.922         	8.186
MS.201         	19.882         	8.699
MS.202         	19.845         	8.028
MS.203         	19.805         	8.657
MS.204         	19.765         	8.085
MS.205         	19.725         	7.962
MS.206         	19.685         	8.401
MS.207         	19.647         	7.946
MS.208         	19.608         	7.94
MS.209         	19.567         	7.823
MS.210         	19.53          	7.547
MS.211         	19.49          	7.716
MS.212         	19.45          	7.549
MS.213         	19.413         	8.077
MS.214         	19.372         	7.271
MS.215         	19.335         	7.581
MS.216         	19.295         	7.456
MS.217         	19.257         	7.003
MS.218         	19.22          	7.15
MS.219         	19.18          	7.424
MS.220         	19.142         	7.493
MS.221         	19.105         	6.907
MS.222         	19.065         	7.301
MS.223         	19.028         	6.419
MS.224         	18.99          	6.685
MS.225         	18.952         	6.856
MS.226         	18.915         	6.838
MS.227         	18.875         	6.731
MS.228         	18.837         	6.556
MS.229         	18.8           	5.942
MS.230         	18.762         	6.161
MS.231         	18.725         	6.405
MS.232         	18.688         	6.457
MS.233         	18.65          	6.28
MS.234         	18.612         	6.095
MS.235         	18.577         	6.016
MS.236         	18.54          	6.637
MS.237         	18.503         	5.847
MS.238         	18.465         	6.016
MS.239         	18.427         	6.089
MS.240         	18.392         	5.952
MS.241         	18.355         	5.742
MS.242         	18.317         	5.597
MS.243         	18.282         	5.654
MS.244         	18.245         	5.686
MS.245         	18.208         	5.499
MS.246         	18.172         	5.819
MS.247         	18.135         	5.769
MS.248         	18.1           	5.829
MS.249         	18.062         	5.611
MS.250         	18.028         	5.541
MS.251         	17.993         	5.648
MS.252         	17.955         	5.557
MS.253         	17.92          	5.7
MS.254         	17.885         	5.517
MS.255         	17.847         	5.7
MS.256         	17.812         	5.374
MS.257         	17.778         	5.601
MS.258         	17.743         	5.354
MS.259         	17.705         	5.609
MS.260         	17.67          	5.36
MS.261         	17.635         	5.199
MS.262         	17.6           	5.273
MS.263         	17.565         	5.257
MS.264         	17.53          	5.265
MS.265         	17.495         	5.106
MS.266         	17.46          	5.247
MS.267         	17.425         	5.023
MS.268         	17.39          	4.862
MS.269         	17.355         	4.768
MS.270         	17.32          	5.094
MS.271         	17.285         	5.052
MS.272         	17.253         	5.15
MS.273         	17.217         	5.023
MS.274         	17.182         	4.913
MS.275         	17.147         	5.092
MS.276         	17.115         	4.919
MS.277         	17.08          	4.884
MS.278         	17.045         	4.822
MS.279         	17.012         	4.78
MS.280         	16.977         	4.77
MS.281         	16.945         	4.679
MS.282         	16.91          	4.677
MS.283         	16.875         	4.79
MS.284         	16.842         	4.647
MS.285         	16.81          	4.812
MS.286         	16.775         	3.982
MS.287         	16.743         	4.604
MS.288         	16.708         	4.026
MS.289         	16.675         	3.932
MS.290         	16.642         	3.942
MS.291         	16.608         	4.657
MS.292         	16.575         	4.322
MS.293         	16.542         	4.522
MS.294         	16.51          	4.455
MS.295         	16.475         	3.688
MS.296         	16.442         	3.47
MS.297         	16.41          	4.343
MS.298         	16.378         	3.69
MS.299         	16.345         	3.865
MS.300         	16.312         	3.821
MS.301         	16.28          	3.815
MS.302         	16.247         	3.18
MS.303         	16.215         	3.297
MS.304         	16.182         	3.869
MS.305         	16.15          	3.599
MS.306         	16.118         	3.372
MS.307         	16.085         	3.209
MS.308         	16.052         	2.902
MS.309         	16.02          	2.959
MS.310         	15.99          	3.241
MS.311         	15.957         	3.458
MS.312         	15.925         	3.158
MS.313         	15.892         	2.818
MS.314         	15.862         	2.852
MS.315         	15.83          	2.908
MS.316         	15.797         	3.134
MS.317         	15.767         	2.977
MS.318         	15.735         	3.16
MS.319         	15.705         	2.665
MS.320         	15.672         	2.802
MS.321         	15.64          	2.612
MS.322         	15.61          	2.83
MS.323         	15.577         	3.112
MS.324         	15.547         	2.767
MS.325         	15.517         	2.826
MS.326         	15.485         	2.681
MS.327         	15.455         	2.58
MS.328         	15.422         	2.487
MS.329         	15.392         	2.504
MS.330         	15.362         	2.806
MS.331         	15.332         	2.769
MS.332         	15.3           	2.6
MS.333         	15.27          	2.663
MS.334         	15.24          	2.024
MS.335         	15.21          	2.048
MS.336         	15.18          	2.643
MS.337         	15.148         	2.512
MS.338         	15.117         	2.616
MS.339         	15.087         	2.322
MS.340         	15.057         	2.324
MS.341         	15.027         	2.413
MS.342         	14.997         	2.399
MS.343         	14.967         	2.274
MS.344         	14.938         	2.344
MS.345         	14.907         	2.338
MS.346         	14.877         	2.197
MS.347         	14.847         	1.754
MS.348         	14.82          	2.246
MS.349         	14.79          	2.353
MS.350         	14.76          	2.137
MS.351         	14.73          	1.917
MS.352         	14.7           	1.789
MS.353         	14.672         	1.7
MS.354         	14.642         	2.117
MS.355         	14.612         	1.565
MS.356         	14.582         	2.481
MS.357         	14.555         	2.272
MS.358         	14.525         	2.137
MS.359         	14.497         	1.031
MS.360         	14.467         	1.178
MS.361         	14.438         	2.431
MS.362         	14.41          	1.317
MS.363         	14.38          	1.893
MS.364         	14.352         	1.38
MS.365         	14.322         	2.32
MS.366         	14.295         	1.885
MS.367         	14.267         	1.279
MS.368         	14.237         	1.627
MS.369         	14.21          	1.728
MS.370         	14.18          	1.746
MS.371         	14.153         	1.7
MS.372         	14.125         	1.631
MS.373         	14.095         	1.942
MS.374         	14.068         	1.345
MS.375         	14.04          	1.511
MS.376         	14.012         	1.013
MS.377         	13.985         	1.593
MS.378         	13.955         	0.943
MS.379         	13.927         	0.949
MS.380         	13.9           	1.092
MS.381         	13.872         	0.693
MS.382         	13.845         	1.482
MS.383         	13.818         	0.993
MS.384         	13.79          	0.767
MS.385         	13.762         	0.733
MS.386         	13.735         	0.757
MS.387         	13.707         	1.18
MS.388         	13.68          	0.705
MS.389         	13.653         	1.142
MS.390         	13.625         	0.771
MS.391         	13.597         	0.608
MS.392         	13.57          	0.721
MS.393         	13.542         	0.6
MS.394         	13.517         	0.614
MS.395         	13.49          	0.701
MS.396         	13.462         	0.804
MS.397         	13.435         	0.526
MS.398         	13.407         	0.749
MS.399         	13.382         	0.369
MS.400         	13.355         	0.407
MS.401         	13.327         	0.59
MS.402         	13.302         	0.568
MS.403         	13.275         	0.411
MS.404         	13.247         	0.447
MS.405         	13.222         	0.6
MS.406         	13.195         	0.477
MS.407         	13.17          	0.27
MS.408         	13.142         	0.352
MS.409         	13.117         	0.429
MS.410         	13.09          	0.389
MS.411         	13.065         	0.379
MS.412         	13.037         	0.264
MS.413         	13.012         	0.27
MS.414         	12.987         	0.282
MS.415         	12.96          	0.324
MS.416         	12.935         	0.367
MS.417         	12.907         	0.365
MS.418         	12.882         	0.278
MS.419         	12.858         	0.375
MS.420         	12.832         	0.236
MS.421         	12.805         	0.268
MS.422         	12.78          	0.316
MS.423         	12.755         	0.485
MS.424         	12.73          	0.296
MS.425         	12.705         	0.129
MS.426         	12.677         	0.26
MS.427         	12.653         	0.242
MS.428         	12.627         	0.312
MS.429         	12.602         	0.296
MS.430         	12.577         	0.232
MS.431         	12.552         	0.254
MS.432         	12.528         	0.222
MS.433         	12.502         	0.238
MS.434         	12.477         	0.242
MS.435         	12.452         	0.244
MS.436         	12.427         	0.238
MS.437         	12.403         	0.238
MS.438         	12.377         	0.236
MS.439         	12.352         	0.242
MS.440         	12.327         	0.27
MS.441         	12.302         	0.236
MS.442         	12.28          	0.236
MS.443         	12.255         	0.218
MS.444         	12.23          	0.256
MS.445         	12.205         	0.222
MS.446         	12.182         	0.103
MS.447         	12.157         	0.226
MS.448         	12.132         	0.24
MS.449         	12.108         	0.244
MS.450         	12.085         	0.107
MS.451         	12.06          	0.246
MS.452         	12.035         	0.103
MS.453         	12.012         	0.105
MS.454         	11.988         	0.103
MS.455         	11.965         	0.236
MS.456         	11.94          	0.242
MS.457         	11.915         	0.109
MS.458         	11.892         	0.201
MS.459         	11.867         	0.085
MS.460         	11.845         	0.236
MS.461         	11.822         	0.107
MS.462         	11.797         	0.109
MS.463         	11.775         	0.211
MS.464         	11.75          	0.062
MS.465         	11.727         	0.062
MS.466         	11.702         	0.085
MS.467         	11.68          	0.089
MS.468         	11.657         	0.224
MS.469         	11.632         	0.242
MS.470         	11.61          	0.207
MS.471         	11.587         	0.111
MS.472         	11.565         	0.091
MS.473         	11.54          	0.089
MS.474         	11.517         	0.066
MS.475         	11.495         	0.091
MS.476         	11.472         	0.087
MS.477         	11.45          	0.218
MS.478         	11.425         	0.093
MS.479         	11.403         	0.095
MS.480         	11.38          	0.091
MS.481         	11.358         	0.089
MS.482         	11.335         	0.089
MS.483         	11.312         	0.068
MS.484         	11.29          	0.068
MS.485         	11.267         	0.091
MS.486         	11.245         	0.073
MS.487         	11.222         	0.068
MS.488         	11.2           	0.07
MS.489         	11.177         	0.068
MS.490         	11.155         	0.085
MS.491         	11.132         	0.066
MS.492         	11.11          	0.062
MS.493         	11.087         	0.066
MS.494         	11.068         	0.079
MS.495         	11.045         	0.073
MS.496         	11.023         	0.07
MS.497         	11             	0.068
