File:              	C:\Qtrac\Data\Daniel M Sørensen\MScan multicentre study\Data from centres\Ankara\Processed data\FBC10113B.QZD
Name:              	TR.ANK.NC.5.1
Protocol:          	MSCAN-R2
Date:              	13/1/21
Start time:        	16:26:56
Age:               	33
Sex:               	F
Temperature:
S/R sites:         	ADM
NC/disease:        	NC
Operator:          	EB
Comments:
M-SCAN DATA (5.1-0.9m)
Scanpts: 14, 19, 448, 453
Stim. (mA)     	Amp. (mV)
MS.1           	21             	14.854
MS.2           	21             	14.903
MS.3           	21             	14.879
MS.4           	21             	14.885
MS.5           	21             	14.955
MS.6           	21             	14.881
MS.7           	21             	14.949
MS.8           	21             	14.975
MS.9           	21             	14.943
MS.10          	21             	14.947
MS.11          	21             	14.838
MS.12          	21             	14.969
MS.13          	21             	14.995
MS.14          	21             	14.987
MS.15          	21             	14.977
MS.16          	21             	14.961
MS.17          	21             	14.985
MS.18          	21             	14.895
MS.19          	21             	14.961
MS.20          	21             	14.979
MS.21          	21             	14.997
MS.22          	21             	14.933
MS.23          	21             	14.85
MS.24          	20.958         	14.969
MS.25          	20.915         	14.939
MS.26          	20.875         	14.881
MS.27          	20.833         	14.913
MS.28          	20.79          	14.967
MS.29          	20.75          	14.939
MS.30          	20.708         	14.86
MS.31          	20.667         	14.86
MS.32          	20.625         	14.981
MS.33          	20.585         	14.875
MS.34          	20.542         	14.844
MS.35          	20.502         	14.846
MS.36          	20.46          	14.86
MS.37          	20.42          	14.852
MS.38          	20.38          	14.798
MS.39          	20.337         	14.83
MS.40          	20.297         	14.8
MS.41          	20.257         	14.804
MS.42          	20.217         	14.828
MS.43          	20.177         	14.804
MS.44          	20.137         	14.766
MS.45          	20.095         	14.77
MS.46          	20.055         	14.778
MS.47          	20.015         	14.806
MS.48          	19.975         	14.838
MS.49          	19.935         	14.717
MS.50          	19.895         	14.778
MS.51          	19.858         	14.79
MS.52          	19.817         	14.756
MS.53          	19.778         	14.693
MS.54          	19.737         	14.699
MS.55          	19.698         	14.794
MS.56          	19.66          	14.748
MS.57          	19.62          	14.689
MS.58          	19.58          	14.738
MS.59          	19.54          	14.703
MS.60          	19.502         	14.75
MS.61          	19.462         	14.627
MS.62          	19.425         	14.651
MS.63          	19.385         	14.57
MS.64          	19.347         	14.518
MS.65          	19.307         	14.581
MS.66          	19.27          	14.506
MS.67          	19.23          	14.578
MS.68          	19.192         	14.526
MS.69          	19.155         	14.45
MS.70          	19.115         	14.339
MS.71          	19.077         	14.599
MS.72          	19.04          	14.484
MS.73          	19.002         	14.474
MS.74          	18.962         	14.357
MS.75          	18.925         	14.5
MS.76          	18.887         	14.288
MS.77          	18.85          	14.186
MS.78          	18.812         	14.228
MS.79          	18.775         	14.145
MS.80          	18.737         	14.158
MS.81          	18.7           	14.22
MS.82          	18.663         	14.248
MS.83          	18.625         	14.224
MS.84          	18.587         	14.049
MS.85          	18.55          	13.821
MS.86          	18.515         	13.894
MS.87          	18.477         	14.045
MS.88          	18.44          	13.745
MS.89          	18.403         	14.004
MS.90          	18.368         	13.779
MS.91          	18.33          	13.735
MS.92          	18.292         	13.731
MS.93          	18.257         	13.731
MS.94          	18.22          	13.972
MS.95          	18.182         	13.553
MS.96          	18.147         	13.7
MS.97          	18.11          	13.36
MS.98          	18.075         	13.61
MS.99          	18.04          	13.491
MS.100         	18.003         	13.384
MS.101         	17.967         	13.652
MS.102         	17.93          	13.36
MS.103         	17.895         	13.475
MS.104         	17.86          	13.312
MS.105         	17.823         	13.404
MS.106         	17.788         	13.336
MS.107         	17.753         	13.316
MS.108         	17.717         	13.279
MS.109         	17.682         	13.223
MS.110         	17.645         	13.082
MS.111         	17.61          	13.152
MS.112         	17.575         	13.062
MS.113         	17.54          	12.973
MS.114         	17.505         	12.909
MS.115         	17.47          	13.152
MS.116         	17.435         	13.036
MS.117         	17.4           	13.048
MS.118         	17.365         	12.929
MS.119         	17.333         	12.923
MS.120         	17.297         	13.07
MS.121         	17.262         	13.001
MS.122         	17.227         	12.86
MS.123         	17.192         	12.937
MS.124         	17.16          	12.717
MS.125         	17.125         	12.758
MS.126         	17.09          	12.788
MS.127         	17.057         	12.623
MS.128         	17.022         	12.693
MS.129         	16.987         	12.758
MS.130         	16.955         	12.147
MS.131         	16.92          	12.727
MS.132         	16.887         	12.46
MS.133         	16.852         	11.646
MS.134         	16.82          	12.377
MS.135         	16.785         	11.936
MS.136         	16.753         	12.087
MS.137         	16.717         	11.69
MS.138         	16.685         	12.014
MS.139         	16.653         	11.608
MS.140         	16.618         	11.531
MS.141         	16.585         	11.495
MS.142         	16.552         	12.039
MS.143         	16.52          	11.513
MS.144         	16.485         	11.517
MS.145         	16.452         	11.624
MS.146         	16.42          	11.185
MS.147         	16.387         	11.289
MS.148         	16.355         	11.164
MS.149         	16.323         	11.408
MS.150         	16.29          	11.122
MS.151         	16.257         	11.007
MS.152         	16.225         	11.054
MS.153         	16.192         	11.267
MS.154         	16.16          	10.887
MS.155         	16.128         	11.104
MS.156         	16.095         	11.277
MS.157         	16.062         	10.885
MS.158         	16.03          	10.85
MS.159         	16             	10.685
MS.160         	15.967         	10.566
MS.161         	15.935         	10.866
MS.162         	15.902         	10.52
MS.163         	15.872         	10.49
MS.164         	15.84          	10.411
MS.165         	15.807         	10.218
MS.166         	15.777         	10.77
MS.167         	15.745         	10.182
MS.168         	15.712         	9.988
MS.169         	15.682         	10.25
MS.170         	15.65          	10.466
MS.171         	15.62          	10.182
MS.172         	15.587         	9.98
MS.173         	15.557         	10.143
MS.174         	15.525         	10.123
MS.175         	15.495         	9.849
MS.176         	15.465         	9.747
MS.177         	15.432         	10.115
MS.178         	15.402         	9.861
MS.179         	15.372         	9.674
MS.180         	15.34          	9.634
MS.181         	15.31          	9.595
MS.182         	15.28          	9.394
MS.183         	15.25          	9.42
MS.184         	15.217         	9.36
MS.185         	15.188         	9.338
MS.186         	15.157         	9.301
MS.187         	15.127         	9.187
MS.188         	15.097         	9.265
MS.189         	15.068         	9.142
MS.190         	15.037         	9.076
MS.191         	15.007         	9.195
MS.192         	14.977         	9.106
MS.193         	14.947         	9.104
MS.194         	14.917         	9.11
MS.195         	14.887         	8.971
MS.196         	14.858         	9.036
MS.197         	14.827         	8.776
MS.198         	14.797         	8.858
MS.199         	14.77          	8.84
MS.200         	14.74          	8.8
MS.201         	14.71          	8.657
MS.202         	14.68          	8.834
MS.203         	14.65          	8.512
MS.204         	14.622         	8.451
MS.205         	14.592         	8.486
MS.206         	14.562         	8.5
MS.207         	14.535         	8.542
MS.208         	14.505         	8.449
MS.209         	14.477         	8.542
MS.210         	14.447         	8.512
MS.211         	14.417         	8.403
MS.212         	14.39          	8.351
MS.213         	14.36          	8.401
MS.214         	14.332         	8.302
MS.215         	14.305         	8.399
MS.216         	14.275         	8.175
MS.217         	14.247         	8.2
MS.218         	14.217         	8.204
MS.219         	14.19          	8.125
MS.220         	14.162         	8.32
MS.221         	14.132         	8.244
MS.222         	14.105         	8.119
MS.223         	14.077         	8.119
MS.224         	14.047         	8.047
MS.225         	14.02          	7.91
MS.226         	13.992         	7.825
MS.227         	13.965         	7.865
MS.228         	13.938         	8.008
MS.229         	13.91          	7.896
MS.230         	13.88          	7.636
MS.231         	13.852         	7.811
MS.232         	13.825         	7.708
MS.233         	13.797         	7.69
MS.234         	13.77          	7.42
MS.235         	13.742         	7.523
MS.236         	13.715         	7.307
MS.237         	13.688         	7.263
MS.238         	13.66          	7.72
MS.239         	13.632         	7.483
MS.240         	13.605         	7.18
MS.241         	13.58          	7.122
MS.242         	13.552         	6.981
MS.243         	13.525         	7.011
MS.244         	13.497         	6.939
MS.245         	13.47          	6.844
MS.246         	13.445         	7.021
MS.247         	13.417         	6.866
MS.248         	13.39          	7.07
MS.249         	13.362         	6.727
MS.250         	13.337         	6.586
MS.251         	13.31          	6.478
MS.252         	13.282         	6.782
MS.253         	13.257         	6.516
MS.254         	13.23          	6.224
MS.255         	13.205         	6.337
MS.256         	13.177         	6.254
MS.257         	13.153         	5.515
MS.258         	13.125         	6.234
MS.259         	13.1           	6.256
MS.260         	13.072         	6.304
MS.261         	13.047         	5.426
MS.262         	13.02          	5.575
MS.263         	12.995         	5.547
MS.264         	12.967         	5.742
MS.265         	12.943         	5.748
MS.266         	12.917         	5.249
MS.267         	12.89          	5.138
MS.268         	12.865         	5.307
MS.269         	12.84          	5.442
MS.270         	12.815         	5.084
MS.271         	12.787         	4.945
MS.272         	12.762         	4.759
MS.273         	12.738         	5.041
MS.274         	12.712         	5.317
MS.275         	12.688         	5.007
MS.276         	12.66          	4.822
MS.277         	12.635         	4.492
MS.278         	12.61          	4.884
MS.279         	12.585         	4.379
MS.280         	12.56          	4.594
MS.281         	12.535         	4.31
MS.282         	12.51          	4.455
MS.283         	12.485         	4.216
MS.284         	12.46          	4.451
MS.285         	12.435         	4.21
MS.286         	12.41          	4.052
MS.287         	12.385         	4.159
MS.288         	12.36          	4.048
MS.289         	12.335         	3.99
MS.290         	12.312         	3.696
MS.291         	12.287         	4.018
MS.292         	12.262         	3.867
MS.293         	12.238         	3.462
MS.294         	12.212         	3.833
MS.295         	12.19          	3.734
MS.296         	12.165         	3.646
MS.297         	12.14          	3.412
MS.298         	12.115         	3.434
MS.299         	12.092         	3.257
MS.300         	12.068         	3.646
MS.301         	12.042         	3.249
MS.302         	12.02          	3.231
MS.303         	11.995         	3.501
MS.304         	11.972         	3.45
MS.305         	11.947         	3.317
MS.306         	11.922         	3.35
MS.307         	11.9           	3.241
MS.308         	11.875         	2.949
MS.309         	11.852         	2.87
MS.310         	11.827         	2.761
MS.311         	11.805         	2.838
MS.312         	11.782         	2.979
MS.313         	11.757         	2.933
MS.314         	11.735         	2.975
MS.315         	11.71          	2.808
MS.316         	11.688         	2.699
MS.317         	11.665         	2.753
MS.318         	11.64          	2.86
MS.319         	11.617         	2.705
MS.320         	11.595         	2.582
MS.321         	11.57          	2.419
MS.322         	11.547         	2.421
MS.323         	11.525         	2.413
MS.324         	11.502         	2.461
MS.325         	11.48          	2.175
MS.326         	11.455         	2.179
MS.327         	11.432         	2.538
MS.328         	11.41          	2.044
MS.329         	11.387         	2.155
MS.330         	11.365         	2.095
MS.331         	11.342         	1.853
MS.332         	11.32          	2.24
MS.333         	11.297         	1.688
MS.334         	11.275         	1.696
MS.335         	11.252         	1.696
MS.336         	11.23          	2.026
MS.337         	11.207         	1.674
MS.338         	11.185         	1.545
MS.339         	11.162         	1.396
MS.340         	11.14          	1.4
MS.341         	11.117         	1.499
MS.342         	11.095         	1.243
MS.343         	11.073         	1.331
MS.344         	11.05          	1.251
MS.345         	11.03          	1.11
MS.346         	11.007         	1.009
MS.347         	10.985         	1.08
MS.348         	10.962         	1.047
MS.349         	10.94          	1.132
MS.350         	10.92          	1.146
MS.351         	10.898         	1.053
MS.352         	10.875         	1.273
MS.353         	10.855         	1.186
MS.354         	10.832         	1.009
MS.355         	10.81          	1.204
MS.356         	10.79          	0.832
MS.357         	10.767         	0.987
MS.358         	10.745         	0.894
MS.359         	10.725         	0.961
MS.360         	10.702         	0.814
MS.361         	10.682         	0.924
MS.362         	10.66          	0.866
MS.363         	10.64          	0.834
MS.364         	10.617         	0.83
MS.365         	10.597         	0.838
MS.366         	10.575         	0.715
MS.367         	10.555         	0.663
MS.368         	10.532         	0.755
MS.369         	10.512         	0.747
MS.370         	10.49          	0.731
MS.371         	10.47          	0.669
MS.372         	10.45          	0.727
MS.373         	10.427         	0.638
MS.374         	10.407         	0.56
MS.375         	10.387         	0.638
MS.376         	10.365         	0.707
MS.377         	10.345         	0.586
MS.378         	10.325         	0.544
MS.379         	10.305         	0.538
MS.380         	10.282         	0.761
MS.381         	10.262         	0.475
MS.382         	10.242         	0.437
MS.383         	10.222         	0.433
MS.384         	10.202         	0.578
MS.385         	10.18          	0.389
MS.386         	10.16          	0.548
MS.387         	10.14          	0.673
MS.388         	10.12          	0.538
MS.389         	10.1           	0.497
MS.390         	10.08          	0.487
MS.391         	10.06          	0.691
MS.392         	10.04          	0.469
MS.393         	10.02          	0.348
MS.394         	10             	0.429
MS.395         	9.98           	0.489
MS.396         	9.96           	0.371
MS.397         	9.94           	0.495
MS.398         	9.92           	0.485
MS.399         	9.9            	0.276
MS.400         	9.88           	0.207
MS.401         	9.86           	0.244
MS.402         	9.84           	0.129
MS.403         	9.82           	0.29
MS.404         	9.802          	0.326
MS.405         	9.782          	0.23
MS.406         	9.762          	0.115
MS.407         	9.742          	-0.02
MS.408         	9.722          	0.093
MS.409         	9.705          	0.036
MS.410         	9.685          	-0.002
MS.411         	9.665          	0.073
MS.412         	9.645          	-0.012
MS.413         	9.627          	0.014
MS.414         	9.608          	0.022
MS.415         	9.587          	-0.04
MS.416         	9.57           	-0.004
MS.417         	9.55           	0.012
MS.418         	9.53           	-0.006
MS.419         	9.512          	0.002
MS.420         	9.492          	-0.018
MS.421         	9.472          	-0.004
MS.422         	9.455          	-0.077
MS.423         	9.435          	0.028
MS.424         	9.417          	0.000
MS.425         	9.398          	-0.089
MS.426         	9.38           	-0.079
MS.427         	9.36           	-0.083
MS.428         	9.342          	-0.056
MS.429         	9.323          	-0.107
MS.430         	9.305          	-0.095
MS.431         	9.285          	-0.089
MS.432         	9.267          	-0.101
MS.433         	9.25           	-0.056
MS.434         	9.23           	-0.139
MS.435         	9.212          	-0.111
MS.436         	9.193          	-0.103
MS.437         	9.175          	-0.157
MS.438         	9.158          	-0.083
MS.439         	9.137          	-0.133
MS.440         	9.12           	-0.115
MS.441         	9.102          	-0.091
MS.442         	9.085          	-0.081
MS.443         	9.065          	-0.153
MS.444         	9.047          	-0.161
MS.445         	9.03           	-0.151
MS.446         	9.012          	-0.167
MS.447         	8.992          	-0.151
MS.448         	8.975          	-0.165
MS.449         	8.957          	-0.155
MS.450         	8.94           	-0.171
MS.451         	8.922          	-0.127
MS.452         	8.905          	-0.151
MS.453         	8.887          	-0.163
MS.454         	8.867          	-0.165
MS.455         	8.85           	-0.163
MS.456         	8.832          	-0.141
MS.457         	8.815          	-0.167
MS.458         	8.797          	-0.149
MS.459         	8.78           	-0.129
MS.460         	8.762          	-0.161
MS.461         	8.745          	-0.147
MS.462         	8.727          	-0.169
MS.463         	8.71           	-0.165
MS.464         	8.693          	-0.163
MS.465         	8.675          	-0.169
MS.466         	8.658          	-0.163
MS.467         	8.64           	-0.163
DERIVED EXCITABILITY VARIABLES
Program = QTracP 3/4/2020
Threshold method = 6 (optimised for CAP, using data for present condition only)
SR method = 1 (using actual data values)
6.                 	0.000               	Peak response\(mV)
17.                	33                  	Age (years)
18.                	2                   	Sex (M=1, F=2)

EXTRA VARIABLES

MScPeak(mV) = 15.1
MScS5(mA) = 10.44
MScS50(mA) = 13.7
MScS95(mA) = 19.04
MScNSteps = 1
MScSteps(%) = 3.1
MScStepMax(%) = 3.1
MScD50 = 65
MScSlope = 3.34
MSFPeakAmp(mV) = 15.1
MSFNUnits = 165
MSFMeanUnitAmp(uV) = 91.6
MSFHuntTime(m) = 2.75
MSFError(%) = 4.05
MSFNLarge = 51.93
MSFMedianAmp(%) = 0.501
MSFMedianAmp(mV) = 0.0758
MSFHalfAmpAmp(%) = 0.686
MSFHalfAmpAmp(mV) = 0.104
MSFLargestAmp(%) = 1.61
MSFLargestAmp(mV) = 0.244
MSFMeanRS(%) = 2
MSFOpts = 10106121
MScDuration(min) = 4.2
MSFTraces = 440
MSFSizeLimit(uV) = 37.8
MSFLimitType = 1
MSFSmallestAmp(uV) = 39.1

EXTRA WAVEFORMS


!MScan Model
!165
	1	9.33	0.45	2
	2	9.46	0.3	2
	3	9.69	0.61	2
	4	9.75	0.38	2
	5	9.79	0.34	2
	6	9.83	0.42	2
	7	9.88	0.55	2
	8	9.94	0.86	2
