File:              	C:\Qtrac\Data\Daniel M Sørensen\MScan multicentre study\Data from centres\Ankara\Processed data\HKC10122B.QZD
Name:              	TR.ANK.NC.8.2
Protocol:          	MSCAN-R2
Date:              	22/1/21
Start time:        	16:49:12
Age:               	25
Sex:               	F
Temperature:
S/R sites:         	ADM
NC/disease:        	NC
Operator:          	HA
Comments:
M-SCAN DATA (4.5-0.8m)
Scanpts: 24, 27, 393, 414
Stim. (mA)     	Amp. (mV)
MS.1           	20             	8.518
MS.2           	20             	8.484
MS.3           	20             	8.518
MS.4           	20             	8.442
MS.5           	20             	8.56
MS.6           	20             	8.477
MS.7           	20             	8.423
MS.8           	20             	8.48
MS.9           	20             	8.405
MS.10          	20             	8.414
MS.11          	20             	8.387
MS.12          	20             	8.425
MS.13          	20             	8.37
MS.14          	20             	8.362
MS.15          	20             	8.363
MS.16          	20             	8.411
MS.17          	20             	8.51
MS.18          	20             	8.467
MS.19          	20             	8.37
MS.20          	20             	8.407
MS.21          	20             	8.409
MS.22          	20             	8.438
MS.23          	19.96          	8.425
MS.24          	19.92          	8.384
MS.25          	19.88          	8.428
MS.26          	19.84          	8.436
MS.27          	19.8           	8.417
MS.28          	19.762         	8.379
MS.29          	19.722         	8.351
MS.30          	19.682         	8.363
MS.31          	19.642         	8.353
MS.32          	19.605         	8.308
MS.33          	19.565         	8.32
MS.34          	19.525         	8.356
MS.35          	19.487         	8.398
MS.36          	19.448         	8.345
MS.37          	19.41          	8.352
MS.38          	19.37          	8.38
MS.39          	19.333         	8.333
MS.40          	19.292         	8.223
MS.41          	19.255         	8.051
MS.42          	19.215         	8.01
MS.43          	19.177         	8.081
MS.44          	19.14          	8.34
MS.45          	19.1           	8.248
MS.46          	19.062         	8.254
MS.47          	19.025         	8.289
MS.48          	18.987         	7.993
MS.49          	18.948         	8.218
MS.50          	18.91          	7.982
MS.51          	18.872         	8.23
MS.52          	18.835         	7.996
MS.53          	18.797         	8.223
MS.54          	18.76          	8.03
MS.55          	18.722         	8.23
MS.56          	18.685         	7.878
MS.57          	18.647         	7.942
MS.58          	18.61          	7.966
MS.59          	18.573         	8.239
MS.60          	18.538         	7.998
MS.61          	18.5           	8.206
MS.62          	18.462         	7.872
MS.63          	18.425         	7.747
MS.64          	18.387         	7.9
MS.65          	18.352         	7.935
MS.66          	18.315         	7.723
MS.67          	18.278         	7.9
MS.68          	18.243         	7.915
MS.69          	18.205         	7.649
MS.70          	18.17          	7.863
MS.71          	18.132         	7.476
MS.72          	18.097         	7.43
MS.73          	18.06          	7.377
MS.74          	18.025         	7.316
MS.75          	17.987         	7.7
MS.76          	17.952         	7.402
MS.77          	17.917         	7.384
MS.78          	17.88          	7.366
MS.79          	17.845         	7.462
MS.80          	17.81          	7.153
MS.81          	17.775         	7.826
MS.82          	17.737         	7.234
MS.83          	17.702         	7.249
MS.84          	17.667         	7.395
MS.85          	17.632         	7.065
MS.86          	17.597         	6.914
MS.87          	17.562         	6.971
MS.88          	17.528         	7.196
MS.89          	17.493         	7.139
MS.90          	17.458         	7.109
MS.91          	17.422         	7.047
MS.92          	17.387         	6.992
MS.93          	17.352         	7.046
MS.94          	17.317         	6.763
MS.95          	17.282         	6.924
MS.96          	17.247         	6.598
MS.97          	17.215         	6.769
MS.98          	17.18          	6.842
MS.99          	17.145         	6.562
MS.100         	17.11          	6.731
MS.101         	17.077         	6.533
MS.102         	17.042         	6.544
MS.103         	17.01          	6.702
MS.104         	16.975         	6.929
MS.105         	16.94          	6.689
MS.106         	16.907         	6.583
MS.107         	16.872         	6.595
MS.108         	16.84          	6.592
MS.109         	16.805         	6.553
MS.110         	16.772         	6.362
MS.111         	16.74          	6.649
MS.112         	16.705         	6.34
MS.113         	16.672         	6.288
MS.114         	16.637         	6.288
MS.115         	16.605         	6.326
MS.116         	16.573         	6.489
MS.117         	16.54          	6.095
MS.118         	16.505         	6.274
MS.119         	16.472         	6.299
MS.120         	16.44          	6.305
MS.121         	16.407         	6.281
MS.122         	16.375         	6.332
MS.123         	16.342         	6.083
MS.124         	16.31          	5.959
MS.125         	16.278         	6.346
MS.126         	16.245         	6.24
MS.127         	16.212         	6.031
MS.128         	16.18          	6.267
MS.129         	16.147         	6.179
MS.130         	16.115         	6.056
MS.131         	16.083         	5.989
MS.132         	16.05          	6.146
MS.133         	16.017         	6.072
MS.134         	15.987         	6.15
MS.135         	15.955         	5.82
MS.136         	15.922         	5.701
MS.137         	15.89          	5.85
MS.138         	15.86          	5.745
MS.139         	15.827         	5.905
MS.140         	15.795         	5.84
MS.141         	15.765         	5.903
MS.142         	15.733         	5.612
MS.143         	15.7           	5.514
MS.144         	15.67          	5.542
MS.145         	15.637         	5.677
MS.146         	15.608         	5.532
MS.147         	15.575         	5.444
MS.148         	15.545         	5.269
MS.149         	15.515         	5.552
MS.150         	15.483         	5.382
MS.151         	15.452         	5.334
MS.152         	15.42          	5.355
MS.153         	15.39          	4.987
MS.154         	15.36          	5.289
MS.155         	15.33          	5.443
MS.156         	15.297         	4.84
MS.157         	15.267         	5.14
MS.158         	15.237         	5.164
MS.159         	15.207         	5.32
MS.160         	15.177         	5.425
MS.161         	15.145         	4.752
MS.162         	15.115         	4.711
MS.163         	15.085         	5.02
MS.164         	15.055         	4.799
MS.165         	15.025         	4.694
MS.166         	14.995         	4.805
MS.167         	14.965         	4.303
MS.168         	14.935         	4.473
MS.169         	14.905         	4.354
MS.170         	14.875         	4.243
MS.171         	14.845         	4.017
MS.172         	14.818         	4.485
MS.173         	14.787         	4.045
MS.174         	14.757         	3.956
MS.175         	14.727         	3.787
MS.176         	14.697         	3.401
MS.177         	14.67          	3.727
MS.178         	14.64          	3.304
MS.179         	14.61          	3.26
MS.180         	14.58          	3.521
MS.181         	14.552         	3.535
MS.182         	14.523         	3.383
MS.183         	14.495         	3.538
MS.184         	14.465         	3.353
MS.185         	14.435         	3.337
MS.186         	14.407         	3.776
MS.187         	14.377         	3.756
MS.188         	14.35          	2.928
MS.189         	14.32          	3.232
MS.190         	14.292         	3.126
MS.191         	14.265         	3.434
MS.192         	14.235         	2.994
MS.193         	14.207         	2.872
MS.194         	14.177         	2.98
MS.195         	14.15          	2.905
MS.196         	14.122         	3.071
MS.197         	14.095         	2.959
MS.198         	14.065         	2.88
MS.199         	14.037         	2.782
MS.200         	14.01          	2.979
MS.201         	13.983         	2.671
MS.202         	13.952         	2.487
MS.203         	13.925         	2.615
MS.204         	13.898         	2.517
MS.205         	13.87          	2.649
MS.206         	13.842         	2.448
MS.207         	13.815         	2.404
MS.208         	13.787         	2.192
MS.209         	13.76          	2.289
MS.210         	13.733         	2.283
MS.211         	13.705         	2.186
MS.212         	13.677         	2.04
MS.213         	13.65          	2.058
MS.214         	13.622         	2.129
MS.215         	13.595         	2.063
MS.216         	13.568         	2.245
MS.217         	13.54          	2.047
MS.218         	13.515         	2.126
MS.219         	13.487         	2.175
MS.220         	13.46          	2.135
MS.221         	13.432         	2.104
MS.222         	13.407         	1.836
MS.223         	13.38          	2.228
MS.224         	13.352         	1.927
MS.225         	13.325         	1.991
MS.226         	13.3           	1.981
MS.227         	13.273         	1.948
MS.228         	13.247         	2.013
MS.229         	13.22          	1.87
MS.230         	13.193         	1.885
MS.231         	13.167         	1.79
MS.232         	13.14          	1.753
MS.233         	13.115         	1.825
MS.234         	13.087         	1.81
MS.235         	13.062         	1.871
MS.236         	13.035         	1.766
MS.237         	13.01          	1.714
MS.238         	12.985         	1.68
MS.239         	12.957         	1.63
MS.240         	12.932         	1.676
MS.241         	12.907         	1.627
MS.242         	12.88          	1.757
MS.243         	12.855         	1.639
MS.244         	12.83          	1.638
MS.245         	12.802         	1.488
MS.246         	12.778         	1.637
MS.247         	12.752         	1.632
MS.248         	12.727         	1.525
MS.249         	12.702         	1.451
MS.250         	12.677         	1.599
MS.251         	12.65          	1.573
MS.252         	12.625         	1.525
MS.253         	12.6           	1.44
MS.254         	12.575         	1.614
MS.255         	12.55          	1.544
MS.256         	12.525         	1.411
MS.257         	12.5           	1.495
MS.258         	12.475         	1.487
MS.259         	12.45          	1.431
MS.260         	12.425         	1.451
MS.261         	12.4           	1.223
MS.262         	12.375         	1.331
MS.263         	12.35          	1.522
MS.264         	12.327         	1.326
MS.265         	12.302         	1.302
MS.266         	12.278         	1.315
MS.267         	12.252         	1.35
MS.268         	12.227         	1.337
MS.269         	12.202         	1.365
MS.270         	12.18          	1.206
MS.271         	12.155         	1.442
MS.272         	12.13          	1.359
MS.273         	12.108         	1.311
MS.274         	12.082         	1.091
MS.275         	12.057         	1.121
MS.276         	12.035         	1.338
MS.277         	12.01          	1.219
MS.278         	11.985         	0.839
MS.279         	11.962         	1.121
MS.280         	11.938         	1.102
MS.281         	11.915         	1.036
MS.282         	11.89          	0.691
MS.283         	11.867         	0.961
MS.284         	11.842         	0.796
MS.285         	11.82          	0.896
MS.286         	11.795         	0.92
MS.287         	11.773         	0.693
MS.288         	11.747         	0.966
MS.289         	11.725         	0.742
MS.290         	11.702         	1.051
MS.291         	11.677         	0.907
MS.292         	11.655         	0.763
MS.293         	11.632         	0.649
MS.294         	11.608         	0.704
MS.295         	11.585         	0.919
MS.296         	11.562         	0.618
MS.297         	11.54          	0.577
MS.298         	11.515         	0.624
MS.299         	11.492         	0.59
MS.300         	11.47          	0.615
MS.301         	11.447         	0.67
MS.302         	11.425         	0.774
MS.303         	11.403         	0.614
MS.304         	11.377         	0.669
MS.305         	11.355         	0.682
MS.306         	11.332         	0.643
MS.307         	11.31          	0.614
MS.308         	11.287         	0.557
MS.309         	11.265         	0.562
MS.310         	11.242         	0.546
MS.311         	11.22          	0.647
MS.312         	11.197         	0.521
MS.313         	11.175         	0.485
MS.314         	11.153         	0.494
MS.315         	11.13          	0.437
MS.316         	11.108         	0.558
MS.317         	11.087         	0.428
MS.318         	11.065         	0.546
MS.319         	11.042         	0.47
MS.320         	11.02          	0.363
MS.321         	10.997         	0.424
MS.322         	10.975         	0.353
MS.323         	10.955         	0.411
MS.324         	10.932         	0.267
MS.325         	10.91          	0.388
MS.326         	10.89          	0.339
MS.327         	10.867         	0.348
MS.328         	10.845         	0.298
MS.329         	10.823         	0.266
MS.330         	10.802         	0.217
MS.331         	10.78          	0.272
MS.332         	10.76          	0.286
MS.333         	10.738         	0.216
MS.334         	10.715         	0.242
MS.335         	10.695         	0.219
MS.336         	10.672         	0.247
MS.337         	10.653         	0.179
MS.338         	10.63          	0.189
MS.339         	10.61          	0.129
MS.340         	10.587         	0.133
MS.341         	10.568         	0.214
MS.342         	10.545         	0.101
MS.343         	10.525         	0.15
MS.344         	10.505         	0.063
MS.345         	10.483         	0.211
MS.346         	10.462         	0.037
MS.347         	10.44          	0.121
MS.348         	10.42          	0.044
MS.349         	10.4           	0.034
MS.350         	10.377         	0.145
MS.351         	10.358         	0.046
MS.352         	10.337         	0.037
MS.353         	10.318         	0.105
MS.354         	10.295         	0.035
MS.355         	10.275         	0.043
MS.356         	10.255         	0.107
MS.357         	10.235         	0.038
MS.358         	10.212         	0.095
MS.359         	10.193         	0.037
MS.360         	10.172         	0.106
MS.361         	10.153         	0.038
MS.362         	10.132         	0.038
MS.363         	10.113         	0.037
MS.364         	10.092         	0.037
MS.365         	10.073         	0.038
MS.366         	10.052         	0.034
MS.367         	10.032         	0.033
MS.368         	10.012         	0.037
MS.369         	9.992          	0.039
MS.370         	9.972          	0.033
MS.371         	9.952          	0.033
MS.372         	9.932          	0.035
MS.373         	9.912          	0.038
MS.374         	9.892          	0.038
MS.375         	9.872          	0.035
MS.376         	9.852          	0.035
MS.377         	9.832          	0.037
MS.378         	9.812          	0.037
MS.379         	9.792          	0.037
MS.380         	9.775          	0.037
MS.381         	9.755          	0.032
MS.382         	9.735          	0.038
MS.383         	9.715          	0.037
MS.384         	9.695          	0.032
MS.385         	9.677          	0.033
MS.386         	9.657          	0.035
MS.387         	9.637          	0.035
MS.388         	9.62           	0.035
MS.389         	9.6            	0.033
MS.390         	9.58           	0.038
MS.391         	9.562          	0.042
MS.392         	9.542          	0.037
MS.393         	9.523          	0.037
MS.394         	9.505          	0.033
MS.395         	9.485          	0.035
MS.396         	9.465          	0.034
MS.397         	9.448          	0.038
MS.398         	9.427          	0.039
MS.399         	9.41           	0.034
MS.400         	9.39           	0.039
MS.401         	9.372          	0.039
MS.402         	9.352          	0.034
MS.403         	9.335          	0.035
MS.404         	9.315          	0.038
MS.405         	9.297          	0.035
MS.406         	9.28           	0.039
MS.407         	9.26           	0.039
MS.408         	9.242          	0.038
MS.409         	9.222          	0.006
MS.410         	9.205          	0.034
MS.411         	9.188          	0.035
MS.412         	9.167          	0.006
MS.413         	9.15           	0.038
MS.414         	9.132          	0.005
DERIVED EXCITABILITY VARIABLES
Program = QTracP 3/4/2020
Threshold method = 6 (optimised for CAP, using data for present condition only)
SR method = 1 (using actual data values)
6.                 	0.000               	Peak response\(mV)
17.                	25                  	Age (years)
18.                	2                   	Sex (M=1, F=2)

EXTRA VARIABLES

MScPeak(mV) = 8.41
MScS5(mA) = 11.01
MScS50(mA) = 14.83
MScS95(mA) = 18.72
MScNSteps = 5
MScSteps(%) = 11.2
MScStepMax(%) = 2.5
MScD50 = 52
MScSlope = 5.08
MSFPeakAmp(mV) = 8.38
MSFNUnits = 87
MSFMeanUnitAmp(uV) = 96.4
MSFHuntTime(m) = 2.11
MSFError(%) = 5.2
MSFNLarge = 21.61
MSFMedianAmp(%) = 0.904
MSFMedianAmp(mV) = 0.0758
MSFHalfAmpAmp(%) = 1.44
MSFHalfAmpAmp(mV) = 0.121
MSFLargestAmp(%) = 3.42
MSFLargestAmp(mV) = 0.287
MSFMeanRS(%) = 2
MSFOpts = 10106121
MScDuration(min) = 3.7
MSFTraces = 391
MSFSizeLimit(uV) = 21
MSFLimitType = 1
MSFSmallestAmp(uV) = 22.3

EXTRA WAVEFORMS


!MScan Model
!87
	1	10.45	0.79	2
	2	10.53	0.33	2
	3	10.58	0.33	2
	4	10.68	0.73	2
	5	10.76	0.39	2
	6	10.79	0.27	2
	7	10.83	0.28	2
	8	10.87	0.36	2
	9	10.91	0.31	2
	10	10.96	0.4	2
	11	11.01	0.39	2
	12	11.06	0.38	2
	13	11.11	0.39	2
	14	11.17	0.51	2
	15	11.24	0.55	2
	16	11.48	1.2	2
	17	11.64	1.06	2
	18	11.81	1.41	2.4
	19	11.87	2.79	2
	20	11.96	0.87	2
	21	12.22	1.76	2
	22	12.37	0.96	2
	23	12.56	1.05	2
	24	12.76	1.4	2
	25	12.82	0.3	2
	26	12.88	0.47	2
	27	12.93	0.43	2
	28	12.98	0.27	2
	29	13.02	0.4	2
	30	13.06	0.46	2
	31	13.11	0.32	2
	32	13.15	0.49	2
	33	13.22	0.75	2
	34	13.38	1.32	2
	35	13.57	1.24	2
	36	13.63	0.86	2
	37	13.69	0.78	2
	38	13.72	0.43	2
	39	13.77	0.48	2
	40	13.8	0.49	2
	41	13.82	0.58	2
	42	13.86	0.75	2
	43	13.89	0.7	2
	44	13.92	0.55	2
	45	13.95	0.73	2
	46	13.99	0.76	2
	47	14.08	1.89	2
	48	14.21	3.35	2
	49	14.46	2.9	2
	50	14.58	2.12	2
	51	14.62	0.77	2.1
	52	14.66	1.2	2
	53	14.69	0.69	1.9
	54	14.77	0.75	2
	55	14.8	0.85	2
	56	14.82	1.17	2
	57	14.85	1.14	2
	58	14.87	1.29	2
	59	14.89	1.41	2
	60	14.92	1.32	2
	61	14.96	1.19	2
	62	15.03	2.52	2
	63	15.12	1.54	2
	64	15.29	2.85	2
	65	15.51	3.28	2
	66	15.59	1.95	2
	67	15.65	0.9	2
	68	15.71	0.66	2
	69	15.77	0.95	2
	70	15.83	0.95	2
	71	15.9	0.99	2
	72	16.08	1.87	2
	73	16.41	2.44	2
	74	16.6	1.44	2
	75	16.74	1.39	2
	76	17.04	2.48	2
	77	17.18	1.52	2
	78	17.3	0.78	2
	79	17.42	1.35	2
	80	17.57	2.09	2
	81	17.86	2.23	2
	82	18.09	3.42	2
	83	18.19	0.84	2
	84	18.3	1.66	2
	85	18.61	3.01	2
	86	19.33	1.45	1.92
	87	19.33	0.96	1.92

