File:              	C:\Qtrac\Data\Daniel M Sørensen\MScan multicentre study\Data from centres\Roskilde\Folders with NC-examinations\ROS_N4a\MBC00331B.QZD
Name:              	DK.ROS.NC.4.1
Protocol:          	MSCAN-R2
Date:              	31/3/20
Start time:        	12:42:37
Age:               	40
Sex:               	f
Temperature:       	36,2
S/R sites:         	Ulnar Wr-ADM
NC/disease:        	NC
Operator:          	MB
Comments:
M-SCAN DATA (6.7-1.6m)
Scanpts: 110, 115, 448, 468
Stim. (mA)     	Amp. (mV)
MS.1           	23             	10.006
MS.2           	23             	10.031
MS.3           	23             	10.012
MS.4           	23             	10.041
MS.5           	23             	10.075
MS.6           	23             	10.095
MS.7           	23             	10.091
MS.8           	23             	10.107
MS.9           	23             	10.105
MS.10          	23             	10.113
MS.11          	23             	10.129
MS.12          	23             	10.089
MS.13          	23             	10.099
MS.14          	23             	10.111
MS.15          	23             	10.079
MS.16          	23             	10.117
MS.17          	23             	10.105
MS.18          	23             	10.111
MS.19          	23             	10.107
MS.20          	23             	10.087
MS.21          	23             	10.107
MS.22          	23             	10.091
MS.23          	23             	10.125
MS.24          	22.907         	10.103
MS.25          	22.862         	10.101
MS.26          	22.817         	10.103
MS.27          	22.77          	10.113
MS.28          	22.725         	10.101
MS.29          	22.68          	10.117
MS.30          	22.635         	10.109
MS.31          	22.59          	10.117
MS.32          	22.545         	10.109
MS.33          	22.5           	10.117
MS.34          	22.455         	10.119
MS.35          	22.41          	10.127
MS.36          	22.365         	10.109
MS.37          	22.32          	10.083
MS.38          	22.275         	10.099
MS.39          	22.23          	10.117
MS.40          	22.188         	10.093
MS.41          	22.142         	10.111
MS.42          	22.097         	10.149
MS.43          	22.055         	10.135
MS.44          	22.01          	10.159
MS.45          	21.965         	10.113
MS.46          	21.922         	10.115
MS.47          	21.877         	10.145
MS.48          	21.835         	10.127
MS.49          	21.79          	10.141
MS.50          	21.747         	10.155
MS.51          	21.705         	10.153
MS.52          	21.66          	10.149
MS.53          	21.618         	10.149
MS.54          	21.575         	10.155
MS.55          	21.53          	10.186
MS.56          	21.487         	10.184
MS.57          	21.445         	10.196
MS.58          	21.403         	10.182
MS.59          	21.36          	10.155
MS.60          	21.317         	10.214
MS.61          	21.275         	10.2
MS.62          	21.233         	10.107
MS.63          	21.19          	10.109
MS.64          	21.147         	10.226
MS.65          	21.105         	10.117
MS.66          	21.062         	10.133
MS.67          	21.02          	10.123
MS.68          	20.977         	10.101
MS.69          	20.938         	10.135
MS.70          	20.895         	10.139
MS.71          	20.852         	10.151
MS.72          	20.81          	10.143
MS.73          	20.77          	10.133
MS.74          	20.727         	10.113
MS.75          	20.688         	10.159
MS.76          	20.645         	10.135
MS.77          	20.605         	10.133
MS.78          	20.562         	10.163
MS.79          	20.522         	10.151
MS.80          	20.48          	10.159
MS.81          	20.44          	10.167
MS.82          	20.4           	10.174
MS.83          	20.358         	10.174
MS.84          	20.317         	10.198
MS.85          	20.278         	10.2
MS.86          	20.237         	10.202
MS.87          	20.195         	10.163
MS.88          	20.155         	10.2
MS.89          	20.115         	10.216
MS.90          	20.075         	10.212
MS.91          	20.035         	10.21
MS.92          	19.995         	10.196
MS.93          	19.955         	10.188
MS.94          	19.915         	10.234
MS.95          	19.875         	10.206
MS.96          	19.835         	10.192
MS.97          	19.795         	10.169
MS.98          	19.757         	10.208
MS.99          	19.717         	10.22
MS.100         	19.677         	10.21
MS.101         	19.637         	10.212
MS.102         	19.6           	10.222
MS.103         	19.56          	10.216
MS.104         	19.52          	10.194
MS.105         	19.483         	10.218
MS.106         	19.442         	10.18
MS.107         	19.405         	10.226
MS.108         	19.365         	10.244
MS.109         	19.327         	10.224
MS.110         	19.288         	10.254
MS.111         	19.25          	10.236
MS.112         	19.21          	10.206
MS.113         	19.172         	10.224
MS.114         	19.135         	10.252
MS.115         	19.095         	10.208
MS.116         	19.057         	10.226
MS.117         	19.02          	10.244
MS.118         	18.983         	10.204
MS.119         	18.945         	10.278
MS.120         	18.905         	10.268
MS.121         	18.868         	10.242
MS.122         	18.83          	10.218
MS.123         	18.792         	10.184
MS.124         	18.755         	10.246
MS.125         	18.717         	10.186
MS.126         	18.68          	10.27
MS.127         	18.642         	10.224
MS.128         	18.605         	10.232
MS.129         	18.57          	10.246
MS.130         	18.532         	10.224
MS.131         	18.495         	10.125
MS.132         	18.458         	10.202
MS.133         	18.42          	10.178
MS.134         	18.385         	10.083
MS.135         	18.347         	10.085
MS.136         	18.31          	10.115
MS.137         	18.275         	10.204
MS.138         	18.237         	10.071
MS.139         	18.202         	10.083
MS.140         	18.165         	10.079
MS.141         	18.128         	10.182
MS.142         	18.092         	10.083
MS.143         	18.055         	10.087
MS.144         	18.02          	10.107
MS.145         	17.985         	10.244
MS.146         	17.948         	10.234
MS.147         	17.913         	10.125
MS.148         	17.878         	10.097
MS.149         	17.84          	9.908
MS.150         	17.805         	10.081
MS.151         	17.77          	9.992
MS.152         	17.735         	10.133
MS.153         	17.698         	10.153
MS.154         	17.663         	10.159
MS.155         	17.628         	10.119
MS.156         	17.592         	10.105
MS.157         	17.557         	10.024
MS.158         	17.522         	9.94
MS.159         	17.487         	9.922
MS.160         	17.452         	10.125
MS.161         	17.417         	9.898
MS.162         	17.382         	9.837
MS.163         	17.347         	9.799
MS.164         	17.312         	10.039
MS.165         	17.28          	9.867
MS.166         	17.245         	9.742
MS.167         	17.21          	9.781
MS.168         	17.175         	9.801
MS.169         	17.142         	9.801
MS.170         	17.108         	9.797
MS.171         	17.073         	9.747
MS.172         	17.04          	9.769
MS.173         	17.005         	9.527
MS.174         	16.97          	9.448
MS.175         	16.938         	9.477
MS.176         	16.903         	9.511
MS.177         	16.87          	9.537
MS.178         	16.835         	9.485
MS.179         	16.802         	9.503
MS.180         	16.767         	9.597
MS.181         	16.735         	9.545
MS.182         	16.702         	9.591
MS.183         	16.667         	9.505
MS.184         	16.635         	9.579
MS.185         	16.602         	9.591
MS.186         	16.567         	9.553
MS.187         	16.535         	9.531
MS.188         	16.503         	9.402
MS.189         	16.47          	9.539
MS.190         	16.438         	9.463
MS.191         	16.403         	9.458
MS.192         	16.37          	9.436
MS.193         	16.337         	9.424
MS.194         	16.305         	9.44
MS.195         	16.272         	9.301
MS.196         	16.24          	9.432
MS.197         	16.208         	9.336
MS.198         	16.175         	9.414
MS.199         	16.142         	9.442
MS.200         	16.11          	9.362
MS.201         	16.077         	9.289
MS.202         	16.047         	9.322
MS.203         	16.015         	9.223
MS.204         	15.983         	9.35
MS.205         	15.95          	9.291
MS.206         	15.917         	9.342
MS.207         	15.887         	8.981
MS.208         	15.855         	9.183
MS.209         	15.822         	9.177
MS.210         	15.792         	9.199
MS.211         	15.76          	9.217
MS.212         	15.73          	9.1
MS.213         	15.697         	9.106
MS.214         	15.665         	8.87
MS.215         	15.635         	9.09
MS.216         	15.602         	8.645
MS.217         	15.572         	8.905
MS.218         	15.54          	8.776
MS.219         	15.51          	8.54
MS.220         	15.48          	8.798
MS.221         	15.447         	8.836
MS.222         	15.417         	8.264
MS.223         	15.387         	8.375
MS.224         	15.355         	8.631
MS.225         	15.325         	8.234
MS.226         	15.295         	8.345
MS.227         	15.265         	8.357
MS.228         	15.233         	8.339
MS.229         	15.202         	7.968
MS.230         	15.172         	8.169
MS.231         	15.142         	8.163
MS.232         	15.112         	8.016
MS.233         	15.082         	8.041
MS.234         	15.052         	8.157
MS.235         	15.023         	7.889
MS.236         	14.992         	7.738
MS.237         	14.962         	7.841
MS.238         	14.932         	7.672
MS.239         	14.902         	7.738
MS.240         	14.872         	7.674
MS.241         	14.842         	7.444
MS.242         	14.812         	7.634
MS.243         	14.782         	7.609
MS.244         	14.752         	7.235
MS.245         	14.725         	7.66
MS.246         	14.695         	7.271
MS.247         	14.665         	7.128
MS.248         	14.635         	7.144
MS.249         	14.608         	6.999
MS.250         	14.577         	7.122
MS.251         	14.547         	7.287
MS.252         	14.52          	7.313
MS.253         	14.49          	7.301
MS.254         	14.462         	7.017
MS.255         	14.432         	6.828
MS.256         	14.405         	6.894
MS.257         	14.375         	6.826
MS.258         	14.347         	6.814
MS.259         	14.318         	6.711
MS.260         	14.29          	6.747
MS.261         	14.26          	6.562
MS.262         	14.233         	6.697
MS.263         	14.202         	6.627
MS.264         	14.175         	6.447
MS.265         	14.148         	6.439
MS.266         	14.117         	6.514
MS.267         	14.09          	6.55
MS.268         	14.062         	6.425
MS.269         	14.035         	6.328
MS.270         	14.005         	6.331
MS.271         	13.977         	6.113
MS.272         	13.95          	5.893
MS.273         	13.922         	5.968
MS.274         	13.895         	5.889
MS.275         	13.867         	5.603
MS.276         	13.84          	5.64
MS.277         	13.812         	5.849
MS.278         	13.785         	5.644
MS.279         	13.755         	5.622
MS.280         	13.727         	5.466
MS.281         	13.702         	5.416
MS.282         	13.675         	4.921
MS.283         	13.648         	5.535
MS.284         	13.62          	5.402
MS.285         	13.592         	5.271
MS.286         	13.565         	4.929
MS.287         	13.537         	4.981
MS.288         	13.51          	4.953
MS.289         	13.485         	5.064
MS.290         	13.457         	4.89
MS.291         	13.43          	4.806
MS.292         	13.403         	4.463
MS.293         	13.377         	4.61
MS.294         	13.35          	4.496
MS.295         	13.322         	4.677
MS.296         	13.297         	4.532
MS.297         	13.27          	4.306
MS.298         	13.242         	4.475
MS.299         	13.217         	4.439
MS.300         	13.19          	4.236
MS.301         	13.165         	4.272
MS.302         	13.137         	4.181
MS.303         	13.112         	3.934
MS.304         	13.085         	4.214
MS.305         	13.06          	3.734
MS.306         	13.032         	3.732
MS.307         	13.007         	3.654
MS.308         	12.98          	3.71
MS.309         	12.955         	3.704
MS.310         	12.93          	3.553
MS.311         	12.903         	3.527
MS.312         	12.877         	3.533
MS.313         	12.852         	3.386
MS.314         	12.825         	3.35
MS.315         	12.8           	3.233
MS.316         	12.775         	3.48
MS.317         	12.75          	3.43
MS.318         	12.725         	3.138
MS.319         	12.697         	3.005
MS.320         	12.672         	2.778
MS.321         	12.648         	3.092
MS.322         	12.622         	2.582
MS.323         	12.597         	2.846
MS.324         	12.572         	2.481
MS.325         	12.547         	2.685
MS.326         	12.523         	2.562
MS.327         	12.497         	2.858
MS.328         	12.472         	2.733
MS.329         	12.447         	2.381
MS.330         	12.422         	2.502
MS.331         	12.398         	2.33
MS.332         	12.372         	2.264
MS.333         	12.347         	2.103
MS.334         	12.322         	1.839
MS.335         	12.297         	2.145
MS.336         	12.275         	1.99
MS.337         	12.25          	1.831
MS.338         	12.225         	1.96
MS.339         	12.2           	1.803
MS.340         	12.177         	2.01
MS.341         	12.153         	1.768
MS.342         	12.127         	2.095
MS.343         	12.102         	1.76
MS.344         	12.08          	1.684
MS.345         	12.055         	1.559
MS.346         	12.03          	1.48
MS.347         	12.007         	1.571
MS.348         	11.983         	1.499
MS.349         	11.96          	1.416
MS.350         	11.935         	1.241
MS.351         	11.912         	1.392
MS.352         	11.887         	1.269
MS.353         	11.865         	1.136
MS.354         	11.84          	1.104
MS.355         	11.818         	1.11
MS.356         	11.792         	0.969
MS.357         	11.77          	1.07
MS.358         	11.745         	1.023
MS.359         	11.722         	0.91
MS.360         	11.7           	0.824
MS.361         	11.675         	1.07
MS.362         	11.653         	0.769
MS.363         	11.63          	0.81
MS.364         	11.605         	0.84
MS.365         	11.582         	0.528
MS.366         	11.56          	0.89
MS.367         	11.535         	0.86
MS.368         	11.512         	0.524
MS.369         	11.49          	0.457
MS.370         	11.467         	0.624
MS.371         	11.445         	0.437
MS.372         	11.422         	0.383
MS.373         	11.398         	0.481
MS.374         	11.375         	0.326
MS.375         	11.352         	0.479
MS.376         	11.33          	0.365
MS.377         	11.307         	0.469
MS.378         	11.285         	0.399
MS.379         	11.262         	0.357
MS.380         	11.24          	0.363
MS.381         	11.217         	0.298
MS.382         	11.195         	0.282
MS.383         	11.172         	0.278
MS.384         	11.15          	0.131
MS.385         	11.127         	0.183
MS.386         	11.105         	0.135
MS.387         	11.085         	0.197
MS.388         	11.062         	0.258
MS.389         	11.04          	0.147
MS.390         	11.017         	0.153
MS.391         	10.995         	0.161
MS.392         	10.972         	0.187
MS.393         	10.952         	0.105
MS.394         	10.93          	0.107
MS.395         	10.907         	0.133
MS.396         	10.885         	0.101
MS.397         	10.865         	0.054
MS.398         	10.842         	0.056
MS.399         	10.82          	0.032
MS.400         	10.8           	0.026
MS.401         	10.778         	0.04
MS.402         	10.757         	0.093
MS.403         	10.735         	0.06
MS.404         	10.712         	0.042
MS.405         	10.693         	0.024
MS.406         	10.67          	0.016
MS.407         	10.65          	0.036
MS.408         	10.627         	0.028
MS.409         	10.608         	0.018
MS.410         	10.585         	0.026
MS.411         	10.565         	0.014
MS.412         	10.542         	0.022
MS.413         	10.523         	0.016
MS.414         	10.5           	0.016
MS.415         	10.48          	0.042
MS.416         	10.46          	0.01
MS.417         	10.438         	0.022
MS.418         	10.417         	0.012
MS.419         	10.398         	0.028
MS.420         	10.375         	0.048
MS.421         	10.355         	0.016
MS.422         	10.335         	0.018
MS.423         	10.315         	0.012
MS.424         	10.292         	0.014
MS.425         	10.273         	0.014
MS.426         	10.252         	0.014
MS.427         	10.233         	0.016
MS.428         	10.212         	0.012
MS.429         	10.19          	0.016
MS.430         	10.17          	0.01
MS.431         	10.15          	0.012
MS.432         	10.13          	0.006
MS.433         	10.11          	0.012
MS.434         	10.09          	0.014
MS.435         	10.07          	0.008
MS.436         	10.05          	0.014
MS.437         	10.03          	0.012
MS.438         	10.01          	0.012
MS.439         	9.99           	0.012
MS.440         	9.97           	0.012
MS.441         	9.95           	0.014
MS.442         	9.93           	0.014
MS.443         	9.91           	0.012
MS.444         	9.89           	0.012
MS.445         	9.87           	0.016
MS.446         	9.85           	0.01
MS.447         	9.83           	0.014
MS.448         	9.81           	0.014
MS.449         	9.792          	0.012
MS.450         	9.773          	0.014
MS.451         	9.752          	0.014
MS.452         	9.733          	0.016
MS.453         	9.712          	0.012
MS.454         	9.695          	0.016
MS.455         	9.675          	0.014
MS.456         	9.655          	0.018
MS.457         	9.635          	0.014
MS.458         	9.617          	0.018
MS.459         	9.597          	0.016
MS.460         	9.577          	0.016
MS.461         	9.56           	0.02
MS.462         	9.54           	0.01
MS.463         	9.52           	0.018
MS.464         	9.502          	0.012
MS.465         	9.483          	0.016
MS.466         	9.465          	0.014
MS.467         	9.445          	0.018
MS.468         	9.425          	0.014
MS.469         	9.407          	0.014
MS.470         	9.387          	0.016
MS.471         	9.37           	0.012
MS.472         	9.35           	0.014
MS.473         	9.332          	0.016
MS.474         	9.312          	0.01
MS.475         	9.295          	0.012
MS.476         	9.278          	0.014
MS.477         	9.257          	0.01
MS.478         	9.24           	0.008
MS.479         	9.22           	0.01
MS.480         	9.202          	0.016
MS.481         	9.185          	0.01
MS.482         	9.165          	0.012
MS.483         	9.148          	0.016
MS.484         	9.13           	0.008
MS.485         	9.11           	0.018
MS.486         	9.092          	0.016
MS.487         	9.075          	0.01
MS.488         	9.057          	0.014
MS.489         	9.037          	0.014
MS.490         	9.02           	0.014
MS.491         	9.002          	0.014
MS.492         	8.985          	0.014
MS.493         	8.967          	0.008
MS.494         	8.948          	0.012
MS.495         	8.93           	0.016
MS.496         	8.912          	0.008
