File:              	C:\Qtrac\Data\Daniel M Sørensen\MScan multicentre study\Data from centres\Roskilde\Folders with NC-examinations\ROS_N9a\MBC00527B.QZD
Name:              	DK.ROS.NC.9.1
Protocol:          	MSCAN-R2
Date:              	27/5/20
Start time:        	13:51:19
Age:               	60
Sex:               	F
Temperature:       	35.3
S/R sites:         	Ulnar Wr-ADM
NC/disease:        	NC
Operator:          	MB
Comments:
M-SCAN DATA (8.4-1.4m)
Scanpts: 59, 67, 692, 705
Stim. (mA)     	Amp. (mV)
MS.1           	12             	7.543
MS.2           	12             	7.549
MS.3           	12             	7.539
MS.4           	12             	7.547
MS.5           	12             	7.533
MS.6           	12             	7.531
MS.7           	12             	7.589
MS.8           	12             	7.577
MS.9           	12             	7.567
MS.10          	12             	7.565
MS.11          	12             	7.553
MS.12          	12             	7.547
MS.13          	12             	7.553
MS.14          	12             	7.571
MS.15          	12             	7.557
MS.16          	12             	7.559
MS.17          	12             	7.575
MS.18          	12             	7.589
MS.19          	12             	7.589
MS.20          	12             	7.517
MS.21          	12             	7.529
MS.22          	12             	7.567
MS.23          	12             	7.595
MS.24          	11.952         	7.591
MS.25          	11.927         	7.573
MS.26          	11.905         	7.589
MS.27          	11.88          	7.585
MS.28          	11.858         	7.601
MS.29          	11.832         	7.632
MS.30          	11.81          	7.644
MS.31          	11.785         	7.632
MS.32          	11.762         	7.64
MS.33          	11.74          	7.636
MS.34          	11.715         	7.66
MS.35          	11.693         	7.65
MS.36          	11.667         	7.66
MS.37          	11.645         	7.664
MS.38          	11.622         	7.686
MS.39          	11.6           	7.654
MS.40          	11.575         	7.676
MS.41          	11.552         	7.674
MS.42          	11.53          	7.668
MS.43          	11.507         	7.674
MS.44          	11.483         	7.69
MS.45          	11.46          	7.688
MS.46          	11.438         	7.7
MS.47          	11.415         	7.728
MS.48          	11.392         	7.704
MS.49          	11.37          	7.692
MS.50          	11.347         	7.696
MS.51          	11.325         	7.716
MS.52          	11.3           	7.71
MS.53          	11.278         	7.704
MS.54          	11.255         	7.706
MS.55          	11.233         	7.702
MS.56          	11.21          	7.684
MS.57          	11.188         	7.7
MS.58          	11.167         	7.706
MS.59          	11.145         	7.702
MS.60          	11.122         	7.704
MS.61          	11.1           	7.706
MS.62          	11.077         	7.694
MS.63          	11.055         	7.682
MS.64          	11.032         	7.69
MS.65          	11.01          	7.674
MS.66          	10.99          	7.704
MS.67          	10.967         	7.704
MS.68          	10.945         	7.694
MS.69          	10.922         	7.7
MS.70          	10.903         	7.692
MS.71          	10.88          	7.692
MS.72          	10.858         	7.694
MS.73          	10.837         	7.692
MS.74          	10.815         	7.702
MS.75          	10.792         	7.7
MS.76          	10.773         	7.692
MS.77          	10.75          	7.684
MS.78          	10.727         	7.706
MS.79          	10.707         	7.704
MS.80          	10.685         	7.73
MS.81          	10.665         	7.716
MS.82          	10.642         	7.708
MS.83          	10.622         	7.726
MS.84          	10.6           	7.734
MS.85          	10.58          	7.696
MS.86          	10.557         	7.68
MS.87          	10.537         	7.696
MS.88          	10.515         	7.666
MS.89          	10.495         	7.662
MS.90          	10.475         	7.66
MS.91          	10.452         	7.678
MS.92          	10.432         	7.67
MS.93          	10.412         	7.678
MS.94          	10.39          	7.652
MS.95          	10.37          	7.644
MS.96          	10.35          	7.646
MS.97          	10.327         	7.646
MS.98          	10.307         	7.612
MS.99          	10.287         	7.654
MS.100         	10.267         	7.622
MS.101         	10.245         	7.644
MS.102         	10.225         	7.646
MS.103         	10.205         	7.672
MS.104         	10.185         	7.626
MS.105         	10.165         	7.624
MS.106         	10.145         	7.66
MS.107         	10.125         	7.62
MS.108         	10.102         	7.666
MS.109         	10.082         	7.65
MS.110         	10.062         	7.603
MS.111         	10.042         	7.541
MS.112         	10.023         	7.513
MS.113         	10.002         	7.557
MS.114         	9.983          	7.597
MS.115         	9.962          	7.593
MS.116         	9.943          	7.565
MS.117         	9.922          	7.521
MS.118         	9.903          	7.547
MS.119         	9.885          	7.497
MS.120         	9.865          	7.533
MS.121         	9.845          	7.622
MS.122         	9.825          	7.563
MS.123         	9.805          	7.537
MS.124         	9.785          	7.549
MS.125         	9.765          	7.591
MS.126         	9.747          	7.523
MS.127         	9.727          	7.579
MS.128         	9.707          	7.511
MS.129         	9.688          	7.587
MS.130         	9.67           	7.597
MS.131         	9.65           	7.567
MS.132         	9.63           	7.549
MS.133         	9.61           	7.648
MS.134         	9.592          	7.575
MS.135         	9.573          	7.557
MS.136         	9.552          	7.563
MS.137         	9.535          	7.565
MS.138         	9.515          	7.507
MS.139         	9.497          	7.614
MS.140         	9.477          	7.517
MS.141         	9.457          	7.537
MS.142         	9.44           	7.525
MS.143         	9.42           	7.489
MS.144         	9.403          	7.497
MS.145         	9.382          	7.523
MS.146         	9.365          	7.519
MS.147         	9.345          	7.479
MS.148         	9.327          	7.473
MS.149         	9.307          	7.434
MS.150         	9.29           	7.489
MS.151         	9.27           	7.501
MS.152         	9.252          	7.46
MS.153         	9.235          	7.462
MS.154         	9.215          	7.464
MS.155         	9.198          	7.454
MS.156         	9.18           	7.388
MS.157         	9.16           	7.416
MS.158         	9.142          	7.386
MS.159         	9.125          	7.418
MS.160         	9.105          	7.424
MS.161         	9.087          	7.376
MS.162         	9.07           	7.394
MS.163         	9.052          	7.338
MS.164         	9.033          	7.336
MS.165         	9.015          	7.366
MS.166         	8.997          	7.408
MS.167         	8.98           	7.34
MS.168         	8.96           	7.42
MS.169         	8.943          	7.34
MS.170         	8.925          	7.336
MS.171         	8.908          	7.398
MS.172         	8.89           	7.358
MS.173         	8.872          	7.368
MS.174         	8.855          	7.372
MS.175         	8.837          	7.321
MS.176         	8.82           	7.368
MS.177         	8.802          	7.39
MS.178         	8.783          	7.392
MS.179         	8.765          	7.374
MS.180         	8.747          	7.35
MS.181         	8.73           	7.362
MS.182         	8.715          	7.336
MS.183         	8.698          	7.321
MS.184         	8.68           	7.293
MS.185         	8.662          	7.281
MS.186         	8.645          	7.285
MS.187         	8.627          	7.344
MS.188         	8.61           	7.323
MS.189         	8.592          	7.374
MS.190         	8.575          	7.336
MS.191         	8.557          	7.315
MS.192         	8.54           	7.279
MS.193         	8.525          	7.319
MS.194         	8.507          	7.307
MS.195         	8.49           	7.307
MS.196         	8.472          	7.289
MS.197         	8.455          	7.287
MS.198         	8.44           	7.321
MS.199         	8.422          	7.299
MS.200         	8.405          	7.287
MS.201         	8.39           	7.247
MS.202         	8.372          	7.211
MS.203         	8.355          	7.247
MS.204         	8.337          	7.289
MS.205         	8.323          	7.259
MS.206         	8.305          	7.156
MS.207         	8.29           	7.068
MS.208         	8.273          	7.231
MS.209         	8.255          	7.253
MS.210         	8.24           	7.05
MS.211         	8.222          	7.199
MS.212         	8.207          	7.007
MS.213         	8.19           	7.142
MS.214         	8.172          	7.148
MS.215         	8.158          	7.162
MS.216         	8.14           	7.096
MS.217         	8.125          	7.054
MS.218         	8.108          	7.033
MS.219         	8.092          	7.056
MS.220         	8.075          	6.909
MS.221         	8.06           	6.852
MS.222         	8.045          	7.033
MS.223         	8.028          	6.951
MS.224         	8.012          	6.907
MS.225         	7.995          	7.015
MS.226         	7.98           	6.888
MS.227         	7.965          	7.17
MS.228         	7.947          	6.903
MS.229         	7.932          	6.905
MS.230         	7.915          	6.85
MS.231         	7.9            	6.828
MS.232         	7.885          	6.87
MS.233         	7.87           	6.89
MS.234         	7.852          	6.808
MS.235         	7.837          	6.935
MS.236         	7.822          	6.907
MS.237         	7.805          	6.981
MS.238         	7.79           	7.001
MS.239         	7.775          	6.862
MS.240         	7.76           	6.868
MS.241         	7.745          	6.975
MS.242         	7.727          	6.721
MS.243         	7.712          	6.89
MS.244         	7.697          	6.528
MS.245         	7.682          	6.721
MS.246         	7.668          	6.818
MS.247         	7.652          	6.453
MS.248         	7.635          	6.572
MS.249         	7.62           	6.576
MS.250         	7.605          	6.516
MS.251         	7.59           	6.435
MS.252         	7.575          	6.202
MS.253         	7.56           	6.449
MS.254         	7.545          	6.482
MS.255         	7.53           	6.222
MS.256         	7.515          	6.177
MS.257         	7.5            	6.28
MS.258         	7.485          	6.202
MS.259         	7.47           	6.26
MS.260         	7.455          	6.383
MS.261         	7.44           	6.091
MS.262         	7.425          	6.312
MS.263         	7.41           	6.053
MS.264         	7.395          	6.044
MS.265         	7.38           	6.167
MS.266         	7.365          	6.061
MS.267         	7.352          	6.016
MS.268         	7.337          	6.077
MS.269         	7.322          	6
MS.270         	7.307          	5.968
MS.271         	7.293          	6.081
MS.272         	7.277          	5.781
MS.273         	7.265          	5.926
MS.274         	7.25           	5.626
MS.275         	7.235          	5.825
MS.276         	7.22           	5.934
MS.277         	7.205          	5.644
MS.278         	7.192          	5.789
MS.279         	7.177          	5.819
MS.280         	7.162          	5.724
MS.281         	7.148          	5.611
MS.282         	7.135          	5.877
MS.283         	7.12           	5.62
MS.284         	7.105          	5.541
MS.285         	7.092          	5.466
MS.286         	7.077          	5.269
MS.287         	7.062          	5.428
MS.288         	7.05           	5.342
MS.289         	7.035          	5.321
MS.290         	7.02           	5.263
MS.291         	7.007          	4.997
MS.292         	6.992          	5.108
MS.293         	6.98           	4.846
MS.294         	6.965          	4.872
MS.295         	6.95           	4.949
MS.296         	6.938          	4.757
MS.297         	6.922          	4.812
MS.298         	6.91           	4.929
MS.299         	6.895          	4.751
MS.300         	6.882          	4.77
MS.301         	6.867          	4.695
MS.302         	6.855          	4.83
MS.303         	6.84           	4.822
MS.304         	6.827          	4.369
MS.305         	6.812          	4.536
MS.306         	6.8            	4.651
MS.307         	6.787          	4.375
MS.308         	6.773          	4.506
MS.309         	6.76           	4.347
MS.310         	6.745          	4.232
MS.311         	6.733          	4.419
MS.312         	6.72           	4.159
MS.313         	6.705          	4.25
MS.314         	6.692          	4.556
MS.315         	6.677          	3.897
MS.316         	6.665          	4.048
MS.317         	6.652          	3.766
MS.318         	6.637          	3.958
MS.319         	6.625          	4.127
MS.320         	6.612          	3.787
MS.321         	6.6            	3.819
MS.322         	6.585          	3.974
MS.323         	6.572          	3.7
MS.324         	6.56           	3.865
MS.325         	6.547          	4
MS.326         	6.532          	3.708
MS.327         	6.52           	3.7
MS.328         	6.507          	3.934
MS.329         	6.495          	3.523
MS.330         	6.48           	3.849
MS.331         	6.467          	3.388
MS.332         	6.455          	3.619
MS.333         	6.442          	3.825
MS.334         	6.43           	3.478
MS.335         	6.418          	3.569
MS.336         	6.405          	3.249
MS.337         	6.39           	3.412
MS.338         	6.378          	3.559
MS.339         	6.365          	3.182
MS.340         	6.352          	3.317
MS.341         	6.34           	3.392
MS.342         	6.327          	3.102
MS.343         	6.315          	3.233
MS.344         	6.302          	3.241
MS.345         	6.29           	3.15
MS.346         	6.277          	3.051
MS.347         	6.265          	2.876
MS.348         	6.253          	3.055
MS.349         	6.24           	3.329
MS.350         	6.227          	3.124
MS.351         	6.215          	3.096
MS.352         	6.202          	3.096
MS.353         	6.19           	2.999
MS.354         	6.177          	3.106
MS.355         	6.165          	2.856
MS.356         	6.152          	2.941
MS.357         	6.14           	2.919
MS.358         	6.128          	2.846
MS.359         	6.115          	3.072
MS.360         	6.102          	2.78
MS.361         	6.092          	2.765
MS.362         	6.08           	2.898
MS.363         	6.067          	2.84
MS.364         	6.055          	2.912
MS.365         	6.043          	2.836
MS.366         	6.03           	2.763
MS.367         	6.02           	2.914
MS.368         	6.007          	2.761
MS.369         	5.995          	2.705
MS.370         	5.983          	2.808
MS.371         	5.97           	2.661
MS.372         	5.96           	2.715
MS.373         	5.947          	2.782
MS.374         	5.935          	2.669
MS.375         	5.922          	2.713
MS.376         	5.912          	2.776
MS.377         	5.9            	2.63
MS.378         	5.887          	2.717
MS.379         	5.875          	2.661
MS.380         	5.865          	2.663
MS.381         	5.852          	2.669
MS.382         	5.84           	2.572
MS.383         	5.83           	2.693
MS.384         	5.817          	2.703
MS.385         	5.805          	2.671
MS.386         	5.795          	2.637
MS.387         	5.782          	2.602
MS.388         	5.773          	2.659
MS.389         	5.76           	2.57
MS.390         	5.747          	2.542
MS.391         	5.737          	2.592
MS.392         	5.725          	2.536
MS.393         	5.715          	2.554
MS.394         	5.702          	2.572
MS.395         	5.69           	2.516
MS.396         	5.68           	2.516
MS.397         	5.668          	2.532
MS.398         	5.657          	2.572
MS.399         	5.645          	2.494
MS.400         	5.635          	2.498
MS.401         	5.622          	2.49
MS.402         	5.612          	2.532
MS.403         	5.6            	2.443
MS.404         	5.59           	2.467
MS.405         	5.577          	2.477
MS.406         	5.567          	2.451
MS.407         	5.555          	2.423
MS.408         	5.545          	2.508
MS.409         	5.535          	2.449
MS.410         	5.523          	2.457
MS.411         	5.512          	2.451
MS.412         	5.5            	2.403
MS.413         	5.49           	2.445
MS.414         	5.48           	2.403
MS.415         	5.467          	2.381
MS.416         	5.457          	2.409
MS.417         	5.445          	2.369
MS.418         	5.435          	2.373
MS.419         	5.425          	2.395
MS.420         	5.412          	2.34
MS.421         	5.402          	2.459
MS.422         	5.392          	2.346
MS.423         	5.38           	2.397
MS.424         	5.37           	2.427
MS.425         	5.36           	2.312
MS.426         	5.35           	2.389
MS.427         	5.338          	2.353
MS.428         	5.327          	2.218
MS.429         	5.318          	2.407
MS.430         	5.307          	2.274
MS.431         	5.295          	2.248
MS.432         	5.285          	2.143
MS.433         	5.275          	2.369
MS.434         	5.265          	2.357
MS.435         	5.253          	2.081
MS.436         	5.242          	2.254
MS.437         	5.233          	2.034
MS.438         	5.222          	2.262
MS.439         	5.213          	2.026
MS.440         	5.202          	1.968
MS.441         	5.19           	2.197
MS.442         	5.18           	1.903
MS.443         	5.17           	2.03
MS.444         	5.16           	1.911
MS.445         	5.15           	2.103
MS.446         	5.14           	2
MS.447         	5.13           	2.012
MS.448         	5.117          	1.982
MS.449         	5.108          	1.881
MS.450         	5.097          	1.857
MS.451         	5.088          	1.962
MS.452         	5.077          	1.873
MS.453         	5.068          	1.915
MS.454         	5.057          	1.879
MS.455         	5.047          	1.851
MS.456         	5.037          	1.889
MS.457         	5.027          	1.883
MS.458         	5.017          	1.748
MS.459         	5.007          	1.881
MS.460         	4.997          	1.776
MS.461         	4.987          	1.72
MS.462         	4.977          	1.674
MS.463         	4.967          	1.835
MS.464         	4.957          	1.797
MS.465         	4.947          	1.766
MS.466         	4.938          	1.724
MS.467         	4.927          	1.781
MS.468         	4.918          	1.714
MS.469         	4.907          	1.686
MS.470         	4.898          	1.766
MS.471         	4.887          	1.551
MS.472         	4.88           	1.666
MS.473         	4.87           	1.581
MS.474         	4.86           	1.543
MS.475         	4.85           	1.682
MS.476         	4.84           	1.686
MS.477         	4.83           	1.511
MS.478         	4.82           	1.633
MS.479         	4.81           	1.549
MS.480         	4.802          	1.638
MS.481         	4.793          	1.515
MS.482         	4.782          	1.609
MS.483         	4.773          	1.561
MS.484         	4.762          	1.273
MS.485         	4.753          	1.484
MS.486         	4.745          	1.585
MS.487         	4.735          	1.358
MS.488         	4.725          	1.208
MS.489         	4.715          	1.505
MS.490         	4.707          	1.223
MS.491         	4.697          	1.261
MS.492         	4.688          	1.402
MS.493         	4.677          	1.039
MS.494         	4.67           	1.134
MS.495         	4.66           	1.317
MS.496         	4.65           	1.023
MS.497         	4.64           	1.084
MS.498         	4.632          	1.019
MS.499         	4.622          	1.035
MS.500         	4.612          	1.031
MS.501         	4.605          	1.341
