File:              	C:\Qtrac\Data\Daniel M Sørensen\MScan multicentre study\Data from centres\Roskilde\Folders with NC-examinations\ROS_N10a\MBC00616B.QZD
Name:              	DK.ROS.NC.10.1
Protocol:          	MSCAN-R2
Date:              	16/6/20
Start time:        	18:19:37
Age:               	44
Sex:               	f
Temperature:       	34.9
S/R sites:         	Ular Wr-AM
NC/disease:        	NC
Operator:          	MB
Comments:
M-SCAN DATA (Repeat 2/2, 10.4-3.7m)
Scanpts: 148, 154, 694, 715
Stim. (mA)     	Amp. (mV)
MS.1           	10.5           	9.797
MS.2           	10.5           	9.803
MS.3           	10.5           	9.797
MS.4           	10.5           	9.807
MS.5           	10.5           	9.843
MS.6           	10.5           	9.845
MS.7           	10.5           	9.845
MS.8           	10.5           	9.857
MS.9           	10.5           	9.829
MS.10          	10.5           	9.841
MS.11          	10.5           	9.843
MS.12          	10.5           	9.847
MS.13          	10.5           	9.879
MS.14          	10.5           	9.851
MS.15          	10.5           	9.859
MS.16          	10.5           	9.851
MS.17          	10.5           	9.869
MS.18          	10.5           	9.863
MS.19          	10.5           	9.859
MS.20          	10.5           	9.859
MS.21          	10.5           	9.833
MS.22          	10.5           	9.851
MS.23          	10.5           	9.853
MS.24          	10.48          	9.851
MS.25          	10.457         	9.853
MS.26          	10.438         	9.839
MS.27          	10.417         	9.853
MS.28          	10.395         	9.819
MS.29          	10.375         	9.815
MS.30          	10.355         	9.815
MS.31          	10.332         	9.805
MS.32          	10.312         	9.817
MS.33          	10.292         	9.801
MS.34          	10.273         	9.795
MS.35          	10.25          	9.815
MS.36          	10.23          	9.807
MS.37          	10.21          	9.803
MS.38          	10.19          	9.817
MS.39          	10.17          	9.809
MS.40          	10.15          	9.813
MS.41          	10.127         	9.827
MS.42          	10.108         	9.801
MS.43          	10.087         	9.823
MS.44          	10.068         	9.833
MS.45          	10.047         	9.823
MS.46          	10.028         	9.813
MS.47          	10.007         	9.809
MS.48          	9.988          	9.821
MS.49          	9.967          	9.801
MS.50          	9.948          	9.817
MS.51          	9.927          	9.827
MS.52          	9.907          	9.853
MS.53          	9.887          	9.845
MS.54          	9.87           	9.863
MS.55          	9.85           	9.853
MS.56          	9.83           	9.843
MS.57          	9.81           	9.865
MS.58          	9.79           	9.833
MS.59          	9.77           	9.853
MS.60          	9.75           	9.847
MS.61          	9.733          	9.837
MS.62          	9.712          	9.843
MS.63          	9.693          	9.867
MS.64          	9.672          	9.851
MS.65          	9.655          	9.847
MS.66          	9.635          	9.859
MS.67          	9.615          	9.847
MS.68          	9.597          	9.855
MS.69          	9.577          	9.841
MS.70          	9.557          	9.845
MS.71          	9.54           	9.837
MS.72          	9.52           	9.817
MS.73          	9.5            	9.837
MS.74          	9.483          	9.855
MS.75          	9.462          	9.855
MS.76          	9.445          	9.853
MS.77          	9.425          	9.851
MS.78          	9.407          	9.851
MS.79          	9.387          	9.845
MS.80          	9.367          	9.847
MS.81          	9.35           	9.837
MS.82          	9.332          	9.839
MS.83          	9.312          	9.835
MS.84          	9.295          	9.837
MS.85          	9.275          	9.845
MS.86          	9.257          	9.833
MS.87          	9.238          	9.863
MS.88          	9.22           	9.847
MS.89          	9.202          	9.839
MS.90          	9.182          	9.831
MS.91          	9.165          	9.849
MS.92          	9.148          	9.829
MS.93          	9.127          	9.835
MS.94          	9.11           	9.847
MS.95          	9.092          	9.835
MS.96          	9.073          	9.823
MS.97          	9.055          	9.831
MS.98          	9.037          	9.849
MS.99          	9.02           	9.815
MS.100         	9.002          	9.823
MS.101         	8.983          	9.841
MS.102         	8.965          	9.847
MS.103         	8.948          	9.841
MS.104         	8.93           	9.859
MS.105         	8.912          	9.869
MS.106         	8.895          	9.869
MS.107         	8.875          	9.892
MS.108         	8.858          	9.867
MS.109         	8.84           	9.863
MS.110         	8.823          	9.877
MS.111         	8.805          	9.859
MS.112         	8.787          	9.857
MS.113         	8.77           	9.857
MS.114         	8.752          	9.859
MS.115         	8.735          	9.855
MS.116         	8.717          	9.851
MS.117         	8.7            	9.845
MS.118         	8.682          	9.841
MS.119         	8.665          	9.847
MS.120         	8.648          	9.831
MS.121         	8.63           	9.857
MS.122         	8.615          	9.865
MS.123         	8.597          	9.851
MS.124         	8.58           	9.839
MS.125         	8.562          	9.861
MS.126         	8.545          	9.877
MS.127         	8.528          	9.847
MS.128         	8.51           	9.865
MS.129         	8.495          	9.867
MS.130         	8.477          	9.877
MS.131         	8.46           	9.883
MS.132         	8.443          	9.873
MS.133         	8.427          	9.877
MS.134         	8.41           	9.867
MS.135         	8.392          	9.853
MS.136         	8.375          	9.871
MS.137         	8.36           	9.875
MS.138         	8.342          	9.879
MS.139         	8.325          	9.881
MS.140         	8.31           	9.873
MS.141         	8.292          	9.885
MS.142         	8.275          	9.869
MS.143         	8.26           	9.898
MS.144         	8.242          	9.879
MS.145         	8.227          	9.875
MS.146         	8.21           	9.898
MS.147         	8.195          	9.885
MS.148         	8.177          	9.894
MS.149         	8.16           	9.9
MS.150         	8.145          	9.892
MS.151         	8.127          	9.877
MS.152         	8.113          	9.89
MS.153         	8.095          	9.898
MS.154         	8.08           	9.894
MS.155         	8.062          	9.881
MS.156         	8.047          	9.888
MS.157         	8.033          	9.896
MS.158         	8.015          	9.869
MS.159         	8              	9.869
MS.160         	7.982          	9.894
MS.161         	7.967          	9.869
MS.162         	7.952          	9.863
MS.163         	7.935          	9.892
MS.164         	7.92           	9.871
MS.165         	7.905          	9.869
MS.166         	7.887          	9.885
MS.167         	7.872          	9.867
MS.168         	7.857          	9.843
MS.169         	7.84           	9.839
MS.170         	7.825          	9.829
MS.171         	7.81           	9.845
MS.172         	7.795          	9.851
MS.173         	7.777          	9.839
MS.174         	7.762          	9.859
MS.175         	7.747          	9.861
MS.176         	7.732          	9.853
MS.177         	7.717          	9.851
MS.178         	7.7            	9.851
MS.179         	7.685          	9.863
MS.180         	7.67           	9.863
MS.181         	7.655          	9.867
MS.182         	7.64           	9.843
MS.183         	7.625          	9.859
MS.184         	7.61           	9.873
MS.185         	7.595          	9.857
MS.186         	7.58           	9.847
MS.187         	7.565          	9.877
MS.188         	7.547          	9.859
MS.189         	7.532          	9.879
MS.190         	7.517          	9.873
MS.191         	7.503          	9.883
MS.192         	7.487          	9.885
MS.193         	7.472          	9.847
MS.194         	7.457          	9.888
MS.195         	7.442          	9.888
MS.196         	7.43           	9.865
MS.197         	7.415          	9.855
MS.198         	7.4            	9.855
MS.199         	7.385          	9.851
MS.200         	7.37           	9.855
MS.201         	7.355          	9.851
MS.202         	7.34           	9.821
MS.203         	7.325          	9.833
MS.204         	7.31           	9.857
MS.205         	7.297          	9.855
MS.206         	7.282          	9.865
MS.207         	7.267          	9.873
MS.208         	7.253          	9.843
MS.209         	7.237          	9.853
MS.210         	7.225          	9.841
MS.211         	7.21           	9.851
MS.212         	7.195          	9.851
MS.213         	7.18           	9.855
MS.214         	7.165          	9.892
MS.215         	7.152          	9.867
MS.216         	7.137          	9.857
MS.217         	7.122          	9.843
MS.218         	7.11           	9.831
MS.219         	7.095          	9.855
MS.220         	7.08           	9.867
MS.221         	7.067          	9.853
MS.222         	7.052          	9.847
MS.223         	7.037          	9.847
MS.224         	7.025          	9.839
MS.225         	7.01           	9.869
MS.226         	6.997          	9.871
MS.227         	6.983          	9.857
MS.228         	6.967          	9.853
MS.229         	6.955          	9.859
MS.230         	6.94           	9.821
MS.231         	6.927          	9.845
MS.232         	6.912          	9.831
MS.233         	6.9            	9.809
MS.234         	6.885          	9.855
MS.235         	6.872          	9.843
MS.236         	6.858          	9.823
MS.237         	6.845          	9.859
MS.238         	6.83           	9.823
MS.239         	6.817          	9.797
MS.240         	6.802          	9.799
MS.241         	6.79           	9.785
MS.242         	6.775          	9.807
MS.243         	6.762          	9.835
MS.244         	6.75           	9.799
MS.245         	6.735          	9.779
MS.246         	6.722          	9.833
MS.247         	6.707          	9.706
MS.248         	6.695          	9.783
MS.249         	6.682          	9.811
MS.250         	6.668          	9.692
MS.251         	6.655          	9.793
MS.252         	6.642          	9.807
MS.253         	6.628          	9.688
MS.254         	6.615          	9.801
MS.255         	6.602          	9.787
MS.256         	6.59           	9.694
MS.257         	6.575          	9.726
MS.258         	6.562          	9.694
MS.259         	6.55           	9.69
MS.260         	6.537          	9.69
MS.261         	6.523          	9.559
MS.262         	6.51           	9.777
MS.263         	6.497          	9.696
MS.264         	6.485          	9.696
MS.265         	6.472          	9.69
MS.266         	6.457          	9.68
MS.267         	6.445          	9.682
MS.268         	6.432          	9.65
MS.269         	6.42           	9.69
MS.270         	6.407          	9.686
MS.271         	6.395          	9.692
MS.272         	6.382          	9.642
MS.273         	6.367          	9.555
MS.274         	6.355          	9.712
MS.275         	6.342          	9.535
MS.276         	6.33           	9.648
MS.277         	6.317          	9.674
MS.278         	6.305          	9.626
MS.279         	6.293          	9.559
MS.280         	6.28           	9.702
MS.281         	6.267          	9.446
MS.282         	6.255          	9.543
MS.283         	6.242          	9.479
MS.284         	6.23           	9.442
MS.285         	6.217          	9.616
MS.286         	6.205          	9.519
MS.287         	6.192          	9.473
MS.288         	6.18           	9.608
MS.289         	6.168          	9.511
MS.290         	6.155          	9.626
MS.291         	6.142          	9.624
MS.292         	6.13           	9.473
MS.293         	6.12           	9.489
MS.294         	6.108          	9.487
MS.295         	6.095          	9.521
MS.296         	6.082          	9.456
MS.297         	6.07           	9.346
MS.298         	6.057          	9.416
MS.299         	6.045          	9.434
MS.300         	6.035          	9.348
MS.301         	6.023          	9.32
MS.302         	6.01           	9.452
MS.303         	5.997          	9.332
MS.304         	5.985          	9.467
MS.305         	5.972          	9.38
MS.306         	5.963          	9.299
MS.307         	5.95           	9.315
MS.308         	5.938          	9.396
MS.309         	5.925          	9.358
MS.310         	5.915          	9.438
MS.311         	5.902          	9.426
MS.312         	5.89           	9.416
MS.313         	5.88           	9.305
MS.314         	5.867          	9.277
MS.315         	5.855          	9.45
MS.316         	5.845          	9.33
MS.317         	5.832          	9.291
MS.318         	5.82           	9.344
MS.319         	5.81           	9.293
MS.320         	5.797          	9.324
MS.321         	5.785          	9.307
MS.322         	5.775          	9.237
MS.323         	5.762          	9.166
MS.324         	5.75           	9.136
MS.325         	5.74           	9.237
MS.326         	5.727          	9.253
MS.327         	5.717          	9.209
MS.328         	5.705          	9.348
MS.329         	5.695          	9.251
MS.330         	5.682          	9.239
MS.331         	5.67           	9.291
MS.332         	5.66           	9.213
MS.333         	5.648          	9.271
MS.334         	5.637          	9.112
MS.335         	5.625          	8.967
MS.336         	5.615          	9.144
MS.337         	5.602          	9.183
MS.338         	5.592          	8.999
MS.339         	5.58           	8.993
MS.340         	5.57           	9.021
MS.341         	5.56           	9.003
MS.342         	5.547          	9.009
MS.343         	5.537          	9.08
MS.344         	5.525          	9.003
MS.345         	5.515          	8.818
MS.346         	5.503          	9.017
MS.347         	5.492          	8.957
MS.348         	5.483          	8.631
MS.349         	5.47           	8.874
MS.350         	5.46           	8.86
MS.351         	5.447          	8.931
MS.352         	5.438          	8.895
MS.353         	5.427          	8.663
MS.354         	5.415          	8.975
MS.355         	5.405          	8.842
MS.356         	5.395          	8.568
MS.357         	5.382          	8.88
MS.358         	5.372          	8.846
MS.359         	5.362          	8.693
MS.360         	5.352          	8.681
MS.361         	5.34           	8.677
MS.362         	5.33           	8.482
MS.363         	5.32           	8.173
MS.364         	5.31           	8.594
MS.365         	5.297          	8.743
MS.366         	5.287          	8.407
MS.367         	5.277          	8.737
MS.368         	5.267          	8.484
MS.369         	5.255          	8.23
MS.370         	5.245          	8.675
MS.371         	5.235          	8.55
MS.372         	5.225          	8.514
MS.373         	5.215          	8.041
MS.374         	5.202          	7.839
MS.375         	5.193          	7.944
MS.376         	5.182          	8.135
MS.377         	5.172          	7.696
MS.378         	5.162          	7.896
MS.379         	5.152          	7.857
MS.380         	5.142          	7.495
MS.381         	5.132          	7.881
MS.382         	5.12           	7.656
MS.383         	5.11           	7.553
MS.384         	5.1            	7.799
MS.385         	5.09           	7.551
MS.386         	5.08           	7.326
MS.387         	5.07           	7.436
MS.388         	5.06           	7.18
MS.389         	5.05           	7.283
MS.390         	5.04           	7.023
MS.391         	5.03           	6.864
MS.392         	5.02           	6.929
MS.393         	5.01           	6.854
MS.394         	5              	6.758
MS.395         	4.99           	6.739
MS.396         	4.98           	6.731
MS.397         	4.97           	6.894
MS.398         	4.96           	6.707
MS.399         	4.95           	6.649
MS.400         	4.94           	6.641
MS.401         	4.93           	6.637
MS.402         	4.92           	6.268
MS.403         	4.91           	6.171
MS.404         	4.9            	6.333
MS.405         	4.89           	6.083
MS.406         	4.88           	6.274
MS.407         	4.872          	6.053
MS.408         	4.862          	6.055
MS.409         	4.852          	5.912
MS.410         	4.842          	5.571
MS.411         	4.832          	5.752
MS.412         	4.822          	5.829
MS.413         	4.812          	5.702
MS.414         	4.802          	5.472
MS.415         	4.795          	5.444
MS.416         	4.785          	5.362
MS.417         	4.775          	5.483
MS.418         	4.765          	5.227
MS.419         	4.755          	5.43
MS.420         	4.747          	5.054
MS.421         	4.737          	5.299
MS.422         	4.727          	5.321
MS.423         	4.717          	5.078
MS.424         	4.707          	4.888
MS.425         	4.7            	5.15
MS.426         	4.69           	4.868
MS.427         	4.68           	4.709
MS.428         	4.67           	4.77
MS.429         	4.662          	4.84
MS.430         	4.652          	4.804
MS.431         	4.642          	4.57
MS.432         	4.635          	4.683
MS.433         	4.625          	4.445
MS.434         	4.615          	4.586
MS.435         	4.605          	4.469
MS.436         	4.597          	4.421
MS.437         	4.588          	4.026
MS.438         	4.577          	4.413
MS.439         	4.57           	4.123
MS.440         	4.56           	4.101
MS.441         	4.55           	3.99
MS.442         	4.543          	3.986
MS.443         	4.532          	3.793
MS.444         	4.525          	3.366
MS.445         	4.515          	3.736
MS.446         	4.505          	3.815
MS.447         	4.497          	3.662
MS.448         	4.487          	3.452
MS.449         	4.48           	3.358
MS.450         	4.47           	3.597
MS.451         	4.46           	3.583
MS.452         	4.452          	3.11
MS.453         	4.443          	2.828
MS.454         	4.435          	3.285
MS.455         	4.425          	3.1
MS.456         	4.418          	3.134
MS.457         	4.407          	2.572
MS.458         	4.4            	3.043
MS.459         	4.39           	2.818
MS.460         	4.382          	2.608
MS.461         	4.372          	2.701
MS.462         	4.365          	2.514
MS.463         	4.355          	2.526
MS.464         	4.347          	2.363
MS.465         	4.338          	2.304
MS.466         	4.33           	2.165
MS.467         	4.32           	2.379
MS.468         	4.312          	2.465
MS.469         	4.302          	2.421
MS.470         	4.295          	2.264
MS.471         	4.285          	2.123
MS.472         	4.277          	1.98
MS.473         	4.27           	2.135
MS.474         	4.26           	2.149
MS.475         	4.253          	2.097
MS.476         	4.242          	2.052
MS.477         	4.235          	1.974
MS.478         	4.227          	1.913
MS.479         	4.217          	1.746
MS.480         	4.21           	1.915
MS.481         	4.2            	1.708
MS.482         	4.193          	1.646
MS.483         	4.185          	1.803
MS.484         	4.175          	1.779
MS.485         	4.168          	1.722
MS.486         	4.16           	1.517
MS.487         	4.15           	1.603
MS.488         	4.142          	1.688
MS.489         	4.135          	1.73
MS.490         	4.128          	1.591
MS.491         	4.117          	1.581
MS.492         	4.11           	1.428
MS.493         	4.102          	1.38
MS.494         	4.092          	1.341
MS.495         	4.085          	1.349
MS.496         	4.077          	1.412
MS.497         	4.07           	1.428
MS.498         	4.06           	1.39
MS.499         	4.052          	1.307
