File:              	C:\Qtrac\Data\Daniel M Sørensen\MScan multicentre study\Data from centres\Roskilde\Folders with NC-examinations\ROS_N5a\MBC00416B.QZD
Name:              	DK.ROS.NC.5.1
Protocol:          	MSCAN-R2
Date:              	16/4/20
Start time:        	13:32:20
Age:               	33
Sex:               	m
Temperature:       	36.8
S/R sites:         	Ulnar Wr-ADM
NC/disease:        	NC
Operator:          	MB
Comments:
M-SCAN DATA (Repeat 2/2, 13.4-7.8m)
Scanpts: 86, 91, 589, 609
Stim. (mA)     	Amp. (mV)
MS.1           	22.5           	10.365
MS.2           	22.5           	10.371
MS.3           	22.5           	10.375
MS.4           	22.5           	10.349
MS.5           	22.5           	10.389
MS.6           	22.5           	10.365
MS.7           	22.5           	10.419
MS.8           	22.5           	10.361
MS.9           	22.5           	10.389
MS.10          	22.5           	10.373
MS.11          	22.5           	10.367
MS.12          	22.5           	10.391
MS.13          	22.5           	10.383
MS.14          	22.5           	10.387
MS.15          	22.5           	10.411
MS.16          	22.5           	10.375
MS.17          	22.5           	10.373
MS.18          	22.5           	10.383
MS.19          	22.5           	10.401
MS.20          	22.5           	10.365
MS.21          	22.5           	10.369
MS.22          	22.5           	10.369
MS.23          	22.5           	10.238
MS.24          	22.455         	10.365
MS.25          	22.41          	10.365
MS.26          	22.365         	10.369
MS.27          	22.32          	10.359
MS.28          	22.275         	10.24
MS.29          	22.233         	10.343
MS.30          	22.188         	10.335
MS.31          	22.142         	10.224
MS.32          	22.097         	10.264
MS.33          	22.055         	10.238
MS.34          	22.01          	10.369
MS.35          	21.967         	10.365
MS.36          	21.922         	10.393
MS.37          	21.877         	10.258
MS.38          	21.835         	10.135
MS.39          	21.792         	10.417
MS.40          	21.747         	10.268
MS.41          	21.705         	10.252
MS.42          	21.66          	10.278
MS.43          	21.618         	10.254
MS.44          	21.575         	10.268
MS.45          	21.532         	10.401
MS.46          	21.487         	10.3
MS.47          	21.445         	10.27
MS.48          	21.403         	10.335
MS.49          	21.36          	10.292
MS.50          	21.317         	10.306
MS.51          	21.275         	10.341
MS.52          	21.233         	10.308
MS.53          	21.19          	10.302
MS.54          	21.147         	10.385
MS.55          	21.105         	10.357
MS.56          	21.062         	10.312
MS.57          	21.02          	10.383
MS.58          	20.98          	10.367
MS.59          	20.938         	10.385
MS.60          	20.895         	10.286
MS.61          	20.852         	10.371
MS.62          	20.812         	10.329
MS.63          	20.77          	10.359
MS.64          	20.727         	10.419
MS.65          	20.688         	10.373
MS.66          	20.645         	10.409
MS.67          	20.605         	10.403
MS.68          	20.562         	10.387
MS.69          	20.522         	10.427
MS.70          	20.483         	10.411
MS.71          	20.44          	10.429
MS.72          	20.4           	10.419
MS.73          	20.36          	10.437
MS.74          	20.317         	10.462
MS.75          	20.278         	10.427
MS.76          	20.237         	10.415
MS.77          	20.198         	10.423
MS.78          	20.157         	10.476
MS.79          	20.115         	10.464
MS.80          	20.075         	10.49
MS.81          	20.035         	10.528
MS.82          	19.995         	10.453
MS.83          	19.955         	10.52
MS.84          	19.915         	10.482
MS.85          	19.875         	10.456
MS.86          	19.837         	10.496
MS.87          	19.797         	10.504
MS.88          	19.757         	10.514
MS.89          	19.717         	10.522
MS.90          	19.677         	10.514
MS.91          	19.64          	10.51
MS.92          	19.6           	10.478
MS.93          	19.56          	10.516
MS.94          	19.522         	10.48
MS.95          	19.483         	10.474
MS.96          	19.442         	10.48
MS.97          	19.405         	10.468
MS.98          	19.365         	10.492
MS.99          	19.327         	10.496
MS.100         	19.288         	10.443
MS.101         	19.25          	10.395
MS.102         	19.212         	10.449
MS.103         	19.172         	10.474
MS.104         	19.135         	10.421
MS.105         	19.097         	10.48
MS.106         	19.057         	10.462
MS.107         	19.02          	10.427
MS.108         	18.983         	10.478
MS.109         	18.945         	10.456
MS.110         	18.907         	10.409
MS.111         	18.87          	10.449
MS.112         	18.83          	10.433
MS.113         	18.792         	10.431
MS.114         	18.755         	10.498
MS.115         	18.717         	10.445
MS.116         	18.68          	10.46
MS.117         	18.645         	10.447
MS.118         	18.608         	10.443
MS.119         	18.57          	10.46
MS.120         	18.532         	10.478
MS.121         	18.495         	10.437
MS.122         	18.458         	10.439
MS.123         	18.422         	10.482
MS.124         	18.385         	10.514
MS.125         	18.347         	10.439
MS.126         	18.312         	10.47
MS.127         	18.275         	10.445
MS.128         	18.237         	10.451
MS.129         	18.202         	10.532
MS.130         	18.165         	10.413
MS.131         	18.13          	10.472
MS.132         	18.092         	10.387
MS.133         	18.057         	10.425
MS.134         	18.02          	10.365
MS.135         	17.985         	10.47
MS.136         	17.948         	10.377
MS.137         	17.913         	10.329
MS.138         	17.878         	10.397
MS.139         	17.842         	10.363
MS.140         	17.805         	10.401
MS.141         	17.77          	10.409
MS.142         	17.735         	10.361
MS.143         	17.7           	10.327
MS.144         	17.665         	10.401
MS.145         	17.628         	10.387
MS.146         	17.592         	10.359
MS.147         	17.557         	10.379
MS.148         	17.522         	10.385
MS.149         	17.487         	10.375
MS.150         	17.452         	10.298
MS.151         	17.417         	10.363
MS.152         	17.382         	10.343
MS.153         	17.347         	10.337
MS.154         	17.315         	10.365
MS.155         	17.28          	10.385
MS.156         	17.245         	10.224
MS.157         	17.21          	10.167
MS.158         	17.175         	10.292
MS.159         	17.142         	10.298
MS.160         	17.108         	10.155
MS.161         	17.073         	10.214
MS.162         	17.04          	10.085
MS.163         	17.005         	10.192
MS.164         	16.97          	10.238
MS.165         	16.938         	10.226
MS.166         	16.903         	10.125
MS.167         	16.87          	10.091
MS.168         	16.835         	10.125
MS.169         	16.802         	10.218
MS.170         	16.767         	10.014
MS.171         	16.735         	10.004
MS.172         	16.702         	10.055
MS.173         	16.667         	10.115
MS.174         	16.635         	10.087
MS.175         	16.602         	9.952
MS.176         	16.567         	10.184
MS.177         	16.535         	9.98
MS.178         	16.503         	10.008
MS.179         	16.47          	9.972
MS.180         	16.438         	9.861
MS.181         	16.405         	9.853
MS.182         	16.37          	9.851
MS.183         	16.337         	9.855
MS.184         	16.305         	9.807
MS.185         	16.272         	9.851
MS.186         	16.24          	9.755
MS.187         	16.208         	9.734
MS.188         	16.175         	9.583
MS.189         	16.142         	9.73
MS.190         	16.11          	9.682
MS.191         	16.08          	9.704
MS.192         	16.047         	9.503
MS.193         	16.015         	9.753
MS.194         	15.983         	9.487
MS.195         	15.95          	9.612
MS.196         	15.92          	9.303
MS.197         	15.887         	9.448
MS.198         	15.855         	9.722
MS.199         	15.825         	9.394
MS.200         	15.792         	9.211
MS.201         	15.76          	9.456
MS.202         	15.73          	9.233
MS.203         	15.697         	9.328
MS.204         	15.667         	9.346
MS.205         	15.635         	9.189
MS.206         	15.605         	9.052
MS.207         	15.572         	9.267
MS.208         	15.542         	9.193
MS.209         	15.51          	9.185
MS.210         	15.48          	8.985
MS.211         	15.447         	9.126
MS.212         	15.417         	9.275
MS.213         	15.387         	9.096
MS.214         	15.355         	9.197
MS.215         	15.325         	8.83
MS.216         	15.295         	8.913
MS.217         	15.265         	8.913
MS.218         	15.235         	9.025
MS.219         	15.202         	8.884
MS.220         	15.172         	9.003
MS.221         	15.142         	8.8
MS.222         	15.112         	8.58
MS.223         	15.082         	8.838
MS.224         	15.052         	8.598
MS.225         	15.023         	8.544
MS.226         	14.992         	8.492
MS.227         	14.962         	8.504
MS.228         	14.932         	8.492
MS.229         	14.902         	8.522
MS.230         	14.872         	8.389
MS.231         	14.842         	8.695
MS.232         	14.812         	8.619
MS.233         	14.782         	8.28
MS.234         	14.755         	8.677
MS.235         	14.725         	8.464
MS.236         	14.695         	8.393
MS.237         	14.665         	8.345
MS.238         	14.637         	8.435
MS.239         	14.608         	8.403
MS.240         	14.577         	8.304
MS.241         	14.55          	8.079
MS.242         	14.52          	8.163
MS.243         	14.49          	8.03
MS.244         	14.462         	8.264
MS.245         	14.432         	7.936
MS.246         	14.405         	7.867
MS.247         	14.375         	7.906
MS.248         	14.347         	7.98
MS.249         	14.318         	8.087
MS.250         	14.29          	8.059
MS.251         	14.26          	7.924
MS.252         	14.233         	7.833
MS.253         	14.205         	7.932
MS.254         	14.175         	7.91
MS.255         	14.148         	7.799
MS.256         	14.12          	7.839
MS.257         	14.09          	7.988
MS.258         	14.062         	7.744
MS.259         	14.035         	7.779
MS.260         	14.007         	7.771
MS.261         	13.977         	7.887
MS.262         	13.95          	7.763
MS.263         	13.922         	7.753
MS.264         	13.895         	7.845
MS.265         	13.867         	7.628
MS.266         	13.84          	7.757
MS.267         	13.812         	7.724
MS.268         	13.785         	7.787
MS.269         	13.757         	7.748
MS.270         	13.73          	7.706
MS.271         	13.702         	7.75
MS.272         	13.675         	7.867
MS.273         	13.648         	7.855
MS.274         	13.62          	7.847
MS.275         	13.592         	7.777
MS.276         	13.565         	7.934
MS.277         	13.537         	7.795
MS.278         	13.51          	7.738
MS.279         	13.485         	7.696
MS.280         	13.457         	7.797
MS.281         	13.43          	7.763
MS.282         	13.403         	7.722
MS.283         	13.377         	7.793
MS.284         	13.35          	7.579
MS.285         	13.322         	7.722
MS.286         	13.297         	7.694
MS.287         	13.27          	7.559
MS.288         	13.242         	7.718
MS.289         	13.217         	7.587
MS.290         	13.19          	7.666
MS.291         	13.165         	7.523
MS.292         	13.137         	7.378
MS.293         	13.112         	7.666
MS.294         	13.085         	7.182
MS.295         	13.06          	7.382
MS.296         	13.032         	7.456
MS.297         	13.007         	7.132
MS.298         	12.983         	7.247
MS.299         	12.955         	7.009
MS.300         	12.93          	7.185
MS.301         	12.903         	7.17
MS.302         	12.877         	6.838
MS.303         	12.852         	7.035
MS.304         	12.827         	7.158
MS.305         	12.8           	6.967
MS.306         	12.775         	6.822
MS.307         	12.75          	6.747
MS.308         	12.725         	6.784
MS.309         	12.7           	6.641
MS.310         	12.672         	6.653
MS.311         	12.648         	6.76
MS.312         	12.622         	6.856
MS.313         	12.597         	6.606
MS.314         	12.572         	6.77
MS.315         	12.547         	6.663
MS.316         	12.523         	6.524
MS.317         	12.497         	6.544
MS.318         	12.472         	6.31
MS.319         	12.447         	6.457
MS.320         	12.422         	6.361
MS.321         	12.398         	6.316
MS.322         	12.372         	6.131
MS.323         	12.347         	6.322
MS.324         	12.322         	6.105
MS.325         	12.3           	6.361
MS.326         	12.275         	5.942
MS.327         	12.25          	6.018
MS.328         	12.225         	5.734
MS.329         	12.2           	6.038
MS.330         	12.177         	5.885
MS.331         	12.153         	5.912
MS.332         	12.127         	5.889
MS.333         	12.102         	5.64
MS.334         	12.08          	5.402
MS.335         	12.055         	5.354
MS.336         	12.032         	5.891
MS.337         	12.007         	5.434
MS.338         	11.983         	5.541
MS.339         	11.96          	5.289
MS.340         	11.935         	5.43
MS.341         	11.912         	5.362
MS.342         	11.887         	5.199
MS.343         	11.865         	5.106
MS.344         	11.84          	5.082
MS.345         	11.818         	5.195
MS.346         	11.792         	5.088
MS.347         	11.77          	4.953
MS.348         	11.745         	4.633
MS.349         	11.722         	4.57
MS.350         	11.7           	4.606
MS.351         	11.675         	4.727
MS.352         	11.653         	4.532
MS.353         	11.63          	4.492
MS.354         	11.605         	4.296
MS.355         	11.582         	4.465
MS.356         	11.56          	4.524
MS.357         	11.537         	4.278
MS.358         	11.512         	4.32
MS.359         	11.49          	4.139
MS.360         	11.467         	4.198
MS.361         	11.445         	4.032
MS.362         	11.422         	4.067
MS.363         	11.4           	3.982
MS.364         	11.375         	4.077
MS.365         	11.352         	3.918
MS.366         	11.33          	3.746
MS.367         	11.307         	4.048
MS.368         	11.285         	3.875
MS.369         	11.262         	3.509
MS.370         	11.24          	3.529
MS.371         	11.217         	3.418
MS.372         	11.195         	3.358
MS.373         	11.172         	3.454
MS.374         	11.15          	3.319
MS.375         	11.127         	3.037
MS.376         	11.108         	3.239
MS.377         	11.085         	3.237
MS.378         	11.062         	3.182
MS.379         	11.04          	3.219
MS.380         	11.017         	2.721
MS.381         	10.995         	3.057
MS.382         	10.975         	3.017
MS.383         	10.952         	2.802
MS.384         	10.93          	2.651
MS.385         	10.907         	2.663
MS.386         	10.887         	2.798
MS.387         	10.865         	2.771
MS.388         	10.842         	2.721
MS.389         	10.823         	2.469
MS.390         	10.8           	2.397
MS.391         	10.778         	2.441
MS.392         	10.757         	2.723
MS.393         	10.735         	2.431
MS.394         	10.712         	2.395
MS.395         	10.693         	2.306
MS.396         	10.67          	2.181
MS.397         	10.65          	2.288
MS.398         	10.627         	2.355
MS.399         	10.608         	2.232
MS.400         	10.585         	2.004
MS.401         	10.565         	2.048
MS.402         	10.542         	2.232
MS.403         	10.523         	2.177
MS.404         	10.502         	2.101
MS.405         	10.48          	2.006
MS.406         	10.46          	1.789
MS.407         	10.438         	1.895
MS.408         	10.417         	1.883
MS.409         	10.398         	1.799
MS.410         	10.375         	1.821
MS.411         	10.355         	1.69
MS.412         	10.335         	1.73
MS.413         	10.315         	1.615
MS.414         	10.292         	1.706
MS.415         	10.273         	1.581
MS.416         	10.252         	1.416
MS.417         	10.233         	1.376
MS.418         	10.212         	1.392
MS.419         	10.19          	1.366
MS.420         	10.17          	1.277
MS.421         	10.15          	1.418
MS.422         	10.13          	1.327
MS.423         	10.11          	1.265
MS.424         	10.09          	1.263
MS.425         	10.07          	1.223
MS.426         	10.05          	1.08
MS.427         	10.03          	1.007
MS.428         	10.01          	1.17
MS.429         	9.99           	1.096
MS.430         	9.97           	0.937
MS.431         	9.95           	0.84
MS.432         	9.93           	0.965
MS.433         	9.91           	0.85
MS.434         	9.89           	0.979
MS.435         	9.87           	0.737
MS.436         	9.85           	0.719
MS.437         	9.83           	0.665
MS.438         	9.81           	0.741
MS.439         	9.792          	0.786
MS.440         	9.773          	0.721
MS.441         	9.752          	0.671
MS.442         	9.733          	0.681
MS.443         	9.712          	0.689
MS.444         	9.695          	0.673
MS.445         	9.675          	0.661
MS.446         	9.655          	0.614
MS.447         	9.635          	0.51
MS.448         	9.617          	0.457
MS.449         	9.597          	0.534
MS.450         	9.577          	0.552
MS.451         	9.56           	0.59
MS.452         	9.54           	0.443
MS.453         	9.52           	0.395
MS.454         	9.502          	0.681
MS.455         	9.483          	0.465
MS.456         	9.465          	0.506
MS.457         	9.445          	0.457
MS.458         	9.427          	0.385
MS.459         	9.407          	0.379
MS.460         	9.39           	0.373
MS.461         	9.37           	0.344
MS.462         	9.352          	0.369
MS.463         	9.332          	0.304
MS.464         	9.315          	0.326
MS.465         	9.295          	0.3
MS.466         	9.278          	0.302
MS.467         	9.257          	0.232
MS.468         	9.24           	0.278
MS.469         	9.222          	0.216
MS.470         	9.202          	0.145
MS.471         	9.185          	0.264
MS.472         	9.165          	0.282
MS.473         	9.148          	0.31
MS.474         	9.13           	0.099
MS.475         	9.113          	0.131
MS.476         	9.092          	0.133
MS.477         	9.075          	0.121
MS.478         	9.057          	0.201
MS.479         	9.037          	0.161
MS.480         	9.02           	0.145
MS.481         	9.002          	0.165
MS.482         	8.985          	0.099
MS.483         	8.967          	0.125
MS.484         	8.95           	0.066
MS.485         	8.93           	0.062
MS.486         	8.912          	0.058
MS.487         	8.895          	0.046
MS.488         	8.877          	0.054
MS.489         	8.86           	0.068
MS.490         	8.842          	0.04
MS.491         	8.825          	0.058
MS.492         	8.807          	0.05
MS.493         	8.79           	0.075
MS.494         	8.773          	0.089
MS.495         	8.755          	0.062
