File:              	C:\Qtrac\Data\Daniel M Sørensen\MScan multicentre study\Data from centres\Roskilde\Folders with NC-examinations\ROS_N5b\MBC00430B.QZD
Name:              	DK.ROS.NC.5.2
Protocol:          	MSCAN-R2
Date:              	30/4/20
Start time:        	14:44:40
Age:               	34
Sex:               	m
Temperature:       	37.9
S/R sites:         	Ulnar Wr-ADM
NC/disease:        	NC
Operator:          	mb
Comments:
M-SCAN DATA (6.9-1.4m)
Scanpts: 18, 24, 582, 603
Stim. (mA)     	Amp. (mV)
MS.1           	19.5           	10.194
MS.2           	19.5           	10.242
MS.3           	19.5           	10.153
MS.4           	19.5           	10.256
MS.5           	19.5           	10.26
MS.6           	19.5           	10.238
MS.7           	19.5           	10.282
MS.8           	19.5           	10.278
MS.9           	19.5           	10.25
MS.10          	19.5           	10.246
MS.11          	19.5           	10.254
MS.12          	19.5           	10.258
MS.13          	19.5           	10.266
MS.14          	19.5           	10.312
MS.15          	19.5           	10.31
MS.16          	19.5           	10.323
MS.17          	19.5           	10.282
MS.18          	19.5           	10.252
MS.19          	19.5           	10.296
MS.20          	19.5           	10.31
MS.21          	19.5           	10.294
MS.22          	19.5           	10.321
MS.23          	19.5           	10.306
MS.24          	19.422         	10.276
MS.25          	19.382         	10.284
MS.26          	19.345         	10.31
MS.27          	19.305         	10.323
MS.28          	19.267         	10.325
MS.29          	19.23          	10.278
MS.30          	19.19          	10.222
MS.31          	19.153         	10.256
MS.32          	19.115         	10.244
MS.33          	19.075         	10.161
MS.34          	19.038         	10.184
MS.35          	19             	10.176
MS.36          	18.962         	10.186
MS.37          	18.922         	10.192
MS.38          	18.885         	10.21
MS.39          	18.847         	10.22
MS.40          	18.81          	10.149
MS.41          	18.772         	10.256
MS.42          	18.735         	10.184
MS.43          	18.698         	10.192
MS.44          	18.66          	10.117
MS.45          	18.622         	10.224
MS.46          	18.585         	10.228
MS.47          	18.55          	10.2
MS.48          	18.512         	10.133
MS.49          	18.475         	10.077
MS.50          	18.438         	10.147
MS.51          	18.4           	10.121
MS.52          	18.365         	10.218
MS.53          	18.327         	10.163
MS.54          	18.29          	10.131
MS.55          	18.255         	10.121
MS.56          	18.217         	10.079
MS.57          	18.182         	10.101
MS.58          	18.145         	10.123
MS.59          	18.11          	10.125
MS.60          	18.073         	10.165
MS.61          	18.038         	10.105
MS.62          	18             	10.119
MS.63          	17.965         	10.111
MS.64          	17.93          	10.081
MS.65          	17.892         	10.091
MS.66          	17.858         	10.089
MS.67          	17.823         	10.087
MS.68          	17.785         	10.105
MS.69          	17.75          	10.043
MS.70          	17.715         	10.091
MS.71          	17.68          	10.121
MS.72          	17.645         	10.123
MS.73          	17.61          	10.055
MS.74          	17.575         	10.097
MS.75          	17.538         	10.133
MS.76          	17.503         	10.109
MS.77          	17.467         	10.111
MS.78          	17.435         	10.151
MS.79          	17.4           	10.137
MS.80          	17.365         	10.091
MS.81          	17.33          	10.135
MS.82          	17.295         	10.123
MS.83          	17.26          	10.073
MS.84          	17.225         	10.151
MS.85          	17.192         	10.055
MS.86          	17.157         	10.129
MS.87          	17.122         	10.081
MS.88          	17.087         	10.016
MS.89          	17.055         	9.996
MS.90          	17.02          	10.065
MS.91          	16.987         	9.984
MS.92          	16.952         	10.031
MS.93          	16.917         	10.037
MS.94          	16.885         	10.059
MS.95          	16.85          	10.053
MS.96          	16.817         	10.055
MS.97          	16.782         	10.045
MS.98          	16.75          	10.045
MS.99          	16.717         	10.049
MS.100         	16.682         	10.063
MS.101         	16.65          	10.039
MS.102         	16.618         	10.043
MS.103         	16.583         	10.031
MS.104         	16.55          	10.077
MS.105         	16.517         	10.075
MS.106         	16.485         	10.081
MS.107         	16.452         	10.031
MS.108         	16.417         	10.012
MS.109         	16.385         	9.809
MS.110         	16.352         	10.002
MS.111         	16.32          	9.892
MS.112         	16.288         	10.031
MS.113         	16.255         	9.867
MS.114         	16.222         	10.033
MS.115         	16.19          	9.73
MS.116         	16.157         	9.849
MS.117         	16.125         	9.984
MS.118         	16.092         	9.883
MS.119         	16.062         	9.819
MS.120         	16.03          	9.851
MS.121         	15.997         	9.704
MS.122         	15.965         	9.851
MS.123         	15.932         	10.043
MS.124         	15.902         	9.847
MS.125         	15.87          	9.745
MS.126         	15.837         	9.924
MS.127         	15.807         	9.867
MS.128         	15.775         	9.716
MS.129         	15.742         	9.841
MS.130         	15.712         	9.702
MS.131         	15.68          	9.73
MS.132         	15.65          	9.847
MS.133         	15.617         	9.74
MS.134         	15.587         	9.71
MS.135         	15.555         	9.702
MS.136         	15.525         	9.68
MS.137         	15.492         	9.726
MS.138         	15.462         	9.69
MS.139         	15.432         	9.656
MS.140         	15.4           	9.664
MS.141         	15.37          	9.644
MS.142         	15.34          	9.682
MS.143         	15.307         	9.716
MS.144         	15.277         	9.676
MS.145         	15.247         	9.73
MS.146         	15.217         	9.702
MS.147         	15.188         	9.666
MS.148         	15.155         	9.73
MS.149         	15.125         	9.66
MS.150         	15.095         	9.67
MS.151         	15.065         	9.72
MS.152         	15.035         	9.718
MS.153         	15.005         	9.761
MS.154         	14.975         	9.74
MS.155         	14.945         	9.704
MS.156         	14.915         	9.732
MS.157         	14.885         	9.724
MS.158         	14.855         	9.745
MS.159         	14.827         	9.69
MS.160         	14.797         	9.702
MS.161         	14.767         	9.755
MS.162         	14.737         	9.65
MS.163         	14.707         	9.646
MS.164         	14.68          	9.612
MS.165         	14.65          	9.676
MS.166         	14.62          	9.597
MS.167         	14.59          	9.62
MS.168         	14.562         	9.523
MS.169         	14.532         	9.593
MS.170         	14.505         	9.529
MS.171         	14.475         	9.549
MS.172         	14.445         	9.491
MS.173         	14.417         	9.577
MS.174         	14.387         	9.545
MS.175         	14.36          	9.511
MS.176         	14.33          	9.608
MS.177         	14.302         	9.336
MS.178         	14.273         	9.606
MS.179         	14.245         	9.265
MS.180         	14.217         	9.444
MS.181         	14.188         	9.428
MS.182         	14.16          	9.271
MS.183         	14.132         	9.233
MS.184         	14.102         	9.315
MS.185         	14.075         	9.181
MS.186         	14.047         	9.386
MS.187         	14.02          	9.174
MS.188         	13.99          	9.362
MS.189         	13.962         	9.102
MS.190         	13.935         	9.048
MS.191         	13.907         	9.134
MS.192         	13.88          	8.939
MS.193         	13.852         	9.054
MS.194         	13.825         	8.945
MS.195         	13.797         	8.818
MS.196         	13.77          	8.979
MS.197         	13.742         	8.717
MS.198         	13.715         	8.862
MS.199         	13.688         	8.735
MS.200         	13.66          	8.935
MS.201         	13.632         	8.705
MS.202         	13.605         	8.796
MS.203         	13.577         	8.633
MS.204         	13.55          	8.633
MS.205         	13.523         	8.453
MS.206         	13.495         	8.56
MS.207         	13.47          	8.615
MS.208         	13.443         	8.633
MS.209         	13.415         	8.316
MS.210         	13.387         	8.258
MS.211         	13.362         	8.216
MS.212         	13.335         	8.377
MS.213         	13.307         	8.226
MS.214         	13.282         	8.129
MS.215         	13.255         	8.026
MS.216         	13.23          	8.23
MS.217         	13.202         	8.055
MS.218         	13.175         	7.984
MS.219         	13.15          	8.045
MS.220         	13.122         	8.079
MS.221         	13.097         	8.095
MS.222         	13.07          	7.96
MS.223         	13.045         	8.29
MS.224         	13.02          	7.978
MS.225         	12.992         	8.002
MS.226         	12.967         	8.125
MS.227         	12.94          	8.02
MS.228         	12.915         	7.998
MS.229         	12.89          	8.02
MS.230         	12.862         	8.059
MS.231         	12.837         	7.855
MS.232         	12.812         	7.936
MS.233         	12.787         	8.036
MS.234         	12.76          	7.92
MS.235         	12.735         	7.849
MS.236         	12.71          	7.781
MS.237         	12.685         	8.036
MS.238         	12.66          	7.974
MS.239         	12.635         	7.924
MS.240         	12.61          	7.946
MS.241         	12.585         	7.948
MS.242         	12.557         	7.797
MS.243         	12.532         	7.724
MS.244         	12.507         	7.72
MS.245         	12.483         	7.99
MS.246         	12.457         	7.972
MS.247         	12.432         	7.815
MS.248         	12.41          	7.859
MS.249         	12.385         	7.916
MS.250         	12.36          	7.889
MS.251         	12.335         	7.795
MS.252         	12.31          	7.545
MS.253         	12.285         	7.893
MS.254         	12.26          	7.489
MS.255         	12.238         	7.789
MS.256         	12.212         	7.827
MS.257         	12.188         	7.539
MS.258         	12.162         	7.134
MS.259         	12.14          	7.539
MS.260         	12.115         	7.555
MS.261         	12.09          	7.565
MS.262         	12.065         	7.603
MS.263         	12.042         	7.384
MS.264         	12.017         	7.418
MS.265         	11.995         	7.676
MS.266         	11.97          	7.138
MS.267         	11.945         	6.868
MS.268         	11.922         	7.124
MS.269         	11.898         	7.418
MS.270         	11.875         	7.432
MS.271         	11.85          	7.116
MS.272         	11.827         	7.12
MS.273         	11.802         	6.743
MS.274         	11.78          	7.209
MS.275         	11.757         	7.011
MS.276         	11.733         	6.919
MS.277         	11.71          	6.758
MS.278         	11.685         	6.751
MS.279         	11.662         	6.623
MS.280         	11.64          	6.592
MS.281         	11.617         	6.385
MS.282         	11.592         	6.983
MS.283         	11.57          	6.798
MS.284         	11.547         	6.8
MS.285         	11.525         	6.576
MS.286         	11.5           	6.721
MS.287         	11.477         	6.486
MS.288         	11.455         	6.387
MS.289         	11.432         	6.461
MS.290         	11.41          	6.476
MS.291         	11.387         	6.723
MS.292         	11.363         	6.371
MS.293         	11.34          	6.093
MS.294         	11.318         	6.407
MS.295         	11.295         	6.234
MS.296         	11.273         	6.276
MS.297         	11.25          	6.183
MS.298         	11.227         	6.069
MS.299         	11.205         	6.24
MS.300         	11.182         	5.694
MS.301         	11.16          	5.485
MS.302         	11.137         	5.974
MS.303         	11.117         	5.611
MS.304         	11.095         	5.527
MS.305         	11.073         	5.243
MS.306         	11.05          	5.362
MS.307         	11.028         	5.281
MS.308         	11.005         	5.307
MS.309         	10.983         	5.303
MS.310         	10.962         	5.156
MS.311         	10.94          	5.136
MS.312         	10.917         	5.064
MS.313         	10.895         	5.088
MS.314         	10.875         	4.878
MS.315         	10.852         	5.035
MS.316         	10.83          	5.307
MS.317         	10.81          	5.108
MS.318         	10.787         	4.816
MS.319         	10.765         	4.653
MS.320         	10.745         	5.074
MS.321         	10.722         	4.479
MS.322         	10.702         	4.683
MS.323         	10.68          	4.677
MS.324         	10.66          	4.582
MS.325         	10.637         	4.504
MS.326         	10.617         	4.502
MS.327         	10.595         	4.429
MS.328         	10.575         	4.347
MS.329         	10.552         	4.387
MS.330         	10.532         	4.359
MS.331         	10.51          	4.254
MS.332         	10.49          	4.05
MS.333         	10.47          	4.065
MS.334         	10.448         	3.911
MS.335         	10.427         	3.857
MS.336         	10.407         	4.129
MS.337         	10.385         	3.565
MS.338         	10.365         	3.591
MS.339         	10.345         	3.98
MS.340         	10.323         	3.454
MS.341         	10.302         	3.299
MS.342         	10.282         	3.545
MS.343         	10.262         	3.66
MS.344         	10.24          	3.388
MS.345         	10.22          	3.499
MS.346         	10.2           	3.422
MS.347         	10.18          	2.912
MS.348         	10.16          	3.136
MS.349         	10.14          	3.047
MS.350         	10.12          	2.882
MS.351         	10.097         	2.908
MS.352         	10.077         	2.864
MS.353         	10.057         	3.039
MS.354         	10.037         	2.671
MS.355         	10.017         	2.753
MS.356         	9.997          	2.933
MS.357         	9.977          	2.566
MS.358         	9.957          	2.477
MS.359         	9.938          	2.852
MS.360         	9.917          	2.518
MS.361         	9.9            	2.473
MS.362         	9.88           	2.399
MS.363         	9.86           	2.649
MS.364         	9.84           	2.596
MS.365         	9.82           	2.401
MS.366         	9.8            	2.596
MS.367         	9.78           	2.431
MS.368         	9.76           	2.089
MS.369         	9.742          	2.383
MS.370         	9.722          	2.23
MS.371         	9.702          	2.026
MS.372         	9.682          	2.252
MS.373         	9.665          	2.089
MS.374         	9.645          	1.865
MS.375         	9.625          	1.972
MS.376         	9.605          	1.811
MS.377         	9.587          	1.714
MS.378         	9.568          	1.776
MS.379         	9.55           	1.813
MS.380         	9.53           	1.817
MS.381         	9.51           	1.593
MS.382         	9.492          	1.557
MS.383         	9.472          	1.39
MS.384         	9.452          	1.587
MS.385         	9.435          	1.418
MS.386         	9.415          	1.513
MS.387         	9.398          	1.412
MS.388         	9.377          	1.64
MS.389         	9.36           	1.543
MS.390         	9.34           	1.408
MS.391         	9.323          	1.358
MS.392         	9.302          	1.398
MS.393         	9.285          	1.434
MS.394         	9.267          	1.412
MS.395         	9.247          	1.148
MS.396         	9.23           	1.076
MS.397         	9.21           	1.063
MS.398         	9.193          	1.021
MS.399         	9.175          	1.132
MS.400         	9.155          	1.092
MS.401         	9.137          	1.096
MS.402         	9.12           	1.007
MS.403         	9.1            	0.999
MS.404         	9.082          	0.888
MS.405         	9.065          	0.735
MS.406         	9.047          	0.802
MS.407         	9.028          	0.896
MS.408         	9.01           	0.844
MS.409         	8.992          	0.717
MS.410         	8.975          	0.848
MS.411         	8.957          	0.743
MS.412         	8.94           	0.749
MS.413         	8.92           	0.717
MS.414         	8.903          	0.618
MS.415         	8.885          	0.602
MS.416         	8.867          	0.52
MS.417         	8.85           	0.636
MS.418         	8.832          	0.59
MS.419         	8.815          	0.447
MS.420         	8.797          	0.463
MS.421         	8.78           	0.57
MS.422         	8.762          	0.214
MS.423         	8.745          	0.403
MS.424         	8.727          	0.367
MS.425         	8.71           	0.304
MS.426         	8.693          	0.228
MS.427         	8.675          	0.312
MS.428         	8.658          	0.342
MS.429         	8.64           	0.157
MS.430         	8.622          	0.197
MS.431         	8.605          	0.236
MS.432         	8.587          	0.228
MS.433         	8.57           	0.161
MS.434         	8.555          	0.171
MS.435         	8.537          	0.23
MS.436         	8.52           	0.232
MS.437         	8.502          	0.085
MS.438         	8.485          	0.129
MS.439         	8.47           	0.066
MS.440         	8.452          	0.169
MS.441         	8.435          	0.089
MS.442         	8.417          	0.081
MS.443         	8.403          	0.125
MS.444         	8.385          	0.06
MS.445         	8.367          	0.077
MS.446         	8.35           	0.119
MS.447         	8.335          	0.109
MS.448         	8.318          	0.127
MS.449         	8.302          	0.099
MS.450         	8.285          	0.139
MS.451         	8.267          	0.175
MS.452         	8.252          	0.141
MS.453         	8.235          	0.129
MS.454         	8.217          	0.109
MS.455         	8.202          	0.113
MS.456         	8.185          	0.058
MS.457         	8.17           	0.125
MS.458         	8.153          	0.095
MS.459         	8.137          	0.109
MS.460         	8.12           	0.097
MS.461         	8.105          	0.111
MS.462         	8.087          	0.137
MS.463         	8.073          	0.115
MS.464         	8.055          	0.111
MS.465         	8.04           	0.119
MS.466         	8.025          	0.085
MS.467         	8.007          	0.089
MS.468         	7.992          	0.125
MS.469         	7.975          	0.123
MS.470         	7.96           	0.087
MS.471         	7.945          	0.117
MS.472         	7.927          	0.05
MS.473         	7.912          	0.087
MS.474         	7.898          	0.091
MS.475         	7.88           	0.093
MS.476         	7.865          	0.085
MS.477         	7.85           	0.097
MS.478         	7.832          	0.075
MS.479         	7.817          	0.079
MS.480         	7.802          	0.062
MS.481         	7.787          	0.091
MS.482         	7.77           	0.07
MS.483         	7.755          	0.081
MS.484         	7.74           	0.068
MS.485         	7.725          	0.066
MS.486         	7.71           	0.046
MS.487         	7.695          	0.103
MS.488         	7.677          	0.064
MS.489         	7.662          	0.03
MS.490         	7.648          	0.026
MS.491         	7.632          	0.046
MS.492         	7.617          	0.046
MS.493         	7.602          	0.066
MS.494         	7.587          	0.062
MS.495         	7.572          	0.026
MS.496         	7.557          	0.038
MS.497         	7.543          	0.034
