File:              	C:\Qtrac\Data\Daniel M Sørensen\MScan multicentre study\Data from centres\Toronto\Processed data\MSCC01112B.QZD
Name:              	CA.TOR.NC.1.1
Protocol:          	MSCAN-R2
Date:              	12/11/20
Start time:        	16:37:34
Age:               	36
Sex:               	M
Temperature:       	32
S/R sites:         	ADM
NC/disease:        	NC
Operator:          	LP
Comments:
M-SCAN DATA (6.5-1.6m)
Scanpts: 17, 27, 513, 535
Stim. (mA)     	Amp. (mV)
MS.1           	36.5           	9.038
MS.2           	36.5           	8.939
MS.3           	36.5           	8.989
MS.4           	36.5           	8.965
MS.5           	36.5           	9.044
MS.6           	36.5           	8.949
MS.7           	36.5           	8.969
MS.8           	36.5           	9.021
MS.9           	36.5           	8.951
MS.10          	36.5           	8.971
MS.11          	36.5           	8.925
MS.12          	36.5           	8.832
MS.13          	36.5           	8.909
MS.14          	36.5           	8.86
MS.15          	36.5           	8.915
MS.16          	36.5           	8.911
MS.17          	36.5           	8.925
MS.18          	36.5           	8.931
MS.19          	36.5           	8.917
MS.20          	36.5           	8.886
MS.21          	36.5           	8.899
MS.22          	36.5           	8.937
MS.23          	36.5           	8.935
MS.24          	36.355         	8.868
MS.25          	36.282         	8.878
MS.26          	36.21          	8.943
MS.27          	36.138         	8.961
MS.28          	36.065         	8.903
MS.29          	35.993         	8.933
MS.30          	35.92          	8.925
MS.31          	35.847         	8.929
MS.32          	35.778         	8.878
MS.33          	35.705         	8.882
MS.34          	35.635         	8.878
MS.35          	35.562         	8.862
MS.36          	35.493         	8.862
MS.37          	35.42          	8.778
MS.38          	35.35          	8.919
MS.39          	35.28          	8.893
MS.40          	35.21          	8.923
MS.41          	35.14          	8.909
MS.42          	35.068         	8.862
MS.43          	34.997         	8.82
MS.44          	34.927         	8.81
MS.45          	34.86          	8.727
MS.46          	34.79          	8.788
MS.47          	34.72          	8.776
MS.48          	34.65          	8.764
MS.49          	34.58          	8.794
MS.50          	34.513         	8.766
MS.51          	34.443         	8.764
MS.52          	34.375         	8.786
MS.53          	34.305         	8.82
MS.54          	34.237         	8.87
MS.55          	34.167         	8.764
MS.56          	34.1           	8.812
MS.57          	34.032         	8.754
MS.58          	33.965         	8.832
MS.59          	33.897         	8.77
MS.60          	33.827         	8.82
MS.61          	33.76          	8.739
MS.62          	33.693         	8.812
MS.63          	33.627         	8.788
MS.64          	33.56          	8.828
MS.65          	33.493         	8.737
MS.66          	33.425         	8.844
MS.67          	33.357         	8.786
MS.68          	33.292         	8.862
MS.69          	33.225         	8.832
MS.70          	33.16          	8.711
MS.71          	33.092         	8.814
MS.72          	33.028         	8.826
MS.73          	32.96          	8.818
MS.74          	32.895         	8.782
MS.75          	32.83          	8.679
MS.76          	32.763         	8.806
MS.77          	32.697         	8.709
MS.78          	32.632         	8.862
MS.79          	32.568         	8.86
MS.80          	32.502         	8.86
MS.81          	32.438         	8.671
MS.82          	32.372         	8.764
MS.83          	32.307         	8.814
MS.84          	32.243         	8.683
MS.85          	32.18          	8.697
MS.86          	32.115         	8.711
MS.87          	32.05          	8.693
MS.88          	31.987         	8.667
MS.89          	31.922         	8.697
MS.90          	31.858         	8.816
MS.91          	31.795         	8.717
MS.92          	31.733         	8.721
MS.93          	31.667         	8.725
MS.94          	31.605         	8.669
MS.95          	31.542         	8.697
MS.96          	31.477         	8.59
MS.97          	31.415         	8.671
MS.98          	31.352         	8.687
MS.99          	31.29          	8.645
MS.100         	31.227         	8.552
MS.101         	31.165         	8.613
MS.102         	31.102         	8.655
MS.103         	31.04          	8.544
MS.104         	30.98          	8.609
MS.105         	30.917         	8.51
MS.106         	30.855         	8.435
MS.107         	30.792         	8.445
MS.108         	30.733         	8.468
MS.109         	30.67          	8.421
MS.110         	30.61          	8.737
MS.111         	30.547         	8.586
MS.112         	30.487         	8.502
MS.113         	30.427         	8.548
MS.114         	30.365         	8.558
MS.115         	30.305         	8.582
MS.116         	30.245         	8.534
MS.117         	30.185         	8.498
MS.118         	30.122         	8.651
MS.119         	30.062         	8.528
MS.120         	30.002         	8.592
MS.121         	29.942         	8.403
MS.122         	29.882         	8.421
MS.123         	29.825         	8.486
MS.124         	29.765         	8.453
MS.125         	29.705         	8.433
MS.126         	29.645         	8.528
MS.127         	29.585         	8.359
MS.128         	29.528         	8.272
MS.129         	29.467         	8.439
MS.130         	29.41          	8.387
MS.131         	29.35          	8.254
MS.132         	29.292         	8.266
MS.133         	29.233         	8.242
MS.134         	29.175         	8.403
MS.135         	29.117         	8.282
MS.136         	29.057         	8.298
MS.137         	29             	8.236
MS.138         	28.942         	8.228
MS.139         	28.885         	8.335
MS.140         	28.827         	8.123
MS.141         	28.77          	8.212
MS.142         	28.712         	8.18
MS.143         	28.655         	8.224
MS.144         	28.597         	8.03
MS.145         	28.54          	8.155
MS.146         	28.483         	8.202
MS.147         	28.425         	8.252
MS.148         	28.37          	7.978
MS.149         	28.312         	8.137
MS.150         	28.255         	7.946
MS.151         	28.2           	8.047
MS.152         	28.142         	8.032
MS.153         	28.087         	7.859
MS.154         	28.03          	7.938
MS.155         	27.975         	7.841
MS.156         	27.92          	7.736
MS.157         	27.862         	7.934
MS.158         	27.807         	7.732
MS.159         	27.752         	7.755
MS.160         	27.698         	7.893
MS.161         	27.64          	7.767
MS.162         	27.585         	7.69
MS.163         	27.53          	7.475
MS.164         	27.475         	7.521
MS.165         	27.42          	7.654
MS.166         	27.365         	7.418
MS.167         	27.312         	7.416
MS.168         	27.257         	7.537
MS.169         	27.202         	7.519
MS.170         	27.147         	7.41
MS.171         	27.095         	7.263
MS.172         	27.04          	7.122
MS.173         	26.985         	7.245
MS.174         	26.932         	7.031
MS.175         	26.877         	7.172
MS.176         	26.825         	6.909
MS.177         	26.77          	7.243
MS.178         	26.717         	6.989
MS.179         	26.665         	6.766
MS.180         	26.61          	6.84
MS.181         	26.557         	6.886
MS.182         	26.505         	7.193
MS.183         	26.452         	6.915
MS.184         	26.397         	6.808
MS.185         	26.345         	6.941
MS.186         	26.292         	6.88
MS.187         	26.24          	7.211
MS.188         	26.188         	6.711
MS.189         	26.135         	6.753
MS.190         	26.082         	6.657
MS.191         	26.032         	6.532
MS.192         	25.98          	6.602
MS.193         	25.927         	6.621
MS.194         	25.875         	6.671
MS.195         	25.825         	6.615
MS.196         	25.772         	6.188
MS.197         	25.72          	6.228
MS.198         	25.67          	6.387
MS.199         	25.618         	6.792
MS.200         	25.567         	6.401
MS.201         	25.515         	6.413
MS.202         	25.465         	6.641
MS.203         	25.415         	6.322
MS.204         	25.362         	6.042
MS.205         	25.312         	6.135
MS.206         	25.262         	6.012
MS.207         	25.212         	5.855
MS.208         	25.163         	6.246
MS.209         	25.11          	6.24
MS.210         	25.06          	6.113
MS.211         	25.01          	5.714
MS.212         	24.96          	6.192
MS.213         	24.91          	6.026
MS.214         	24.86          	6.204
MS.215         	24.812         	5.583
MS.216         	24.762         	6.113
MS.217         	24.712         	5.664
MS.218         	24.663         	5.734
MS.219         	24.615         	5.571
MS.220         	24.565         	6.091
MS.221         	24.515         	5.563
MS.222         	24.467         	5.549
MS.223         	24.417         	5.609
MS.224         	24.37          	5.541
MS.225         	24.32          	5.543
MS.226         	24.272         	5.384
MS.227         	24.222         	5.237
MS.228         	24.175         	5.293
MS.229         	24.127         	5.65
MS.230         	24.077         	4.892
MS.231         	24.03          	5.277
MS.232         	23.983         	4.906
MS.233         	23.935         	5.001
MS.234         	23.887         	4.987
MS.235         	23.837         	4.864
MS.236         	23.79          	5.08
MS.237         	23.743         	5.329
MS.238         	23.695         	4.572
MS.239         	23.647         	4.562
MS.240         	23.602         	4.719
MS.241         	23.555         	4.465
MS.242         	23.507         	4.711
MS.243         	23.46          	4.538
MS.244         	23.413         	4.131
MS.245         	23.368         	4.574
MS.246         	23.32          	4.3
MS.247         	23.272         	4.709
MS.248         	23.227         	4.069
MS.249         	23.18          	4.216
MS.250         	23.135         	4.612
MS.251         	23.087         	4.095
MS.252         	23.042         	3.954
MS.253         	22.995         	3.948
MS.254         	22.95          	3.847
MS.255         	22.905         	3.732
MS.256         	22.858         	3.875
MS.257         	22.812         	4.216
MS.258         	22.767         	3.591
MS.259         	22.722         	3.756
MS.260         	22.675         	3.545
MS.261         	22.63          	3.337
MS.262         	22.585         	3.748
MS.263         	22.54          	3.63
MS.264         	22.495         	3.45
MS.265         	22.45          	3.267
MS.266         	22.405         	3.229
MS.267         	22.36          	3.565
MS.268         	22.315         	3.559
MS.269         	22.272         	3.072
MS.270         	22.227         	2.999
MS.271         	22.182         	3.577
MS.272         	22.137         	3.134
MS.273         	22.095         	3.055
MS.274         	22.05          	3.227
MS.275         	22.005         	2.872
MS.276         	21.962         	3.078
MS.277         	21.917         	2.997
MS.278         	21.875         	3.243
MS.279         	21.83          	2.751
MS.280         	21.788         	2.812
MS.281         	21.743         	2.927
MS.282         	21.7           	2.655
MS.283         	21.657         	2.852
MS.284         	21.612         	2.576
MS.285         	21.57          	2.917
MS.286         	21.528         	2.485
MS.287         	21.485         	2.483
MS.288         	21.44          	2.933
MS.289         	21.397         	2.377
MS.290         	21.355         	2.502
MS.291         	21.312         	2.572
MS.292         	21.27          	2.028
MS.293         	21.227         	2.373
MS.294         	21.185         	2.594
MS.295         	21.142         	2.578
MS.296         	21.1           	2.421
MS.297         	21.057         	2.143
MS.298         	21.017         	2.097
MS.299         	20.975         	2.419
MS.300         	20.932         	2.208
MS.301         	20.89          	2.385
MS.302         	20.85          	2.195
MS.303         	20.807         	2.117
MS.304         	20.765         	1.986
MS.305         	20.725         	2.135
MS.306         	20.682         	2.455
MS.307         	20.642         	1.865
MS.308         	20.6           	1.974
MS.309         	20.56          	1.746
MS.310         	20.517         	1.708
MS.311         	20.477         	1.992
MS.312         	20.435         	1.789
MS.313         	20.395         	1.972
MS.314         	20.355         	1.901
MS.315         	20.315         	1.65
MS.316         	20.272         	1.752
MS.317         	20.233         	1.587
MS.318         	20.192         	1.65
MS.319         	20.153         	1.67
MS.320         	20.112         	1.569
MS.321         	20.073         	1.517
MS.322         	20.032         	1.414
MS.323         	19.993         	1.426
MS.324         	19.952         	1.638
MS.325         	19.913         	1.44
MS.326         	19.872         	1.497
MS.327         	19.833         	1.289
MS.328         	19.792         	1.275
MS.329         	19.752         	1.356
MS.330         	19.712         	1.285
MS.331         	19.675         	1.345
MS.332         	19.635         	1.398
MS.333         	19.595         	1.319
MS.334         	19.557         	1.164
MS.335         	19.517         	1.031
MS.336         	19.477         	1.307
MS.337         	19.44          	1.072
MS.338         	19.4           	1.243
MS.339         	19.362         	1.096
MS.340         	19.323         	1.108
MS.341         	19.285         	1.065
MS.342         	19.245         	1.142
MS.343         	19.208         	1.045
MS.344         	19.17          	1.031
MS.345         	19.13          	0.979
MS.346         	19.092         	1.184
MS.347         	19.055         	1.001
MS.348         	19.017         	0.971
MS.349         	18.977         	0.91
MS.350         	18.94          	0.949
MS.351         	18.903         	1.096
MS.352         	18.865         	0.894
MS.353         	18.827         	0.908
MS.354         	18.79          	0.858
MS.355         	18.753         	0.979
MS.356         	18.715         	1.045
MS.357         	18.677         	0.985
MS.358         	18.64          	0.975
MS.359         	18.602         	0.975
MS.360         	18.565         	0.852
MS.361         	18.528         	0.963
MS.362         	18.493         	0.709
MS.363         	18.455         	0.87
MS.364         	18.417         	0.828
MS.365         	18.38          	0.818
MS.366         	18.345         	0.753
MS.367         	18.307         	0.741
MS.368         	18.27          	0.773
MS.369         	18.235         	0.788
MS.370         	18.198         	0.802
MS.371         	18.163         	0.643
MS.372         	18.125         	0.647
MS.373         	18.09          	0.649
MS.374         	18.052         	0.679
MS.375         	18.017         	0.713
MS.376         	17.98          	0.777
MS.377         	17.945         	0.675
MS.378         	17.91          	0.58
MS.379         	17.872         	0.683
MS.380         	17.837         	0.495
MS.381         	17.802         	0.504
MS.382         	17.767         	0.614
MS.383         	17.73          	0.489
MS.384         	17.695         	0.584
MS.385         	17.66          	0.584
MS.386         	17.625         	0.56
MS.387         	17.59          	0.433
MS.388         	17.555         	0.56
MS.389         	17.52          	0.522
MS.390         	17.485         	0.508
MS.391         	17.45          	0.419
MS.392         	17.415         	0.447
MS.393         	17.38          	0.469
MS.394         	17.345         	0.397
MS.395         	17.31          	0.457
MS.396         	17.275         	0.393
MS.397         	17.243         	0.467
MS.398         	17.208         	0.377
MS.399         	17.172         	0.407
MS.400         	17.137         	0.409
MS.401         	17.105         	0.252
MS.402         	17.07          	0.427
MS.403         	17.035         	0.308
MS.404         	17.003         	0.344
MS.405         	16.967         	0.405
MS.406         	16.932         	0.282
MS.407         	16.9           	0.28
MS.408         	16.865         	0.31
MS.409         	16.833         	0.393
MS.410         	16.8           	0.262
MS.411         	16.765         	0.31
MS.412         	16.733         	0.328
MS.413         	16.698         	0.252
MS.414         	16.665         	0.228
MS.415         	16.632         	0.328
MS.416         	16.597         	0.316
MS.417         	16.565         	0.342
MS.418         	16.532         	0.228
MS.419         	16.5           	0.193
MS.420         	16.465         	0.292
MS.421         	16.432         	0.228
MS.422         	16.4           	0.258
MS.423         	16.368         	0.181
MS.424         	16.335         	0.151
MS.425         	16.302         	0.185
MS.426         	16.27          	0.216
MS.427         	16.237         	0.258
MS.428         	16.205         	0.115
MS.429         	16.172         	0.171
MS.430         	16.14          	0.191
MS.431         	16.108         	0.137
MS.432         	16.075         	0.127
MS.433         	16.042         	0.197
MS.434         	16.012         	0.139
MS.435         	15.98          	0.113
MS.436         	15.947         	0.07
MS.437         	15.915         	0.187
MS.438         	15.885         	0.137
MS.439         	15.852         	0.175
MS.440         	15.82          	0.193
MS.441         	15.79          	0.097
MS.442         	15.757         	0.175
MS.443         	15.725         	0.133
MS.444         	15.695         	0.139
MS.445         	15.662         	0.079
MS.446         	15.632         	0.137
MS.447         	15.6           	0.103
MS.448         	15.57          	0.077
MS.449         	15.537         	0.099
MS.450         	15.507         	0.085
MS.451         	15.477         	0.081
MS.452         	15.445         	0.05
MS.453         	15.415         	0.161
MS.454         	15.382         	0.066
MS.455         	15.352         	0.032
MS.456         	15.322         	0.113
MS.457         	15.292         	0.123
MS.458         	15.26          	0.052
MS.459         	15.23          	0.075
MS.460         	15.2           	0.127
MS.461         	15.17          	0.038
MS.462         	15.14          	0.018
MS.463         	15.11          	0.062
MS.464         	15.08          	0.052
MS.465         	15.05          	0.068
MS.466         	15.02          	0.062
MS.467         	14.99          	0.064
MS.468         	14.96          	0.066
MS.469         	14.93          	0.054
MS.470         	14.9           	0.07
MS.471         	14.87          	0.062
MS.472         	14.84          	0.056
MS.473         	14.81          	0.058
MS.474         	14.78          	0.026
MS.475         	14.75          	0.062
MS.476         	14.722         	0.058
MS.477         	14.693         	0.022
MS.478         	14.662         	0.058
MS.479         	14.632         	0.058
MS.480         	14.605         	0.026
MS.481         	14.575         	0.028
MS.482         	14.545         	0.024
MS.483         	14.517         	0.05
MS.484         	14.487         	0.026
MS.485         	14.46          	0.05
MS.486         	14.43          	0.018
MS.487         	14.4           	0.018
MS.488         	14.372         	0.02
MS.489         	14.342         	0.02
MS.490         	14.315         	0.02
MS.491         	14.287         	0.016
MS.492         	14.257         	0.018
MS.493         	14.23          	0.022
MS.494         	14.2           	0.018
MS.495         	14.172         	0.02
MS.496         	14.145         	0.024
MS.497         	14.115         	0.014
MS.498         	14.087         	0.012
MS.499         	14.06          	0.048
MS.500         	14.032         	0.02
MS.501         	14.002         	0.02
