File:              	C:\Qtrac\Data\Daniel M Sørensen\MScan multicentre study\Data from centres\Toronto\Processed data\MSCC01113B.QZD
Name:              	CA.TOR.NC.4.1
Protocol:          	MSCAN-R2
Date:              	13/11/20
Start time:        	10:53:23
Age:               	30
Sex:               	M
Temperature:       	32.9
S/R sites:               ADM
NC/disease:        	NC
Operator:          	LP
Comments:
M-SCAN DATA (Repeat 2/2, 11.9-7.1m)
Scanpts: 30, 40, 505, 526
Stim. (mA)     	Amp. (mV)
MS.1           	39             	10.941
MS.2           	40.5           	10.889
MS.3           	40.5           	10.921
MS.4           	40.5           	10.862
MS.5           	40.5           	10.913
MS.6           	40.5           	10.945
MS.7           	40.5           	10.762
MS.8           	40.5           	10.864
MS.9           	40.5           	10.852
MS.10          	40.5           	10.874
MS.11          	40.5           	10.858
MS.12          	40.5           	11.036
MS.13          	40.5           	10.854
MS.14          	40.5           	10.758
MS.15          	40.5           	10.792
MS.16          	40.5           	10.744
MS.17          	40.5           	10.76
MS.18          	40.5           	10.752
MS.19          	40.5           	10.683
MS.20          	40.5           	10.76
MS.21          	40.5           	10.727
MS.22          	40.5           	10.758
MS.23          	40.5           	10.721
MS.24          	40.42          	10.816
MS.25          	40.337         	10.798
MS.26          	40.257         	10.697
MS.27          	40.177         	10.802
MS.28          	40.097         	10.756
MS.29          	40.017         	10.727
MS.30          	39.938         	10.671
MS.31          	39.857         	10.711
MS.32          	39.778         	10.687
MS.33          	39.697         	10.746
MS.34          	39.618         	10.778
MS.35          	39.54          	10.814
MS.36          	39.46          	10.703
MS.37          	39.382         	10.75
MS.38          	39.302         	10.671
MS.39          	39.225         	10.683
MS.40          	39.145         	10.762
MS.41          	39.067         	10.679
MS.42          	38.99          	10.705
MS.43          	38.912         	10.721
MS.44          	38.835         	10.687
MS.45          	38.757         	10.699
MS.46          	38.68          	10.584
MS.47          	38.603         	10.617
MS.48          	38.525         	10.744
MS.49          	38.447         	10.687
MS.50          	38.37          	10.812
MS.51          	38.295         	10.435
MS.52          	38.217         	10.673
MS.53          	38.142         	10.784
MS.54          	38.065         	10.552
MS.55          	37.99          	10.562
MS.56          	37.912         	10.494
MS.57          	37.837         	10.343
MS.58          	37.763         	10.522
MS.59          	37.688         	10.373
MS.60          	37.61          	10.184
MS.61          	37.535         	10.375
MS.62          	37.46          	10.462
MS.63          	37.385         	10.292
MS.64          	37.312         	10.365
MS.65          	37.237         	10.447
MS.66          	37.162         	10.433
MS.67          	37.087         	9.847
MS.68          	37.015         	9.994
MS.69          	36.94          	10.25
MS.70          	36.868         	9.714
MS.71          	36.792         	10.264
MS.72          	36.72          	9.9
MS.73          	36.645         	10.308
MS.74          	36.572         	10.087
MS.75          	36.5           	9.698
MS.76          	36.427         	9.471
MS.77          	36.355         	9.444
MS.78          	36.282         	9.134
MS.79          	36.21          	8.651
MS.80          	36.138         	9.056
MS.81          	36.065         	8.391
MS.82          	35.993         	8.397
MS.83          	35.92          	9.112
MS.84          	35.847         	8.389
MS.85          	35.778         	8.701
MS.86          	35.705         	8.23
MS.87          	35.635         	7.932
MS.88          	35.562         	8.022
MS.89          	35.493         	7.817
MS.90          	35.42          	7.821
MS.91          	35.35          	7.483
MS.92          	35.28          	7.511
MS.93          	35.21          	7.462
MS.94          	35.138         	7.34
MS.95          	35.068         	7.064
MS.96          	34.997         	7.013
MS.97          	34.927         	6.643
MS.98          	34.857         	6.905
MS.99          	34.79          	7.219
MS.100         	34.72          	6.896
MS.101         	34.65          	6.943
MS.102         	34.58          	6.653
MS.103         	34.513         	6.216
MS.104         	34.443         	6.435
MS.105         	34.375         	6.602
MS.106         	34.305         	6.322
MS.107         	34.237         	6.038
MS.108         	34.167         	5.654
MS.109         	34.1           	6.244
MS.110         	34.032         	5.535
MS.111         	33.965         	5.601
MS.112         	33.895         	5.73
MS.113         	33.827         	5.223
MS.114         	33.76          	5.14
MS.115         	33.693         	5.209
MS.116         	33.625         	4.604
MS.117         	33.56          	5.019
MS.118         	33.493         	5.082
MS.119         	33.425         	4.913
MS.120         	33.357         	5.033
MS.121         	33.292         	4.759
MS.122         	33.225         	4.671
MS.123         	33.157         	4.324
MS.124         	33.092         	4.526
MS.125         	33.025         	4.363
MS.126         	32.96          	4.558
MS.127         	32.895         	4.181
MS.128         	32.827         	4.23
MS.129         	32.763         	4.308
MS.130         	32.697         	4.274
MS.131         	32.632         	3.996
MS.132         	32.568         	4.111
MS.133         	32.502         	4.441
MS.134         	32.438         	3.843
MS.135         	32.372         	3.859
MS.136         	32.307         	3.863
MS.137         	32.243         	3.708
MS.138         	32.177         	3.539
MS.139         	32.115         	3.521
MS.140         	32.05          	3.321
MS.141         	31.985         	3.207
MS.142         	31.922         	3.507
MS.143         	31.858         	3.487
MS.144         	31.795         	3.055
MS.145         	31.733         	2.937
MS.146         	31.667         	3.17
MS.147         	31.605         	3.188
MS.148         	31.542         	3.062
MS.149         	31.477         	3.086
MS.150         	31.415         	3.035
MS.151         	31.352         	3.245
MS.152         	31.29          	2.848
MS.153         	31.227         	2.868
MS.154         	31.165         	2.878
MS.155         	31.102         	2.695
MS.156         	31.04          	2.745
MS.157         	30.98          	2.554
MS.158         	30.917         	2.628
MS.159         	30.855         	2.385
MS.160         	30.792         	2.353
MS.161         	30.733         	2.268
MS.162         	30.67          	2.465
MS.163         	30.61          	2.314
MS.164         	30.547         	2.199
MS.165         	30.487         	2.276
MS.166         	30.425         	2.155
MS.167         	30.365         	2.214
MS.168         	30.305         	2.133
MS.169         	30.245         	2.109
MS.170         	30.182         	2.067
MS.171         	30.122         	2.085
MS.172         	30.062         	2.139
MS.173         	30.002         	2.022
MS.174         	29.942         	2.081
MS.175         	29.882         	1.946
MS.176         	29.823         	2.079
MS.177         	29.765         	1.928
MS.178         	29.705         	1.913
MS.179         	29.645         	1.944
MS.180         	29.585         	1.98
MS.181         	29.528         	1.895
MS.182         	29.467         	1.573
MS.183         	29.41          	1.797
MS.184         	29.35          	1.835
MS.185         	29.292         	1.601
MS.186         	29.233         	1.954
MS.187         	29.175         	1.555
MS.188         	29.117         	1.823
MS.189         	29.057         	1.718
MS.190         	29             	1.523
MS.191         	28.942         	1.67
MS.192         	28.885         	1.613
MS.193         	28.827         	1.692
MS.194         	28.77          	1.68
MS.195         	28.712         	1.539
MS.196         	28.655         	1.555
MS.197         	28.597         	1.579
MS.198         	28.54          	1.545
MS.199         	28.483         	1.575
MS.200         	28.425         	1.579
MS.201         	28.37          	1.541
MS.202         	28.312         	1.47
MS.203         	28.255         	1.418
MS.204         	28.2           	1.499
MS.205         	28.142         	1.49
MS.206         	28.087         	1.269
MS.207         	28.03          	1.456
MS.208         	27.975         	1.349
MS.209         	27.92          	1.45
MS.210         	27.862         	1.408
MS.211         	27.807         	1.233
MS.212         	27.752         	1.374
MS.213         	27.698         	1.265
MS.214         	27.64          	1.116
MS.215         	27.585         	1.102
MS.216         	27.53          	1.182
MS.217         	27.475         	1.063
MS.218         	27.42          	1.188
MS.219         	27.365         	1.098
MS.220         	27.312         	1.051
MS.221         	27.257         	1.09
MS.222         	27.202         	1.08
MS.223         	27.147         	1.174
MS.224         	27.092         	1.035
MS.225         	27.04          	1.072
MS.226         	26.985         	1.086
MS.227         	26.932         	0.848
MS.228         	26.877         	1.031
MS.229         	26.825         	1.015
MS.230         	26.77          	0.931
MS.231         	26.717         	1.015
MS.232         	26.662         	0.808
MS.233         	26.61          	0.963
MS.234         	26.557         	0.993
MS.235         	26.505         	0.85
MS.236         	26.45          	0.969
MS.237         	26.397         	0.84
MS.238         	26.345         	0.864
MS.239         	26.292         	0.832
MS.240         	26.24          	0.804
MS.241         	26.188         	0.798
MS.242         	26.135         	0.866
MS.243         	26.082         	0.802
MS.244         	26.032         	0.826
MS.245         	25.98          	0.608
MS.246         	25.927         	0.953
MS.247         	25.875         	0.576
MS.248         	25.825         	0.578
MS.249         	25.772         	0.771
MS.250         	25.72          	0.598
MS.251         	25.67          	0.421
MS.252         	25.618         	0.578
MS.253         	25.567         	0.786
MS.254         	25.515         	0.554
MS.255         	25.465         	0.739
MS.256         	25.415         	0.383
MS.257         	25.362         	0.363
MS.258         	25.312         	0.58
MS.259         	25.262         	0.363
MS.260         	25.212         	0.389
MS.261         	25.16          	0.367
MS.262         	25.11          	0.348
MS.263         	25.06          	0.359
MS.264         	25.01          	0.361
MS.265         	24.96          	0.367
MS.266         	24.91          	0.336
MS.267         	24.86          	0.348
MS.268         	24.812         	0.346
MS.269         	24.762         	0.363
MS.270         	24.712         	0.34
MS.271         	24.663         	0.33
MS.272         	24.612         	0.342
MS.273         	24.565         	0.336
MS.274         	24.515         	0.316
MS.275         	24.467         	0.322
MS.276         	24.417         	0.332
MS.277         	24.37          	0.371
MS.278         	24.32          	0.346
MS.279         	24.272         	0.336
MS.280         	24.222         	0.328
MS.281         	24.175         	0.338
MS.282         	24.127         	0.328
MS.283         	24.077         	0.336
MS.284         	24.03          	0.338
MS.285         	23.983         	0.33
MS.286         	23.935         	0.334
MS.287         	23.885         	0.373
MS.288         	23.837         	0.328
MS.289         	23.79          	0.375
MS.290         	23.743         	0.326
MS.291         	23.695         	0.373
MS.292         	23.647         	0.34
MS.293         	23.602         	0.344
MS.294         	23.555         	0.326
MS.295         	23.507         	0.369
MS.296         	23.46          	0.371
MS.297         	23.413         	0.336
MS.298         	23.368         	0.33
MS.299         	23.32          	0.111
MS.300         	23.272         	0.34
MS.301         	23.227         	0.361
MS.302         	23.18          	0.346
MS.303         	23.135         	0.316
MS.304         	23.087         	0.105
MS.305         	23.042         	0.314
MS.306         	22.995         	0.306
MS.307         	22.95          	0.097
MS.308         	22.905         	0.101
MS.309         	22.858         	0.083
MS.310         	22.812         	0.31
MS.311         	22.767         	0.32
MS.312         	22.722         	0.077
MS.313         	22.675         	0.095
MS.314         	22.63          	0.095
MS.315         	22.585         	0.087
MS.316         	22.54          	0.075
MS.317         	22.495         	0.085
MS.318         	22.45          	0.079
MS.319         	22.405         	0.085
MS.320         	22.36          	0.083
MS.321         	22.315         	0.101
MS.322         	22.272         	0.077
MS.323         	22.227         	0.077
MS.324         	22.182         	0.075
MS.325         	22.137         	0.083
MS.326         	22.095         	0.075
MS.327         	22.05          	0.081
MS.328         	22.005         	0.064
MS.329         	21.962         	0.083
MS.330         	21.917         	0.066
MS.331         	21.875         	0.068
MS.332         	21.83          	0.079
MS.333         	21.788         	0.068
MS.334         	21.743         	0.083
MS.335         	21.7           	0.07
MS.336         	21.657         	0.064
MS.337         	21.612         	0.066
MS.338         	21.57          	0.07
MS.339         	21.528         	0.087
MS.340         	21.485         	0.077
MS.341         	21.44          	0.083
MS.342         	21.397         	0.066
MS.343         	21.355         	0.068
MS.344         	21.312         	0.091
MS.345         	21.27          	0.068
MS.346         	21.227         	0.081
MS.347         	21.185         	0.06
MS.348         	21.142         	0.06
MS.349         	21.1           	0.075
MS.350         	21.057         	0.073
MS.351         	21.017         	0.079
MS.352         	20.975         	0.064
MS.353         	20.932         	0.058
MS.354         	20.89          	0.064
MS.355         	20.85          	0.073
MS.356         	20.807         	0.058
MS.357         	20.765         	0.052
MS.358         	20.725         	0.075
MS.359         	20.682         	0.066
MS.360         	20.642         	0.064
MS.361         	20.6           	0.077
MS.362         	20.56          	0.058
MS.363         	20.517         	0.06
MS.364         	20.477         	0.058
MS.365         	20.435         	0.054
MS.366         	20.395         	0.058
MS.367         	20.355         	0.075
MS.368         	20.315         	0.056
MS.369         	20.272         	0.058
MS.370         	20.233         	0.06
MS.371         	20.192         	0.081
MS.372         	20.153         	0.068
MS.373         	20.112         	0.054
MS.374         	20.073         	0.066
MS.375         	20.032         	0.064
MS.376         	19.993         	0.066
MS.377         	19.952         	0.054
MS.378         	19.913         	0.058
MS.379         	19.872         	0.07
MS.380         	19.833         	0.058
MS.381         	19.792         	0.054
MS.382         	19.752         	0.056
MS.383         	19.712         	0.058
MS.384         	19.675         	0.06
MS.385         	19.635         	0.062
MS.386         	19.595         	0.066
MS.387         	19.557         	0.054
MS.388         	19.517         	0.077
MS.389         	19.477         	0.058
MS.390         	19.44          	0.073
MS.391         	19.4           	0.064
MS.392         	19.362         	0.062
MS.393         	19.323         	0.077
MS.394         	19.285         	0.046
MS.395         	19.245         	0.073
MS.396         	19.208         	0.06
MS.397         	19.17          	0.05
MS.398         	19.13          	0.07
MS.399         	19.092         	0.06
MS.400         	19.055         	0.026
MS.401         	19.017         	0.062
MS.402         	18.977         	0.064
MS.403         	18.94          	0.036
MS.404         	18.903         	0.04
MS.405         	18.865         	0.04
MS.406         	18.827         	0.034
MS.407         	18.79          	0.062
MS.408         	18.753         	0.032
MS.409         	18.715         	0.04
MS.410         	18.677         	0.032
MS.411         	18.64          	0.026
MS.412         	18.602         	0.032
MS.413         	18.565         	0.032
MS.414         	18.528         	0.022
MS.415         	18.493         	0.034
MS.416         	18.455         	0.032
MS.417         	18.417         	0.032
MS.418         	18.38          	0.026
MS.419         	18.345         	0.036
MS.420         	18.307         	0.04
MS.421         	18.27          	0.034
MS.422         	18.235         	0.032
MS.423         	18.198         	0.026
MS.424         	18.163         	0.034
MS.425         	18.125         	0.032
MS.426         	18.09          	0.03
MS.427         	18.052         	0.034
MS.428         	18.017         	0.032
MS.429         	17.98          	0.038
MS.430         	17.945         	0.036
MS.431         	17.91          	0.034
MS.432         	17.872         	0.034
MS.433         	17.837         	0.032
MS.434         	17.802         	0.032
MS.435         	17.767         	0.032
MS.436         	17.73          	0.036
MS.437         	17.695         	0.032
MS.438         	17.66          	0.032
MS.439         	17.625         	0.04
MS.440         	17.59          	0.032
MS.441         	17.555         	0.036
MS.442         	17.52          	0.034
MS.443         	17.485         	0.036
MS.444         	17.45          	0.038
MS.445         	17.415         	0.034
MS.446         	17.38          	0.034
MS.447         	17.345         	0.034
MS.448         	17.31          	0.036
MS.449         	17.275         	0.036
MS.450         	17.24          	0.038
MS.451         	17.208         	0.036
MS.452         	17.172         	0.036
MS.453         	17.137         	0.034
MS.454         	17.105         	0.036
MS.455         	17.07          	0.034
MS.456         	17.035         	0.038
MS.457         	17.003         	0.036
MS.458         	16.967         	0.038
MS.459         	16.932         	0.036
MS.460         	16.9           	0.036
MS.461         	16.865         	0.038
MS.462         	16.833         	0.038
MS.463         	16.797         	0.032
MS.464         	16.765         	0.034
MS.465         	16.733         	0.022
MS.466         	16.698         	0.026
MS.467         	16.665         	0.038
MS.468         	16.632         	0.038
MS.469         	16.597         	0.02
MS.470         	16.565         	0.034
MS.471         	16.532         	0.03
MS.472         	16.5           	0.034
MS.473         	16.465         	0.018
MS.474         	16.432         	0.036
MS.475         	16.4           	0.02
MS.476         	16.368         	0.022
MS.477         	16.335         	0.02
MS.478         	16.302         	0.024
MS.479         	16.27          	0.024
MS.480         	16.237         	0.022
MS.481         	16.205         	0.024
MS.482         	16.172         	0.022
MS.483         	16.14          	0.02
MS.484         	16.108         	0.02
MS.485         	16.075         	0.024
MS.486         	16.042         	0.024
MS.487         	16.012         	0.02
MS.488         	15.98          	0.022
MS.489         	15.947         	0.022
MS.490         	15.915         	0.022
MS.491         	15.885         	0.022
MS.492         	15.852         	0.022
MS.493         	15.82          	0.022
MS.494         	15.79          	0.02
MS.495         	15.757         	0.022
MS.496         	15.725         	0.02
MS.497         	15.695         	0.022
MS.498         	15.662         	0.024
MS.499         	15.632         	0.024
