File:              	C:\Qtrac\Data\Daniel M Sørensen\MScan multicentre study\Data from centres\Toronto\Processed data\MSCC01126E.QZD
Name:              	CA.TOR.NC.6.2
Protocol:          	MSCAN-R2
Date:              	26/11/20
Start time:        	15:26:41
Age:               	42
Sex:               	F
Temperature:       	31.6
S/R sites:         	ADM
NC/disease:        	NC
Operator:          	LP
Comments:          	MFF60ON, 2nd trial OK
M-SCAN DATA (Repeat 2/2, 9.3-3.2m)
Scanpts: 21, 28, 459, 478
Stim. (mA)     	Amp. (mV)
MS.1           	24             	8.75
MS.2           	24             	8.729
MS.3           	23.952         	8.741
MS.4           	23.905         	8.741
MS.5           	23.858         	8.687
MS.6           	23.81          	8.699
MS.7           	23.76          	8.677
MS.8           	23.712         	8.739
MS.9           	23.667         	8.681
MS.10          	23.62          	8.588
MS.11          	23.573         	8.671
MS.12          	23.525         	8.576
MS.13          	23.477         	8.758
MS.14          	23.43          	8.58
MS.15          	23.385         	8.6
MS.16          	23.337         	8.683
MS.17          	23.29          	8.552
MS.18          	23.245         	8.645
MS.19          	23.198         	8.57
MS.20          	23.153         	8.546
MS.21          	23.105         	8.568
MS.22          	23.06          	8.443
MS.23          	23.012         	8.56
MS.24          	22.967         	8.554
MS.25          	22.92          	8.538
MS.26          	22.875         	8.548
MS.27          	22.83          	8.546
MS.28          	22.785         	8.459
MS.29          	22.737         	8.582
MS.30          	22.692         	8.502
MS.31          	22.647         	8.556
MS.32          	22.602         	8.518
MS.33          	22.557         	8.59
MS.34          	22.512         	8.524
MS.35          	22.467         	8.566
MS.36          	22.422         	8.472
MS.37          	22.377         	8.449
MS.38          	22.332         	8.413
MS.39          	22.288         	8.405
MS.40          	22.243         	8.429
MS.41          	22.2           	8.474
MS.42          	22.155         	8.375
MS.43          	22.11          	8.335
MS.44          	22.067         	8.401
MS.45          	22.022         	8.405
MS.46          	21.977         	8.268
MS.47          	21.935         	8.308
MS.48          	21.89          	8.399
MS.49          	21.847         	8.359
MS.50          	21.802         	8.312
MS.51          	21.76          	8.363
MS.52          	21.715         	8.302
MS.53          	21.672         	8.415
MS.54          	21.63          	8.335
MS.55          	21.585         	8.286
MS.56          	21.542         	8.266
MS.57          	21.5           	8.357
MS.58          	21.458         	8.387
MS.59          	21.415         	8.343
MS.60          	21.372         	8.286
MS.61          	21.327         	8.26
MS.62          	21.285         	8.286
MS.63          	21.243         	8.325
MS.64          	21.2           	8.258
MS.65          	21.16          	8.29
MS.66          	21.118         	8.288
MS.67          	21.075         	8.288
MS.68          	21.032         	8.292
MS.69          	20.99          	8.284
MS.70          	20.948         	8.357
MS.71          	20.907         	8.296
MS.72          	20.865         	8.327
MS.73          	20.823         	8.204
MS.74          	20.782         	8.218
MS.75          	20.74          	8.351
MS.76          	20.698         	8.325
MS.77          	20.657         	8.357
MS.78          	20.615         	8.345
MS.79          	20.575         	8.248
MS.80          	20.532         	8.323
MS.81          	20.493         	8.196
MS.82          	20.452         	8.397
MS.83          	20.41          	8.341
MS.84          	20.37          	8.204
MS.85          	20.33          	8.22
MS.86          	20.288         	8.212
MS.87          	20.247         	8.167
MS.88          	20.208         	8.129
MS.89          	20.167         	8.117
MS.90          	20.127         	8.194
MS.91          	20.087         	8.105
MS.92          	20.047         	8.135
MS.93          	20.007         	8.053
MS.94          	19.967         	7.883
MS.95          	19.927         	8.006
MS.96          	19.887         	8.063
MS.97          	19.847         	7.827
MS.98          	19.807         	7.863
MS.99          	19.767         	7.942
MS.100         	19.727         	7.775
MS.101         	19.69          	7.815
MS.102         	19.65          	7.753
MS.103         	19.61          	7.632
MS.104         	19.57          	7.67
MS.105         	19.532         	7.682
MS.106         	19.493         	7.485
MS.107         	19.455         	7.734
MS.108         	19.415         	7.406
MS.109         	19.377         	7.412
MS.110         	19.337         	7.567
MS.111         	19.3           	7.283
MS.112         	19.26          	7.348
MS.113         	19.222         	7.362
MS.114         	19.182         	7.221
MS.115         	19.145         	7.293
MS.116         	19.108         	7.34
MS.117         	19.07          	7.088
MS.118         	19.03          	7.489
MS.119         	18.993         	7.187
MS.120         	18.955         	7.223
MS.121         	18.917         	7.015
MS.122         	18.88          	7.199
MS.123         	18.842         	7.116
MS.124         	18.802         	7.052
MS.125         	18.765         	7.058
MS.126         	18.727         	7.011
MS.127         	18.69          	7.005
MS.128         	18.655         	7.078
MS.129         	18.618         	7.007
MS.130         	18.58          	7.102
MS.131         	18.542         	7.042
MS.132         	18.505         	7.12
MS.133         	18.467         	6.999
MS.134         	18.432         	6.963
MS.135         	18.395         	7.039
MS.136         	18.358         	6.882
MS.137         	18.32          	6.935
MS.138         	18.285         	6.933
MS.139         	18.247         	6.894
MS.140         	18.212         	6.862
MS.141         	18.175         	6.8
MS.142         	18.14          	6.822
MS.143         	18.102         	6.81
MS.144         	18.067         	6.723
MS.145         	18.03          	6.864
MS.146         	17.995         	6.832
MS.147         	17.958         	6.794
MS.148         	17.922         	6.792
MS.149         	17.887         	6.526
MS.150         	17.85          	6.81
MS.151         	17.815         	6.604
MS.152         	17.78          	6.608
MS.153         	17.745         	6.639
MS.154         	17.708         	6.484
MS.155         	17.672         	6.469
MS.156         	17.637         	6.49
MS.157         	17.602         	6.242
MS.158         	17.567         	6.284
MS.159         	17.532         	6.248
MS.160         	17.497         	6.131
MS.161         	17.462         	6.26
MS.162         	17.427         	6.24
MS.163         	17.392         	6.137
MS.164         	17.358         	6.125
MS.165         	17.323         	6.036
MS.166         	17.288         	6.073
MS.167         	17.255         	6.204
MS.168         	17.22          	6.107
MS.169         	17.185         	6.071
MS.170         	17.15          	6.246
MS.171         	17.118         	6.222
MS.172         	17.083         	6.125
MS.173         	17.047         	6.179
MS.174         	17.015         	6.071
MS.175         	16.98          	5.887
MS.176         	16.948         	5.857
MS.177         	16.913         	5.752
MS.178         	16.878         	5.694
MS.179         	16.845         	5.851
MS.180         	16.812         	5.946
MS.181         	16.778         	5.861
MS.182         	16.745         	5.936
MS.183         	16.71          	5.787
MS.184         	16.677         	5.92
MS.185         	16.645         	5.791
MS.186         	16.61          	5.583
MS.187         	16.577         	5.841
MS.188         	16.545         	5.664
MS.189         	16.512         	5.529
MS.190         	16.477         	5.36
MS.191         	16.445         	5.45
MS.192         	16.413         	5.541
MS.193         	16.38          	5.36
MS.194         	16.347         	5.338
MS.195         	16.315         	5.555
MS.196         	16.282         	5.434
MS.197         	16.25          	5.253
MS.198         	16.217         	5.267
MS.199         	16.185         	5.299
MS.200         	16.153         	5.366
MS.201         	16.12          	5.289
MS.202         	16.087         	5.142
MS.203         	16.055         	5.07
MS.204         	16.022         	5.1
MS.205         	15.992         	5.134
MS.206         	15.96          	5.19
MS.207         	15.927         	5.122
MS.208         	15.895         	4.951
MS.209         	15.865         	5.126
MS.210         	15.832         	5.112
MS.211         	15.8           	5.06
MS.212         	15.77          	5.144
MS.213         	15.737         	4.965
MS.214         	15.705         	4.84
MS.215         	15.675         	4.703
MS.216         	15.642         	4.717
MS.217         	15.612         	4.679
MS.218         	15.58          	4.606
MS.219         	15.55          	4.661
MS.220         	15.52          	4.578
MS.221         	15.487         	4.371
MS.222         	15.457         	4.612
MS.223         	15.425         	4.578
MS.224         	15.395         	4.381
MS.225         	15.365         	4.339
MS.226         	15.332         	3.638
MS.227         	15.302         	3.577
MS.228         	15.273         	3.791
MS.229         	15.242         	4.01
MS.230         	15.212         	4.002
MS.231         	15.18          	3.789
MS.232         	15.15          	3.577
MS.233         	15.12          	3.41
MS.234         	15.09          	3.402
MS.235         	15.06          	3.17
MS.236         	15.03          	2.842
MS.237         	15             	3.188
MS.238         	14.97          	3.241
MS.239         	14.94          	2.733
MS.240         	14.91          	2.63
MS.241         	14.88          	2.532
MS.242         	14.85          	2.765
MS.243         	14.82          	2.657
MS.244         	14.792         	2.798
MS.245         	14.762         	2.639
MS.246         	14.733         	2.51
MS.247         	14.702         	2.673
MS.248         	14.672         	2.53
MS.249         	14.645         	2.379
MS.250         	14.615         	2.417
MS.251         	14.585         	2.284
MS.252         	14.557         	2.228
MS.253         	14.527         	2.21
MS.254         	14.497         	1.96
MS.255         	14.47          	2.123
MS.256         	14.44          	1.942
MS.257         	14.412         	2.167
MS.258         	14.382         	2.091
MS.259         	14.355         	2.04
MS.260         	14.325         	2.23
MS.261         	14.297         	1.972
MS.262         	14.267         	1.807
MS.263         	14.24          	1.654
MS.264         	14.212         	1.615
MS.265         	14.182         	1.676
MS.266         	14.155         	1.627
MS.267         	14.127         	1.887
MS.268         	14.097         	1.678
MS.269         	14.07          	1.605
MS.270         	14.042         	1.555
MS.271         	14.015         	1.629
MS.272         	13.985         	1.478
MS.273         	13.957         	1.692
MS.274         	13.93          	1.45
MS.275         	13.903         	1.388
MS.276         	13.875         	1.364
MS.277         	13.847         	1.418
MS.278         	13.82          	1.329
MS.279         	13.792         	1.356
MS.280         	13.765         	1.456
MS.281         	13.737         	1.44
MS.282         	13.71          	1.347
MS.283         	13.682         	1.41
MS.284         	13.655         	1.404
MS.285         	13.627         	1.448
MS.286         	13.6           	1.15
MS.287         	13.572         	1.229
MS.288         	13.545         	1.1
MS.289         	13.517         	1.136
MS.290         	13.492         	1.126
MS.291         	13.465         	1.07
MS.292         	13.438         	1.104
MS.293         	13.41          	0.967
MS.294         	13.385         	0.933
MS.295         	13.358         	1.025
MS.296         	13.33          	0.969
MS.297         	13.305         	0.777
MS.298         	13.278         	0.842
MS.299         	13.25          	0.912
MS.300         	13.225         	0.872
MS.301         	13.197         	0.798
MS.302         	13.172         	0.655
MS.303         	13.145         	0.616
MS.304         	13.12          	0.725
MS.305         	13.092         	0.671
MS.306         	13.068         	0.769
MS.307         	13.04          	0.731
MS.308         	13.015         	0.626
MS.309         	12.987         	0.651
MS.310         	12.962         	0.612
MS.311         	12.938         	0.54
MS.312         	12.91          	0.568
MS.313         	12.885         	0.512
MS.314         	12.86          	0.562
MS.315         	12.832         	0.5
MS.316         	12.807         	0.548
MS.317         	12.782         	0.493
MS.318         	12.757         	0.391
MS.319         	12.73          	0.449
MS.320         	12.705         	0.528
MS.321         	12.68          	0.415
MS.322         	12.655         	0.483
MS.323         	12.63          	0.369
MS.324         	12.605         	0.441
MS.325         	12.58          	0.365
MS.326         	12.555         	0.377
MS.327         	12.53          	0.395
MS.328         	12.505         	0.431
MS.329         	12.48          	0.487
MS.330         	12.455         	0.391
MS.331         	12.43          	0.417
MS.332         	12.405         	0.371
MS.333         	12.38          	0.35
MS.334         	12.355         	0.371
MS.335         	12.33          	0.363
MS.336         	12.305         	0.344
MS.337         	12.28          	0.296
MS.338         	12.257         	0.381
MS.339         	12.233         	0.332
MS.340         	12.207         	0.322
MS.341         	12.182         	0.304
MS.342         	12.16          	0.344
MS.343         	12.135         	0.29
MS.344         	12.11          	0.224
MS.345         	12.085         	0.246
MS.346         	12.062         	0.246
MS.347         	12.037         	0.264
MS.348         	12.015         	0.226
MS.349         	11.99          	0.27
MS.350         	11.965         	0.222
MS.351         	11.943         	0.248
MS.352         	11.917         	0.226
MS.353         	11.895         	0.216
MS.354         	11.87          	0.211
MS.355         	11.847         	0.228
MS.356         	11.822         	0.191
MS.357         	11.8           	0.193
MS.358         	11.775         	0.177
MS.359         	11.752         	0.187
MS.360         	11.73          	0.153
MS.361         	11.705         	0.169
MS.362         	11.682         	0.185
MS.363         	11.657         	0.157
MS.364         	11.635         	0.155
MS.365         	11.613         	0.133
MS.366         	11.59          	0.133
MS.367         	11.565         	0.141
MS.368         	11.542         	0.113
MS.369         	11.52          	0.117
MS.370         	11.497         	0.109
MS.371         	11.472         	0.125
MS.372         	11.45          	0.127
MS.373         	11.427         	0.115
MS.374         	11.405         	0.147
MS.375         	11.382         	0.137
MS.376         	11.36          	0.123
MS.377         	11.337         	0.113
MS.378         	11.315         	0.131
MS.379         	11.292         	0.121
MS.380         	11.27          	0.143
MS.381         	11.247         	0.109
MS.382         	11.225         	0.147
MS.383         	11.202         	0.131
MS.384         	11.18          	0.139
MS.385         	11.157         	0.153
MS.386         	11.135         	0.137
MS.387         	11.113         	0.111
MS.388         	11.09          	0.139
MS.389         	11.068         	0.131
MS.390         	11.045         	0.137
MS.391         	11.025         	0.139
MS.392         	11.002         	0.135
MS.393         	10.98          	0.159
MS.394         	10.957         	0.129
MS.395         	10.935         	0.141
MS.396         	10.915         	0.145
MS.397         	10.892         	0.135
MS.398         	10.87          	0.147
MS.399         	10.85          	0.139
MS.400         	10.827         	0.145
MS.401         	10.805         	0.145
MS.402         	10.785         	0.125
MS.403         	10.762         	0.131
MS.404         	10.74          	0.141
MS.405         	10.72          	0.141
MS.406         	10.698         	0.141
MS.407         	10.677         	0.139
MS.408         	10.655         	0.141
MS.409         	10.635         	0.135
MS.410         	10.613         	0.145
MS.411         	10.592         	0.139
MS.412         	10.57          	0.131
MS.413         	10.55          	0.137
MS.414         	10.528         	0.145
MS.415         	10.507         	0.131
MS.416         	10.485         	0.139
MS.417         	10.465         	0.139
MS.418         	10.445         	0.137
MS.419         	10.422         	0.137
MS.420         	10.403         	0.137
MS.421         	10.382         	0.139
MS.422         	10.36          	0.127
MS.423         	10.34          	0.131
MS.424         	10.32          	0.143
MS.425         	10.3           	0.139
MS.426         	10.278         	0.125
MS.427         	10.257         	0.143
MS.428         	10.238         	0.137
MS.429         	10.217         	0.115
MS.430         	10.198         	0.115
MS.431         	10.175         	0.099
MS.432         	10.155         	0.109
MS.433         	10.135         	0.095
MS.434         	10.115         	0.085
MS.435         	10.095         	0.089
MS.436         	10.075         	0.113
MS.437         	10.055         	0.117
MS.438         	10.035         	0.119
MS.439         	10.015         	0.113
MS.440         	9.995          	0.091
MS.441         	9.975          	0.085
MS.442         	9.955          	0.087
MS.443         	9.935          	0.081
MS.444         	9.915          	0.081
MS.445         	9.895          	0.091
MS.446         	9.875          	0.081
MS.447         	9.855          	0.081
MS.448         	9.835          	0.085
MS.449         	9.818          	0.079
MS.450         	9.797          	0.079
MS.451         	9.778          	0.089
MS.452         	9.757          	0.087
MS.453         	9.738          	0.085
MS.454         	9.717          	0.083
MS.455         	9.7            	0.091
MS.456         	9.68           	0.087
MS.457         	9.66           	0.091
MS.458         	9.642          	0.083
MS.459         	9.622          	0.085
MS.460         	9.602          	0.093
MS.461         	9.582          	0.089
MS.462         	9.565          	0.091
MS.463         	9.545          	0.085
MS.464         	9.528          	0.085
MS.465         	9.507          	0.087
MS.466         	9.488          	0.087
MS.467         	9.47           	0.091
MS.468         	9.45           	0.091
MS.469         	9.432          	0.089
MS.470         	9.412          	0.091
MS.471         	9.395          	0.089
MS.472         	9.375          	0.089
MS.473         	9.358          	0.089
MS.474         	9.337          	0.089
MS.475         	9.32           	0.089
MS.476         	9.3            	0.091
MS.477         	9.283          	0.081
MS.478         	9.262          	0.087
MS.479         	9.245          	0.089
MS.480         	9.227          	0.083
MS.481         	9.207          	0.083
MS.482         	9.19           	0.083
MS.483         	9.17           	0.087
MS.484         	9.153          	0.087
MS.485         	9.135          	0.085
MS.486         	9.115          	0.089
MS.487         	9.097          	0.089
MS.488         	9.08           	0.091
MS.489         	9.062          	0.093
MS.490         	9.042          	0.089
MS.491         	9.025          	0.081
MS.492         	9.007          	0.093
MS.493         	8.99           	0.081
MS.494         	8.972          	0.081
MS.495         	8.952          	0.081
MS.496         	8.935          	0.097
MS.497         	8.917          	0.095
MS.498         	8.9            	0.093
MS.499         	8.882          	0.085
MS.500         	8.865          	0.079
