File:              	C:\Qtrac\Data\Daniel M Sørensen\MScan multicentre study\Data from centres\Toronto\Processed data\MSCC01120B.QZD
Name:              	CA.TOR.NC.4.2
Protocol:          	MSCAN-R2
Date:              	20/11/20
Start time:        	10:19:59
Age:               	30
Sex:               	M
Temperature:       	32.2
S/R sites:         	ADM
NC/disease:        	NC
Operator:          	LP
Comments:
M-SCAN DATA (5.1-1.2m)
Scanpts: 14, 20, 372, 391
Stim. (mA)     	Amp. (mV)
MS.1           	31             	10.8
MS.2           	31             	10.832
MS.3           	31             	10.55
MS.4           	31             	10.848
MS.5           	31             	10.81
MS.6           	31             	10.766
MS.7           	31             	10.814
MS.8           	31             	10.87
MS.9           	31             	10.899
MS.10          	31             	10.86
MS.11          	31             	10.846
MS.12          	31             	10.766
MS.13          	31             	10.899
MS.14          	31             	10.868
MS.15          	31             	10.828
MS.16          	31             	10.832
MS.17          	31             	10.868
MS.18          	31             	10.81
MS.19          	31             	10.822
MS.20          	31             	10.79
MS.21          	31             	10.764
MS.22          	31             	10.82
MS.23          	31             	10.874
MS.24          	30.875         	10.762
MS.25          	30.815         	10.729
MS.26          	30.752         	10.451
MS.27          	30.692         	10.48
MS.28          	30.63          	10.48
MS.29          	30.57          	10.703
MS.30          	30.507         	10.419
MS.31          	30.448         	10.727
MS.32          	30.385         	10.435
MS.33          	30.325         	10.407
MS.34          	30.265         	10.427
MS.35          	30.205         	10.397
MS.36          	30.145         	10.419
MS.37          	30.082         	10.407
MS.38          	30.022         	10.417
MS.39          	29.962         	10.385
MS.40          	29.903         	10.391
MS.41          	29.845         	10.385
MS.42          	29.785         	10.472
MS.43          	29.725         	10.292
MS.44          	29.665         	10.304
MS.45          	29.605         	10.472
MS.46          	29.547         	10.327
MS.47          	29.487         	10.151
MS.48          	29.43          	10.22
MS.49          	29.37          	10.482
MS.50          	29.312         	10.405
MS.51          	29.252         	10.264
MS.52          	29.195         	10.085
MS.53          	29.137         	10.353
MS.54          	29.077         	10.113
MS.55          	29.02          	10.206
MS.56          	28.962         	9.996
MS.57          	28.905         	10.043
MS.58          	28.847         	9.938
MS.59          	28.787         	10.022
MS.60          	28.73          	9.986
MS.61          	28.675         	9.93
MS.62          	28.618         	9.753
MS.63          	28.56          	9.839
MS.64          	28.502         	9.728
MS.65          	28.445         	9.656
MS.66          	28.387         	9.777
MS.67          	28.332         	9.684
MS.68          	28.275         	9.406
MS.69          	28.217         	9.857
MS.70          	28.162         	9.612
MS.71          	28.105         	9.322
MS.72          	28.05          	9.126
MS.73          	27.995         	9.557
MS.74          	27.938         	9.255
MS.75          	27.882         	9.269
MS.76          	27.827         	9.06
MS.77          	27.77          	8.963
MS.78          	27.715         	8.939
MS.79          	27.66          	8.893
MS.80          	27.605         	8.709
MS.81          	27.55          	8.961
MS.82          	27.495         	8.697
MS.83          	27.44          	8.464
MS.84          	27.385         	8.766
MS.85          	27.33          	8.474
MS.86          	27.275         	8.278
MS.87          	27.22          	8.592
MS.88          	27.167         	8.381
MS.89          	27.112         	8.081
MS.90          	27.057         	8.302
MS.91          	27.005         	7.851
MS.92          	26.95          	7.809
MS.93          	26.895         	7.634
MS.94          	26.842         	7.448
MS.95          	26.79          	7.624
MS.96          	26.735         	7.185
MS.97          	26.682         	7.877
MS.98          	26.627         	7.255
MS.99          	26.575         	7.265
MS.100         	26.522         	7.048
MS.101         	26.47          	6.681
MS.102         	26.417         	6.349
MS.103         	26.362         	6.957
MS.104         	26.31          	7.11
MS.105         	26.257         	6.151
MS.106         	26.205         	6.461
MS.107         	26.153         	6.234
MS.108         	26.1           	5.716
MS.109         	26.05          	5.889
MS.110         	25.997         	5.972
MS.111         	25.945         	5.569
MS.112         	25.892         	5.95
MS.113         	25.842         	5.666
MS.114         	25.79          	5.583
MS.115         	25.737         	5.372
MS.116         	25.688         	5.442
MS.117         	25.635         	5.201
MS.118         	25.585         	5.172
MS.119         	25.532         	5.265
MS.120         	25.483         	5.09
MS.121         	25.432         	5.16
MS.122         	25.38          	5.146
MS.123         	25.33          	4.671
MS.124         	25.28          	4.778
MS.125         	25.227         	4.772
MS.126         	25.177         	4.9
MS.127         	25.127         	4.786
MS.128         	25.077         	4.602
MS.129         	25.028         	4.425
MS.130         	24.977         	4.393
MS.131         	24.927         	4.465
MS.132         	24.877         	4.143
MS.133         	24.827         	3.97
MS.134         	24.778         	4.254
MS.135         	24.73          	3.704
MS.136         	24.68          	3.527
MS.137         	24.63          	3.934
MS.138         	24.58          	4.016
MS.139         	24.532         	3.722
MS.140         	24.483         	3.515
MS.141         	24.435         	3.539
MS.142         	24.385         	3.648
MS.143         	24.337         	3.295
MS.144         	24.288         	3.35
MS.145         	24.24          	3.331
MS.146         	24.19          	3.235
MS.147         	24.142         	3.035
MS.148         	24.095         	3.023
MS.149         	24.047         	2.951
MS.150         	23.997         	2.89
MS.151         	23.95          	2.977
MS.152         	23.903         	2.953
MS.153         	23.855         	2.856
MS.154         	23.807         	2.806
MS.155         	23.76          	2.693
MS.156         	23.712         	2.904
MS.157         	23.665         	2.834
MS.158         	23.618         	2.771
MS.159         	23.57          	2.759
MS.160         	23.522         	2.379
MS.161         	23.475         	2.731
MS.162         	23.43          	2.804
MS.163         	23.382         	2.828
MS.164         	23.335         	2.612
MS.165         	23.29          	2.685
MS.166         	23.243         	2.586
MS.167         	23.195         	2.29
MS.168         	23.15          	2.687
MS.169         	23.102         	2.58
MS.170         	23.057         	2.336
MS.171         	23.01          	2.29
MS.172         	22.965         	2.268
MS.173         	22.92          	2.282
MS.174         	22.872         	2.294
MS.175         	22.827         	2.298
MS.176         	22.782         	2.054
MS.177         	22.737         	2.228
MS.178         	22.692         	2.079
MS.179         	22.645         	2.179
MS.180         	22.6           	2.117
MS.181         	22.555         	2.109
MS.182         	22.51          	2.171
MS.183         	22.465         	2.04
MS.184         	22.42          	1.879
MS.185         	22.375         	2.058
MS.186         	22.33          	1.889
MS.187         	22.288         	1.863
MS.188         	22.243         	1.692
MS.189         	22.198         	1.601
MS.190         	22.153         	1.772
MS.191         	22.11          	1.76
MS.192         	22.065         	1.488
MS.193         	22.02          	1.595
MS.194         	21.977         	1.573
MS.195         	21.932         	1.595
MS.196         	21.89          	1.418
MS.197         	21.845         	1.446
MS.198         	21.802         	1.573
MS.199         	21.757         	1.333
MS.200         	21.715         	1.317
MS.201         	21.67          	1.378
MS.202         	21.627         	1.499
MS.203         	21.585         	1.382
MS.204         	21.542         	1.414
MS.205         	21.497         	1.303
MS.206         	21.455         	1.299
MS.207         	21.413         	1.146
MS.208         	21.37          	1.168
MS.209         	21.327         	1.273
MS.210         	21.285         	1.156
MS.211         	21.243         	1.206
MS.212         	21.2           	1.176
MS.213         	21.157         	1.186
MS.214         	21.115         	1.202
MS.215         	21.073         	1.273
MS.216         	21.03          	1.128
MS.217         	20.987         	1.1
MS.218         	20.948         	1.078
MS.219         	20.905         	1.18
MS.220         	20.862         	1.055
MS.221         	20.823         	1.068
MS.222         	20.78          	1.072
MS.223         	20.737         	1.011
MS.224         	20.698         	1.088
MS.225         	20.655         	1.102
MS.226         	20.615         	1.07
MS.227         	20.573         	1.023
MS.228         	20.532         	1.029
MS.229         	20.49          	0.991
MS.230         	20.45          	0.995
MS.231         	20.41          	0.983
MS.232         	20.368         	1.061
MS.233         	20.327         	1.033
MS.234         	20.288         	1.011
MS.235         	20.247         	1.074
MS.236         	20.205         	0.965
MS.237         	20.165         	0.92
MS.238         	20.125         	0.971
MS.239         	20.085         	1.007
MS.240         	20.045         	1.003
MS.241         	20.005         	1.019
MS.242         	19.965         	0.912
MS.243         	19.925         	0.981
MS.244         	19.885         	0.955
MS.245         	19.845         	0.947
MS.246         	19.805         	0.88
MS.247         	19.767         	0.918
MS.248         	19.727         	0.916
MS.249         	19.688         	0.669
MS.250         	19.647         	0.9
MS.251         	19.61          	0.961
MS.252         	19.57          	0.904
MS.253         	19.53          	0.924
MS.254         	19.493         	0.902
MS.255         	19.452         	0.665
MS.256         	19.415         	0.659
MS.257         	19.375         	0.86
MS.258         	19.337         	0.683
MS.259         	19.297         	0.622
MS.260         	19.26          	0.645
MS.261         	19.22          	0.602
MS.262         	19.182         	0.679
MS.263         	19.145         	0.89
MS.264         	19.105         	0.562
MS.265         	19.067         	0.53
MS.266         	19.03          	0.526
MS.267         	18.993         	0.596
MS.268         	18.952         	0.586
MS.269         	18.915         	0.63
MS.270         	18.877         	0.582
MS.271         	18.84          	0.532
MS.272         	18.802         	0.441
MS.273         	18.765         	0.606
MS.274         	18.727         	0.451
MS.275         	18.69          	0.423
MS.276         	18.653         	0.449
MS.277         	18.615         	0.493
MS.278         	18.577         	0.441
MS.279         	18.54          	0.433
MS.280         	18.505         	0.393
MS.281         	18.467         	0.447
MS.282         	18.43          	0.465
MS.283         	18.392         	0.407
MS.284         	18.358         	0.409
MS.285         	18.32          	0.429
MS.286         	18.282         	0.377
MS.287         	18.247         	0.435
MS.288         	18.21          	0.425
MS.289         	18.175         	0.435
MS.290         	18.137         	0.415
MS.291         	18.102         	0.425
MS.292         	18.065         	0.399
MS.293         	18.03          	0.409
MS.294         	17.993         	0.383
MS.295         	17.958         	0.224
MS.296         	17.92          	0.421
MS.297         	17.885         	0.272
MS.298         	17.85          	0.211
MS.299         	17.815         	0.236
MS.300         	17.778         	0.183
MS.301         	17.743         	0.248
MS.302         	17.708         	0.185
MS.303         	17.672         	0.195
MS.304         	17.637         	0.195
MS.305         	17.602         	0.165
MS.306         	17.567         	0.183
MS.307         	17.53          	0.181
MS.308         	17.495         	0.199
MS.309         	17.46          	0.175
MS.310         	17.427         	0.187
MS.311         	17.392         	0.145
MS.312         	17.358         	0.135
MS.313         	17.323         	0.135
MS.314         	17.288         	0.195
MS.315         	17.253         	0.145
MS.316         	17.217         	0.107
MS.317         	17.185         	0.115
MS.318         	17.15          	0.111
MS.319         	17.115         	0.165
MS.320         	17.083         	0.129
MS.321         	17.047         	0.097
MS.322         	17.012         	0.117
MS.323         	16.98          	0.091
MS.324         	16.945         	0.117
MS.325         	16.913         	0.099
MS.326         	16.878         	0.145
MS.327         	16.845         	0.091
MS.328         	16.81          	0.101
MS.329         	16.778         	0.087
MS.330         	16.743         	0.103
MS.331         	16.71          	0.093
MS.332         	16.675         	0.091
MS.333         	16.642         	0.068
MS.334         	16.61          	0.073
MS.335         	16.577         	0.052
MS.336         	16.542         	0.06
MS.337         	16.51          	0.052
MS.338         	16.477         	0.062
MS.339         	16.445         	0.054
MS.340         	16.413         	0.054
MS.341         	16.378         	0.054
MS.342         	16.345         	0.058
MS.343         	16.312         	0.046
MS.344         	16.28          	0.06
MS.345         	16.247         	0.048
MS.346         	16.215         	0.058
MS.347         	16.182         	0.046
MS.348         	16.15          	0.054
MS.349         	16.118         	0.062
MS.350         	16.087         	0.048
MS.351         	16.055         	0.048
MS.352         	16.022         	0.05
MS.353         	15.99          	0.048
MS.354         	15.957         	0.056
MS.355         	15.927         	0.05
MS.356         	15.895         	0.066
MS.357         	15.862         	0.05
MS.358         	15.83          	0.048
MS.359         	15.8           	0.05
MS.360         	15.767         	0.048
MS.361         	15.737         	0.05
MS.362         	15.705         	0.048
MS.363         	15.672         	0.048
MS.364         	15.642         	0.048
MS.365         	15.61          	0.05
MS.366         	15.58          	0.05
MS.367         	15.55          	0.048
MS.368         	15.517         	0.05
MS.369         	15.487         	0.05
MS.370         	15.455         	0.046
MS.371         	15.425         	0.05
MS.372         	15.395         	0.05
MS.373         	15.362         	0.046
MS.374         	15.332         	0.05
MS.375         	15.302         	0.05
MS.376         	15.273         	0.048
MS.377         	15.24          	0.048
MS.378         	15.21          	0.05
MS.379         	15.18          	0.048
MS.380         	15.15          	0.048
MS.381         	15.12          	0.048
MS.382         	15.09          	0.046
MS.383         	15.06          	0.048
MS.384         	15.03          	0.048
MS.385         	15             	0.032
MS.386         	14.97          	0.046
MS.387         	14.94          	0.046
MS.388         	14.91          	0.048
MS.389         	14.88          	0.03
MS.390         	14.85          	0.03
MS.391         	14.82          	0.03
MS.392         	14.79          	0.052
MS.393         	14.76          	0.048
MS.394         	14.733         	0.03
MS.395         	14.702         	0.03
MS.396         	14.672         	0.028
MS.397         	14.642         	0.03
MS.398         	14.615         	0.032
MS.399         	14.585         	0.028
MS.400         	14.555         	0.032
MS.401         	14.527         	0.03
MS.402         	14.497         	0.032
MS.403         	14.467         	0.028
MS.404         	14.44          	0.03
MS.405         	14.41          	0.03
MS.406         	14.382         	0.034
MS.407         	14.352         	0.03
MS.408         	14.325         	0.03
MS.409         	14.295         	0.032
MS.410         	14.267         	0.032
MS.411         	14.24          	0.028
MS.412         	14.21          	0.032
MS.413         	14.182         	0.032
MS.414         	14.155         	0.032
MS.415         	14.125         	0.03
MS.416         	14.097         	0.03
MS.417         	14.07          	0.03
MS.418         	14.04          	0.032
MS.419         	14.012         	0.03
MS.420         	13.985         	0.032
MS.421         	13.957         	0.03
MS.422         	13.93          	0.03
MS.423         	13.903         	0.03
MS.424         	13.872         	0.03
MS.425         	13.845         	0.032
MS.426         	13.818         	0.034
MS.427         	13.79          	0.034
DERIVED EXCITABILITY VARIABLES
Program = QTracP 3/4/2020
Threshold method = 6 (optimised for CAP, using data for present condition only)
SR method = 1 (using actual data values)
6.                 	0.000               	Peak response\(mV)
9.                 	32.2                	Temperature ( C)
17.                	30                  	Age (years)
18.                	1                   	Sex (M=1, F=2)

EXTRA VARIABLES

MScPeak(mV) = 10.79
MScS5(mA) = 18.9
MScS50(mA) = 25.71
MScS95(mA) = 29.29
MScNSteps = 0
MScSteps(%) = 0.0
MScStepMax(%) = 0.0
MScD50 = 36
MScSlope = 7.34
MSFPeakAmp(mV) = 10.8
MSFNUnits = 151
MSFMeanUnitAmp(uV) = 71.4
MSFHuntTime(m) = 2.07
MSFError(%) = 5.45
MSFNLarge = 50.84
MSFMedianAmp(%) = 0.575
MSFMedianAmp(mV) = 0.062
MSFHalfAmpAmp(%) = 0.713
MSFHalfAmpAmp(mV) = 0.0769
MSFLargestAmp(%) = 2.37
MSFLargestAmp(mV) = 0.256
MSFMeanRS(%) = 2.01
MSFOpts = 10106121
MScDuration(min) = 3.9
MSFTraces = 378
MSFSizeLimit(uV) = 27
MSFLimitType = 1
MSFSmallestAmp(uV) = 28.8

EXTRA WAVEFORMS


!MScan Model
!151
	1	16.65	0.33	2
	2	16.9	0.27	2
	3	17.35	0.54	2
	4	17.7	0.56	2
	5	17.73	0.81	2
	6	17.83	0.41	2
	7	17.91	0.54	2
	8	18.62	0.37	2
	9	18.83	0.43	2
	10	19.16	1.27	2
	11	19.41	1.05	2
	12	19.56	1.03	2
	13	19.6	0.69	2.4
	14	20.43	0.76	2
	15	20.76	0.48	2
	16	20.91	0.37	2
	17	21.08	0.38	2
	18	21.26	0.56	2
	19	21.42	0.58	2
	20	21.53	0.37	2
	21	21.63	0.49	2
	22	21.76	0.78	2
	23	21.84	0.37	2
	24	21.95	0.54	2
	25	22.01	0.4	2
	26	22.06	0.41	2
	27	22.1	0.29	2
	28	22.13	0.27	2
	29	22.17	0.3	2
	30	22.2	0.33	2
	31	22.24	0.33	2
	32	22.29	0.51	2
	33	22.35	0.5	2
	34	22.41	0.29	2
	35	22.46	0.46	2
	36	22.52	0.45	2
	37	22.61	0.71	2
	38	22.7	0.56	2
	39	22.78	0.51	2
	40	22.87	0.6	2
	41	22.96	0.56	2
	42	23.11	0.9	2
	43	23.36	1.36	2
	44	23.64	1.5	2
	45	23.71	0.51	2
	46	23.91	0.49	2
	47	23.96	0.39	2
	48	24.01	0.45	2
	49	24.04	0.28	2
	50	24.07	0.27	2
	51	24.09	0.27	2
	52	24.14	0.52	2
	53	24.19	0.69	2
	54	24.24	0.37	2
	55	24.3	0.61	2
	56	24.35	0.7	2
	57	24.4	0.67	2
	58	24.45	0.68	2
	59	24.5	0.74	2
	60	24.55	0.72	2
	61	24.6	0.62	2
	62	24.64	0.55	2
	63	24.68	0.58	2
	64	24.72	0.54	2
	65	24.76	0.67	2
	66	24.8	0.64	2
	67	24.81	0.56	2
	68	24.84	0.6	2
	69	24.88	0.63	2
	70	24.92	0.6	2
	71	24.96	0.42	2
	72	25	0.4	2
	73	25.03	0.45	2
	74	25.07	0.63	2
	75	25.11	0.62	2
	76	25.15	0.54	2
	77	25.18	0.54	2
	78	25.22	0.83	2
	79	25.26	0.53	2
	80	25.3	0.48	2
	81	25.33	0.47	2
	82	25.37	0.45	2
	83	25.41	0.47	2
	84	25.45	0.5	2
	85	25.49	0.54	2
	86	25.53	0.57	2
	87	25.57	0.52	2
	88	25.62	0.65	2
	89	25.68	0.78	2
	90	25.73	0.74	2
	91	25.79	1.08	2
	92	25.85	0.81	2
	93	25.9	0.94	2
	94	25.96	0.94	2
	95	26.02	0.92	2
	96	26.08	1.05	2
	97	26.14	1.13	2
	98	26.2	1.35	2
	99	26.26	0.75	2
	100	26.32	1.06	2
	101	26.38	1.37	2
