File:              	C:\Qtrac\Data\Daniel M Sørensen\MScan multicentre study\Data from centres\Toronto\Processed data\MSCC01203B.QZD
Name:              	CA.TOR.NC.8.1
Protocol:          	MSCAN-R2
Date:              	3/12/20
Start time:        	14:54:18
Age:               	29
Sex:               	F
Temperature:       	30.8
S/R sites:         	ADM
NC/disease:        	NC
Operator:          	LP
Comments:          	MFF60ON
M-SCAN DATA (7.2-2.8m)
Scanpts: 10, 21, 464, 485
Stim. (mA)     	Amp. (mV)
MS.1           	17             	9.61
MS.2           	17             	9.537
MS.3           	17             	9.527
MS.4           	17             	9.543
MS.5           	17             	9.557
MS.6           	17             	9.61
MS.7           	17             	9.551
MS.8           	17             	9.549
MS.9           	17             	9.531
MS.10          	17             	9.533
MS.11          	17             	9.545
MS.12          	17             	9.561
MS.13          	17             	9.628
MS.14          	17             	9.579
MS.15          	17             	9.565
MS.16          	17             	9.626
MS.17          	17             	9.549
MS.18          	17             	9.559
MS.19          	17             	9.547
MS.20          	17             	9.561
MS.21          	17             	9.557
MS.22          	17             	9.608
MS.23          	17             	9.602
MS.24          	16.932         	9.591
MS.25          	16.897         	9.503
MS.26          	16.865         	9.585
MS.27          	16.83          	9.573
MS.28          	16.797         	9.565
MS.29          	16.762         	9.571
MS.30          	16.73          	9.565
MS.31          	16.698         	9.563
MS.32          	16.663         	9.547
MS.33          	16.63          	9.571
MS.34          	16.597         	9.503
MS.35          	16.562         	9.467
MS.36          	16.53          	9.529
MS.37          	16.497         	9.477
MS.38          	16.465         	9.42
MS.39          	16.432         	9.543
MS.40          	16.4           	9.483
MS.41          	16.365         	9.525
MS.42          	16.333         	9.456
MS.43          	16.3           	9.469
MS.44          	16.267         	9.503
MS.45          	16.235         	9.458
MS.46          	16.202         	9.432
MS.47          	16.17          	9.452
MS.48          	16.137         	9.465
MS.49          	16.108         	9.352
MS.50          	16.075         	9.376
MS.51          	16.042         	9.348
MS.52          	16.01          	9.432
MS.53          	15.977         	9.434
MS.54          	15.945         	9.297
MS.55          	15.915         	9.354
MS.56          	15.882         	9.283
MS.57          	15.85          	9.239
MS.58          	15.82          	9.261
MS.59          	15.787         	9.313
MS.60          	15.755         	9.203
MS.61          	15.725         	9.322
MS.62          	15.693         	9.249
MS.63          	15.662         	9.368
MS.64          	15.63          	9.404
MS.65          	15.6           	9.152
MS.66          	15.568         	9.211
MS.67          	15.537         	9.187
MS.68          	15.505         	9.249
MS.69          	15.475         	9.205
MS.70          	15.445         	9.253
MS.71          	15.412         	9.15
MS.72          	15.382         	9.251
MS.73          	15.352         	9.126
MS.74          	15.32          	9.138
MS.75          	15.29          	9.128
MS.76          	15.26          	9.144
MS.77          	15.23          	9.09
MS.78          	15.197         	9.096
MS.79          	15.167         	9.13
MS.80          	15.137         	9.154
MS.81          	15.108         	9.08
MS.82          	15.077         	9.116
MS.83          	15.047         	9.034
MS.84          	15.017         	8.981
MS.85          	14.987         	9.096
MS.86          	14.957         	9.086
MS.87          	14.927         	8.951
MS.88          	14.898         	8.929
MS.89          	14.867         	8.955
MS.90          	14.837         	8.935
MS.91          	14.807         	9.044
MS.92          	14.78          	8.88
MS.93          	14.75          	8.977
MS.94          	14.72          	8.766
MS.95          	14.69          	8.911
MS.96          	14.662         	8.84
MS.97          	14.632         	8.973
MS.98          	14.602         	8.669
MS.99          	14.572         	8.715
MS.100         	14.545         	8.737
MS.101         	14.515         	8.985
MS.102         	14.487         	8.78
MS.103         	14.457         	8.81
MS.104         	14.427         	8.816
MS.105         	14.4           	8.675
MS.106         	14.37          	8.723
MS.107         	14.342         	8.588
MS.108         	14.312         	8.629
MS.109         	14.285         	8.619
MS.110         	14.257         	8.717
MS.111         	14.227         	8.524
MS.112         	14.2           	8.451
MS.113         	14.17          	8.633
MS.114         	14.142         	8.468
MS.115         	14.115         	8.367
MS.116         	14.087         	8.236
MS.117         	14.057         	8.437
MS.118         	14.03          	8.387
MS.119         	14.002         	8.206
MS.120         	13.975         	8.204
MS.121         	13.945         	8.119
MS.122         	13.917         	8.302
MS.123         	13.89          	8.157
MS.124         	13.862         	8.127
MS.125         	13.835         	8.055
MS.126         	13.807         	8.024
MS.127         	13.78          	7.972
MS.128         	13.752         	7.865
MS.129         	13.725         	8.051
MS.130         	13.697         	7.906
MS.131         	13.67          	7.807
MS.132         	13.642         	7.908
MS.133         	13.615         	7.742
MS.134         	13.587         	7.624
MS.135         	13.56          	7.456
MS.136         	13.535         	7.791
MS.137         	13.507         	7.67
MS.138         	13.48          	7.442
MS.139         	13.452         	7.462
MS.140         	13.425         	7.203
MS.141         	13.4           	7.404
MS.142         	13.372         	7.362
MS.143         	13.345         	7.323
MS.144         	13.32          	7.346
MS.145         	13.292         	6.955
MS.146         	13.265         	6.88
MS.147         	13.24          	6.842
MS.148         	13.212         	6.774
MS.149         	13.188         	6.808
MS.150         	13.16          	6.822
MS.151         	13.135         	6.606
MS.152         	13.108         	6.723
MS.153         	13.082         	6.653
MS.154         	13.055         	6.621
MS.155         	13.03          	6.6
MS.156         	13.002         	6.584
MS.157         	12.977         	6.548
MS.158         	12.952         	6.51
MS.159         	12.925         	6.508
MS.160         	12.9           	6.395
MS.161         	12.875         	6.427
MS.162         	12.847         	6.365
MS.163         	12.822         	6.278
MS.164         	12.797         	6.276
MS.165         	12.773         	6.326
MS.166         	12.745         	6.169
MS.167         	12.72          	6.308
MS.168         	12.695         	6.028
MS.169         	12.67          	6.105
MS.170         	12.645         	6.22
MS.171         	12.62          	6.236
MS.172         	12.595         	5.827
MS.173         	12.568         	5.666
MS.174         	12.542         	5.857
MS.175         	12.517         	5.765
MS.176         	12.492         	5.611
MS.177         	12.467         	5.525
MS.178         	12.443         	5.497
MS.179         	12.42          	5.521
MS.180         	12.395         	5.75
MS.181         	12.37          	5.73
MS.182         	12.345         	5.497
MS.183         	12.32          	5.533
MS.184         	12.295         	5.4
MS.185         	12.27          	5.452
MS.186         	12.245         	5.374
MS.187         	12.222         	5.193
MS.188         	12.197         	5.344
MS.189         	12.172         	5.432
MS.190         	12.148         	5.483
MS.191         	12.125         	5.293
MS.192         	12.1           	5.358
MS.193         	12.075         	5.209
MS.194         	12.052         	5.36
MS.195         	12.028         	5.211
MS.196         	12.002         	5.195
MS.197         	11.98          	5.062
MS.198         	11.955         	5.09
MS.199         	11.932         	5.108
MS.200         	11.907         	5.064
MS.201         	11.885         	4.971
MS.202         	11.86          	5.058
MS.203         	11.837         	4.701
MS.204         	11.812         	4.921
MS.205         	11.79          	4.941
MS.206         	11.765         	4.763
MS.207         	11.742         	4.822
MS.208         	11.72          	4.844
MS.209         	11.695         	4.786
MS.210         	11.672         	4.637
MS.211         	11.65          	4.612
MS.212         	11.625         	4.326
MS.213         	11.602         	4.596
MS.214         	11.58          	4.494
MS.215         	11.555         	4.486
MS.216         	11.532         	4.351
MS.217         	11.51          	4.326
MS.218         	11.488         	4.298
MS.219         	11.465         	4.228
MS.220         	11.44          	4.216
MS.221         	11.417         	4.129
MS.222         	11.395         	3.948
MS.223         	11.372         	4.127
MS.224         	11.35          	4.077
MS.225         	11.327         	4.028
MS.226         	11.305         	3.909
MS.227         	11.282         	3.807
MS.228         	11.26          	3.742
MS.229         	11.238         	3.744
MS.230         	11.215         	3.652
MS.231         	11.193         	3.686
MS.232         	11.17          	3.446
MS.233         	11.148         	3.619
MS.234         	11.125         	3.448
MS.235         	11.102         	3.277
MS.236         	11.08          	3.462
MS.237         	11.057         	3.623
MS.238         	11.037         	3.194
MS.239         	11.015         	3.307
MS.240         	10.992         	3.44
MS.241         	10.97          	3.072
MS.242         	10.948         	2.953
MS.243         	10.927         	3.192
MS.244         	10.905         	2.923
MS.245         	10.882         	2.945
MS.246         	10.863         	2.9
MS.247         	10.84          	2.995
MS.248         	10.818         	3.062
MS.249         	10.797         	3.037
MS.250         	10.775         	2.792
MS.251         	10.752         	2.548
MS.252         	10.733         	2.546
MS.253         	10.71          	2.669
MS.254         	10.69          	2.516
MS.255         	10.667         	2.578
MS.256         	10.648         	2.367
MS.257         	10.625         	2.399
MS.258         	10.605         	2.133
MS.259         	10.582         	2.332
MS.260         	10.562         	2.568
MS.261         	10.54          	2.089
MS.262         	10.52          	2.286
MS.263         	10.497         	2.175
MS.264         	10.477         	2.141
MS.265         	10.457         	2.075
MS.266         	10.435         	1.982
MS.267         	10.415         	1.93
MS.268         	10.395         	2.149
MS.269         	10.372         	1.805
MS.270         	10.352         	1.65
MS.271         	10.332         	1.756
MS.272         	10.31          	1.71
MS.273         	10.29          	1.68
MS.274         	10.27          	1.795
MS.275         	10.25          	1.746
MS.276         	10.23          	1.436
MS.277         	10.207         	1.656
MS.278         	10.188         	1.414
MS.279         	10.167         	1.414
MS.280         	10.148         	1.327
MS.281         	10.127         	1.456
MS.282         	10.108         	1.335
MS.283         	10.087         	1.36
MS.284         	10.068         	1.225
MS.285         	10.047         	1.134
MS.286         	10.028         	1.084
MS.287         	10.005         	1.068
MS.288         	9.988          	1.134
MS.289         	9.967          	1.144
MS.290         	9.948          	1.045
MS.291         	9.927          	1.045
MS.292         	9.907          	1.007
MS.293         	9.887          	0.961
MS.294         	9.867          	0.975
MS.295         	9.847          	0.967
MS.296         	9.827          	0.872
MS.297         	9.807          	0.824
MS.298         	9.787          	0.834
MS.299         	9.77           	0.856
MS.300         	9.75           	0.761
MS.301         	9.73           	0.717
MS.302         	9.71           	0.717
MS.303         	9.69           	0.832
MS.304         	9.672          	0.773
MS.305         	9.653          	0.788
MS.306         	9.632          	0.677
MS.307         	9.615          	0.641
MS.308         	9.595          	0.614
MS.309         	9.575          	0.63
MS.310         	9.557          	0.576
MS.311         	9.537          	0.755
MS.312         	9.517          	0.578
MS.313         	9.5            	0.626
MS.314         	9.48           	0.643
MS.315         	9.462          	0.57
MS.316         	9.443          	0.651
MS.317         	9.422          	0.538
MS.318         	9.405          	0.558
MS.319         	9.385          	0.596
MS.320         	9.367          	0.552
MS.321         	9.347          	0.518
MS.322         	9.33           	0.493
MS.323         	9.31           	0.518
MS.324         	9.292          	0.487
MS.325         	9.275          	0.614
MS.326         	9.255          	0.475
MS.327         	9.238          	0.459
MS.328         	9.217          	0.453
MS.329         	9.2            	0.334
MS.330         	9.182          	0.318
MS.331         	9.162          	0.381
MS.332         	9.145          	0.34
MS.333         	9.127          	0.391
MS.334         	9.108          	0.375
MS.335         	9.09           	0.348
MS.336         	9.073          	0.296
MS.337         	9.055          	0.304
MS.338         	9.035          	0.296
MS.339         	9.017          	0.258
MS.340         	9              	0.266
MS.341         	8.983          	0.119
MS.342         	8.965          	0.24
MS.343         	8.945          	0.133
MS.344         	8.927          	0.193
MS.345         	8.91           	0.195
MS.346         	8.892          	0.264
MS.347         	8.875          	0.276
MS.348         	8.858          	0.232
MS.349         	8.84           	0.214
MS.350         	8.823          	0.151
MS.351         	8.805          	0.149
MS.352         	8.787          	0.075
MS.353         	8.77           	0.054
MS.354         	8.752          	0.163
MS.355         	8.735          	0.131
MS.356         	8.717          	0.113
MS.357         	8.7            	0.143
MS.358         	8.682          	0.131
MS.359         	8.665          	0.077
MS.360         	8.648          	0.085
MS.361         	8.63           	0.103
MS.362         	8.613          	0.054
MS.363         	8.595          	0.087
MS.364         	8.577          	0.075
MS.365         	8.56           	0.054
MS.366         	8.545          	0.068
MS.367         	8.528          	0.068
MS.368         	8.51           	0.042
MS.369         	8.492          	0.044
MS.370         	8.475          	0.081
MS.371         	8.46           	0.038
MS.372         	8.443          	0.04
MS.373         	8.425          	0.044
MS.374         	8.408          	0.05
MS.375         	8.392          	0.036
MS.376         	8.375          	0.04
MS.377         	8.358          	0.052
MS.378         	8.34           	0.046
MS.379         	8.325          	0.042
MS.380         	8.307          	0.034
MS.381         	8.292          	0.05
MS.382         	8.275          	0.06
MS.383         	8.257          	0.034
MS.384         	8.242          	0.042
MS.385         	8.225          	0.048
MS.386         	8.21           	0.042
MS.387         	8.193          	0.03
MS.388         	8.175          	0.038
MS.389         	8.16           	0.024
MS.390         	8.142          	0.04
MS.391         	8.127          	0.026
MS.392         	8.11           	0.038
MS.393         	8.095          	0.028
MS.394         	8.077          	0.04
MS.395         	8.062          	0.034
MS.396         	8.047          	0.04
MS.397         	8.03           	0.03
MS.398         	8.015          	0.038
MS.399         	7.997          	0.032
MS.400         	7.982          	0.038
MS.401         	7.965          	0.04
MS.402         	7.95           	0.04
MS.403         	7.935          	0.04
MS.404         	7.918          	0.052
MS.405         	7.902          	0.034
MS.406         	7.887          	0.048
MS.407         	7.87           	0.024
MS.408         	7.855          	0.028
MS.409         	7.84           	0.022
MS.410         	7.825          	0.02
MS.411         	7.807          	0.032
MS.412         	7.793          	0.036
MS.413         	7.777          	0.042
MS.414         	7.762          	0.032
MS.415         	7.747          	0.04
MS.416         	7.73           	0.03
MS.417         	7.715          	0.04
MS.418         	7.7            	0.032
MS.419         	7.685          	0.02
MS.420         	7.67           	0.028
MS.421         	7.655          	0.024
MS.422         	7.637          	0.04
MS.423         	7.622          	0.026
MS.424         	7.607          	0.026
MS.425         	7.592          	0.024
MS.426         	7.577          	0.022
MS.427         	7.562          	0.022
MS.428         	7.547          	0.026
MS.429         	7.532          	0.016
MS.430         	7.517          	0.02
MS.431         	7.503          	0.02
MS.432         	7.487          	0.02
MS.433         	7.472          	0.014
MS.434         	7.457          	0.028
MS.435         	7.442          	0.032
MS.436         	7.427          	0.024
MS.437         	7.412          	0.018
MS.438         	7.398          	0.034
MS.439         	7.382          	0.032
MS.440         	7.367          	0.026
MS.441         	7.352          	0.018
MS.442         	7.34           	0.028
MS.443         	7.325          	0.036
MS.444         	7.31           	0.028
MS.445         	7.295          	0.022
MS.446         	7.28           	0.02
MS.447         	7.265          	0.018
MS.448         	7.253          	0.028
MS.449         	7.237          	0.02
MS.450         	7.222          	0.022
MS.451         	7.207          	0.014
MS.452         	7.192          	0.028
MS.453         	7.18           	0.026
MS.454         	7.165          	0.02
MS.455         	7.15           	0.022
MS.456         	7.137          	0.018
MS.457         	7.122          	0.02
MS.458         	7.108          	0.018
MS.459         	7.092          	0.014
MS.460         	7.08           	0.016
MS.461         	7.065          	0.012
MS.462         	7.052          	0.024
MS.463         	7.037          	0.026
MS.464         	7.023          	0.026
MS.465         	7.01           	0.028
MS.466         	6.995          	0.028
MS.467         	6.98           	0.026
MS.468         	6.967          	0.028
MS.469         	6.952          	0.016
MS.470         	6.94           	0.02
MS.471         	6.925          	0.018
MS.472         	6.912          	0.028
MS.473         	6.898          	0.024
MS.474         	6.885          	0.018
MS.475         	6.87           	0.024
MS.476         	6.858          	0.026
MS.477         	6.842          	0.018
MS.478         	6.83           	0.016
MS.479         	6.815          	0.024
MS.480         	6.802          	0.026
MS.481         	6.787          	0.024
MS.482         	6.775          	0.02
MS.483         	6.762          	0.022
MS.484         	6.747          	0.016
MS.485         	6.735          	0.016
DERIVED EXCITABILITY VARIABLES
Program = QTracP 3/4/2020
Threshold method = 6 (optimised for CAP, using data for present condition only)
SR method = 1 (using actual data values)
6.                 	0.000               	Peak response\(mV)
9.                 	30.8                	Temperature ( C)
17.                	29                  	Age (years)
18.                	2                   	Sex (M=1, F=2)

EXTRA VARIABLES

MScPeak(mV) = 9.54
MScS5(mA) = 9.26
MScS50(mA) = 11.78
MScS95(mA) = 15
MScNSteps = 2
MScSteps(%) = 4.6
MScStepMax(%) = 2.6
MScD50 = 52
MScSlope = 4.36
MSFPeakAmp(mV) = 9.55
MSFNUnits = 195
