File:              	C:\Qtrac\Data\Daniel M Sørensen\MScan multicentre study\Data from centres\Oulu\Processed data\OUHC01106B.QZD
Name:              	FL.OUL.NC.2.2
Protocol:          	MSCAN-R2
Date:              	6/11/20
Start time:        	08:47:44
Age:               	63
Sex:               	F
Temperature:       	34,1
S/R sites:         	ADM
NC/disease:        	NC
Operator:          	MK
Comments:
M-SCAN DATA (2.3-0.0m)
Scanpts: 30, 38, 474, 496
Stim. (mA)     	Amp. (mV)
MS.1           	20.5           	7.865
MS.2           	20.46          	7.869
MS.3           	20.417         	7.857
MS.4           	20.377         	7.914
MS.5           	20.337         	7.887
MS.6           	20.295         	7.902
MS.7           	20.255         	7.889
MS.8           	20.215         	7.918
MS.9           	20.175         	7.926
MS.10          	20.135         	7.91
MS.11          	20.095         	7.924
MS.12          	20.055         	7.916
MS.13          	20.015         	7.93
MS.14          	19.975         	7.95
MS.15          	19.935         	7.964
MS.16          	19.895         	7.95
MS.17          	19.855         	7.934
MS.18          	19.815         	7.946
MS.19          	19.775         	7.9
MS.20          	19.735         	7.946
MS.21          	19.695         	8.006
MS.22          	19.657         	7.958
MS.23          	19.618         	7.964
MS.24          	19.577         	7.972
MS.25          	19.54          	8.006
MS.26          	19.5           	8.063
MS.27          	19.46          	8.055
MS.28          	19.422         	8.014
MS.29          	19.382         	8.018
MS.30          	19.345         	8.028
MS.31          	19.305         	8.041
MS.32          	19.267         	7.978
MS.33          	19.23          	7.976
MS.34          	19.19          	8.045
MS.35          	19.153         	7.956
MS.36          	19.115         	7.97
MS.37          	19.075         	7.968
MS.38          	19.038         	8.016
MS.39          	19             	8.016
MS.40          	18.962         	8.014
MS.41          	18.925         	7.988
MS.42          	18.885         	7.964
MS.43          	18.847         	7.974
MS.44          	18.81          	8.034
MS.45          	18.772         	8.014
MS.46          	18.735         	8.043
MS.47          	18.698         	8.006
MS.48          	18.66          	8.034
MS.49          	18.622         	7.998
MS.50          	18.587         	8.055
MS.51          	18.55          	8.055
MS.52          	18.512         	8.057
MS.53          	18.475         	7.859
MS.54          	18.438         	8.081
MS.55          	18.403         	7.891
MS.56          	18.365         	7.922
MS.57          	18.327         	7.827
MS.58          	18.292         	7.889
MS.59          	18.255         	7.877
MS.60          	18.217         	7.843
MS.61          	18.182         	7.813
MS.62          	18.145         	7.893
MS.63          	18.11          	7.889
MS.64          	18.073         	7.835
MS.65          	18.038         	7.829
MS.66          	18             	7.857
MS.67          	17.965         	7.803
MS.68          	17.93          	7.75
MS.69          	17.892         	7.787
MS.70          	17.858         	7.829
MS.71          	17.823         	7.803
MS.72          	17.785         	7.843
MS.73          	17.75          	7.773
MS.74          	17.715         	7.779
MS.75          	17.68          	7.811
MS.76          	17.645         	7.787
MS.77          	17.61          	7.825
MS.78          	17.575         	7.75
MS.79          	17.54          	7.769
MS.80          	17.505         	7.668
MS.81          	17.47          	7.839
MS.82          	17.435         	7.773
MS.83          	17.4           	7.732
MS.84          	17.365         	7.696
MS.85          	17.33          	7.779
MS.86          	17.295         	7.765
MS.87          	17.26          	7.632
MS.88          	17.225         	7.456
MS.89          	17.192         	7.722
MS.90          	17.157         	7.587
MS.91          	17.122         	7.652
MS.92          	17.09          	7.618
MS.93          	17.055         	7.561
MS.94          	17.02          	7.549
MS.95          	16.987         	7.535
MS.96          	16.952         	7.382
MS.97          	16.92          	7.354
MS.98          	16.885         	7.412
MS.99          	16.85          	7.358
MS.100         	16.817         	7.261
MS.101         	16.785         	7.356
MS.102         	16.75          	7.281
MS.103         	16.717         	7.372
MS.104         	16.682         	7.354
MS.105         	16.65          	7.301
MS.106         	16.618         	7.233
MS.107         	16.585         	6.965
MS.108         	16.55          	7.166
MS.109         	16.517         	7.05
MS.110         	16.485         	6.929
MS.111         	16.452         	7.122
MS.112         	16.42          	7.084
MS.113         	16.385         	6.933
MS.114         	16.352         	6.76
MS.115         	16.32          	6.862
MS.116         	16.288         	6.639
MS.117         	16.255         	6.923
MS.118         	16.222         	6.81
MS.119         	16.19          	7.046
MS.120         	16.157         	6.776
MS.121         	16.125         	6.751
MS.122         	16.092         	6.808
MS.123         	16.062         	6.496
MS.124         	16.03          	6.675
MS.125         	15.997         	6.562
MS.126         	15.965         	6.554
MS.127         	15.932         	6.649
MS.128         	15.902         	6.536
MS.129         	15.87          	6.643
MS.130         	15.837         	6.393
MS.131         	15.807         	6.248
MS.132         	15.775         	6.067
MS.133         	15.742         	6.328
MS.134         	15.712         	6.486
MS.135         	15.68          	6.331
MS.136         	15.65          	6.401
MS.137         	15.617         	6.322
MS.138         	15.587         	6.133
MS.139         	15.555         	5.883
MS.140         	15.525         	6.202
MS.141         	15.492         	6.137
MS.142         	15.462         	6.061
MS.143         	15.432         	6.107
MS.144         	15.4           	6.014
MS.145         	15.37          	5.966
MS.146         	15.34          	5.914
MS.147         	15.31          	6.111
MS.148         	15.277         	5.97
MS.149         	15.247         	5.871
MS.150         	15.217         	5.924
MS.151         	15.188         	5.746
MS.152         	15.157         	5.887
MS.153         	15.125         	5.624
MS.154         	15.095         	5.817
MS.155         	15.065         	6.002
MS.156         	15.035         	5.785
MS.157         	15.005         	5.837
MS.158         	14.975         	5.68
MS.159         	14.945         	5.436
MS.160         	14.915         	5.678
MS.161         	14.885         	5.563
MS.162         	14.858         	5.62
MS.163         	14.827         	5.686
MS.164         	14.797         	5.374
MS.165         	14.767         	5.096
MS.166         	14.737         	5.188
MS.167         	14.707         	5.35
MS.168         	14.68          	5.293
MS.169         	14.65          	5.313
MS.170         	14.62          	5.317
MS.171         	14.592         	5.197
MS.172         	14.562         	5.301
MS.173         	14.532         	4.888
MS.174         	14.505         	4.973
MS.175         	14.475         	5.041
MS.176         	14.445         	4.921
MS.177         	14.417         	4.999
MS.178         	14.387         	4.969
MS.179         	14.36          	4.959
MS.180         	14.33          	5.199
MS.181         	14.302         	5.086
MS.182         	14.275         	5.197
MS.183         	14.245         	5.086
MS.184         	14.217         	4.856
MS.185         	14.188         	4.87
MS.186         	14.16          	4.864
MS.187         	14.132         	4.876
MS.188         	14.102         	4.838
MS.189         	14.075         	4.848
MS.190         	14.047         	4.949
MS.191         	14.02          	4.88
MS.192         	13.99          	4.778
MS.193         	13.962         	4.832
MS.194         	13.935         	4.88
MS.195         	13.907         	4.874
MS.196         	13.88          	4.87
MS.197         	13.852         	4.846
MS.198         	13.825         	4.699
MS.199         	13.797         	4.8
MS.200         	13.77          	4.832
MS.201         	13.742         	4.782
MS.202         	13.715         	4.864
MS.203         	13.688         	4.854
MS.204         	13.66          	4.798
MS.205         	13.632         	4.703
MS.206         	13.605         	4.814
MS.207         	13.577         	4.798
MS.208         	13.55          	4.673
MS.209         	13.523         	4.59
MS.210         	13.497         	4.534
MS.211         	13.47          	4.538
MS.212         	13.443         	4.701
MS.213         	13.415         	4.564
MS.214         	13.39          	4.542
MS.215         	13.362         	4.542
MS.216         	13.335         	4.572
MS.217         	13.31          	4.671
MS.218         	13.282         	4.707
MS.219         	13.255         	4.55
MS.220         	13.23          	4.659
MS.221         	13.202         	4.655
MS.222         	13.177         	4.429
MS.223         	13.15          	4.365
MS.224         	13.125         	4.5
MS.225         	13.097         	4.542
MS.226         	13.072         	4.473
MS.227         	13.045         	4.381
MS.228         	13.02          	4.254
MS.229         	12.992         	4.25
MS.230         	12.967         	4.218
MS.231         	12.943         	4.306
MS.232         	12.915         	4.395
MS.233         	12.89          	4.242
MS.234         	12.865         	4.238
MS.235         	12.837         	4.242
MS.236         	12.812         	4.165
MS.237         	12.787         	4.204
MS.238         	12.762         	4.01
MS.239         	12.735         	4.081
MS.240         	12.71          	4.127
MS.241         	12.685         	4.105
MS.242         	12.66          	4.071
MS.243         	12.635         	4.191
MS.244         	12.61          	4.141
MS.245         	12.585         	4.077
MS.246         	12.56          	4.125
MS.247         	12.532         	4.077
MS.248         	12.507         	3.992
MS.249         	12.483         	4.022
MS.250         	12.46          	4.006
MS.251         	12.435         	4.089
MS.252         	12.41          	3.911
MS.253         	12.385         	3.793
MS.254         	12.36          	3.857
MS.255         	12.335         	3.928
MS.256         	12.31          	3.948
MS.257         	12.285         	4.038
MS.258         	12.26          	3.805
MS.259         	12.238         	3.736
MS.260         	12.212         	3.793
MS.261         	12.188         	3.793
MS.262         	12.162         	3.708
MS.263         	12.14          	3.742
MS.264         	12.115         	3.658
MS.265         	12.09          	3.68
MS.266         	12.068         	3.636
MS.267         	12.042         	3.619
MS.268         	12.017         	3.636
MS.269         	11.995         	3.531
MS.270         	11.97          	3.611
MS.271         	11.947         	3.72
MS.272         	11.922         	3.523
MS.273         	11.898         	3.738
MS.274         	11.875         	3.335
MS.275         	11.85          	3.422
MS.276         	11.827         	3.527
MS.277         	11.805         	3.424
MS.278         	11.78          	3.581
MS.279         	11.757         	3.424
MS.280         	11.733         	3.374
MS.281         	11.71          	3.368
MS.282         	11.688         	3.319
MS.283         	11.662         	3.275
MS.284         	11.64          	3.48
MS.285         	11.617         	3.241
MS.286         	11.592         	3.303
MS.287         	11.57          	3.237
MS.288         	11.547         	3.062
MS.289         	11.525         	3.062
MS.290         	11.5           	3.164
MS.291         	11.477         	3.172
MS.292         	11.455         	3.259
MS.293         	11.432         	3.194
MS.294         	11.41          	3.1
MS.295         	11.387         	3.198
MS.296         	11.363         	2.959
MS.297         	11.34          	3.027
MS.298         	11.318         	2.78
MS.299         	11.295         	3.015
MS.300         	11.273         	2.862
MS.301         	11.25          	2.874
MS.302         	11.227         	2.965
MS.303         	11.205         	2.747
MS.304         	11.182         	2.723
MS.305         	11.16          	2.703
MS.306         	11.137         	2.719
MS.307         	11.117         	2.699
MS.308         	11.095         	2.713
MS.309         	11.073         	2.687
MS.310         	11.05          	2.767
MS.311         	11.028         	2.679
MS.312         	11.005         	2.683
MS.313         	10.985         	2.651
MS.314         	10.962         	2.745
MS.315         	10.94          	2.753
MS.316         	10.917         	2.794
MS.317         	10.898         	2.804
MS.318         	10.875         	2.647
MS.319         	10.852         	2.56
MS.320         	10.83          	2.713
MS.321         	10.81          	2.691
MS.322         	10.787         	2.427
MS.323         	10.767         	2.502
MS.324         	10.745         	2.5
MS.325         	10.722         	2.649
MS.326         	10.702         	2.695
MS.327         	10.68          	2.594
MS.328         	10.66          	2.512
MS.329         	10.637         	2.415
MS.330         	10.617         	2.52
MS.331         	10.595         	2.038
MS.332         	10.575         	1.64
MS.333         	10.552         	2.342
MS.334         	10.532         	1.883
MS.335         	10.51          	2.165
MS.336         	10.49          	1.885
MS.337         	10.47          	1.712
MS.338         	10.448         	1.575
MS.339         	10.427         	1.287
MS.340         	10.407         	1.329
MS.341         	10.385         	1.559
MS.342         	10.365         	1.277
MS.343         	10.345         	1.408
MS.344         	10.323         	1.19
MS.345         	10.302         	1.178
MS.346         	10.282         	1.333
MS.347         	10.262         	1.186
MS.348         	10.242         	1.194
MS.349         	10.22          	1.148
MS.350         	10.2           	1.164
MS.351         	10.18          	1.19
MS.352         	10.16          	1.114
MS.353         	10.14          	0.854
MS.354         	10.12          	1.033
MS.355         	10.1           	1.043
MS.356         	10.077         	1.019
MS.357         	10.057         	1.09
MS.358         	10.037         	0.945
MS.359         	10.017         	1.001
MS.360         	9.997          	0.661
MS.361         	9.977          	0.612
MS.362         	9.957          	0.947
MS.363         	9.938          	0.63
MS.364         	9.917          	0.838
MS.365         	9.9            	0.892
MS.366         	9.88           	0.528
MS.367         	9.86           	0.798
MS.368         	9.84           	0.554
MS.369         	9.82           	0.502
MS.370         	9.8            	0.536
MS.371         	9.78           	0.55
MS.372         	9.762          	0.5
MS.373         	9.742          	0.5
MS.374         	9.722          	0.504
MS.375         	9.702          	0.433
MS.376         	9.682          	0.471
MS.377         	9.665          	0.387
MS.378         	9.645          	0.457
MS.379         	9.625          	0.322
MS.380         	9.608          	0.357
MS.381         	9.587          	0.433
MS.382         	9.568          	0.387
MS.383         	9.55           	0.248
MS.384         	9.53           	0.379
MS.385         	9.51           	0.357
MS.386         	9.492          	0.286
MS.387         	9.472          	0.29
MS.388         	9.455          	0.242
MS.389         	9.435          	0.306
MS.390         	9.415          	0.23
MS.391         	9.398          	0.149
MS.392         	9.377          	0.193
MS.393         	9.36           	0.28
MS.394         	9.34           	0.264
MS.395         	9.323          	0.209
MS.396         	9.305          	0.211
MS.397         	9.285          	0.214
MS.398         	9.267          	0.207
MS.399         	9.247          	0.109
MS.400         	9.23           	0.099
MS.401         	9.21           	0.111
MS.402         	9.193          	0.111
MS.403         	9.175          	0.115
MS.404         	9.155          	0.099
MS.405         	9.137          	0.101
MS.406         	9.12           	0.113
MS.407         	9.102          	0.103
MS.408         	9.082          	0.107
MS.409         	9.065          	0.185
MS.410         	9.047          	0.111
MS.411         	9.03           	0.113
MS.412         	9.01           	0.107
MS.413         	8.992          	0.101
MS.414         	8.975          	0.119
MS.415         	8.957          	0.107
MS.416         	8.94           	0.113
MS.417         	8.92           	0.105
MS.418         	8.903          	0.111
MS.419         	8.885          	0.083
MS.420         	8.867          	0.099
MS.421         	8.85           	0.097
MS.422         	8.832          	0.091
MS.423         	8.815          	0.091
MS.424         	8.797          	0.113
MS.425         	8.78           	0.101
MS.426         	8.762          	0.101
MS.427         	8.745          	0.087
MS.428         	8.727          	0.093
MS.429         	8.71           	0.058
MS.430         	8.693          	0.101
MS.431         	8.675          	0.087
MS.432         	8.658          	0.089
MS.433         	8.64           	0.026
MS.434         	8.622          	0.018
MS.435         	8.605          	0.046
MS.436         	8.587          	0.05
MS.437         	8.573          	0.022
MS.438         	8.555          	0.024
MS.439         	8.537          	0.022
MS.440         	8.52           	0.028
MS.441         	8.502          	0.028
MS.442         	8.485          	0.091
MS.443         	8.47           	0.024
MS.444         	8.452          	0.026
MS.445         	8.435          	0.03
MS.446         	8.417          	0.024
MS.447         	8.403          	0.026
MS.448         	8.385          	0.022
MS.449         	8.367          	0.024
MS.450         	8.352          	0.018
MS.451         	8.335          	0.026
MS.452         	8.318          	0.028
MS.453         	8.302          	0.026
MS.454         	8.285          	0.026
MS.455         	8.267          	0.022
MS.456         	8.252          	0.026
MS.457         	8.235          	0.022
MS.458         	8.22           	0.022
MS.459         	8.202          	0.026
MS.460         	8.185          	0.022
MS.461         	8.17           	0.028
MS.462         	8.153          	0.028
MS.463         	8.137          	0.028
MS.464         	8.12           	0.026
MS.465         	8.105          	0.024
MS.466         	8.087          	0.026
MS.467         	8.073          	0.022
MS.468         	8.055          	0.024
MS.469         	8.04           	0.022
MS.470         	8.025          	0.024
MS.471         	8.007          	0.028
MS.472         	7.992          	0.026
MS.473         	7.975          	0.03
MS.474         	7.96           	0.028
MS.475         	7.945          	0.03
MS.476         	7.927          	0.03
MS.477         	7.912          	0.03
MS.478         	7.898          	0.024
MS.479         	7.88           	0.03
MS.480         	7.865          	0.024
MS.481         	7.85           	0.028
MS.482         	7.832          	0.028
MS.483         	7.817          	0.026
MS.484         	7.802          	0.03
MS.485         	7.787          	0.03
MS.486         	7.77           	0.028
MS.487         	7.755          	0.028
MS.488         	7.74           	0.022
MS.489         	7.725          	0.028
MS.490         	7.71           	0.026
MS.491         	7.695          	0.026
MS.492         	7.677          	0.028
MS.493         	7.662          	0.028
MS.494         	7.648          	0.026
MS.495         	7.632          	0.028
MS.496         	7.617          	0.03
MS.497         	7.602          	0.028
MS.498         	7.587          	0.026
MS.499         	7.572          	0.026
MS.500         	7.557          	0.028
MS.501         	7.543          	0.026
