File:              	C:\Qtrac\Data\Daniel M Sørensen\MScan multicentre study\Data from centres\Oulu\Processed data\OUHC01030E.QZD
Name:              	FL.OUL.NC.3.1
Protocol:          	MSCAN-R2
Date:              	30/10/20
Start time:        	12:27:39
Age:               	78
Sex:               	M
Temperature:       	33,5
S/R sites:         	ADM
NC/disease:        	NC
Operator:          	MK
Comments:
M-SCAN DATA (7.3-2m)
Scanpts: 2, 9, 470, 481
Stim. (mA)     	Amp. (mV)
MS.1           	21             	9.179
MS.2           	21             	9.122
MS.3           	20.915         	9.126
MS.4           	20.875         	9.185
MS.5           	20.833         	9.144
MS.6           	20.79          	9.112
MS.7           	20.75          	9.084
MS.8           	20.708         	9.001
MS.9           	20.667         	9.08
MS.10          	20.625         	9.14
MS.11          	20.585         	9.066
MS.12          	20.542         	9.114
MS.13          	20.502         	9.098
MS.14          	20.46          	9.128
MS.15          	20.42          	9.114
MS.16          	20.38          	9.16
MS.17          	20.337         	9.048
MS.18          	20.297         	9.12
MS.19          	20.257         	9.06
MS.20          	20.217         	9.144
MS.21          	20.177         	9.076
MS.22          	20.135         	9.098
MS.23          	20.095         	9.062
MS.24          	20.055         	9.1
MS.25          	20.015         	8.719
MS.26          	19.975         	9.062
MS.27          	19.935         	9.094
MS.28          	19.895         	9.031
MS.29          	19.855         	9.058
MS.30          	19.817         	9.076
MS.31          	19.778         	8.882
MS.32          	19.737         	8.786
MS.33          	19.698         	9.064
MS.34          	19.657         	9.108
MS.35          	19.62          	8.814
MS.36          	19.58          	9.156
MS.37          	19.54          	9.011
MS.38          	19.502         	9.183
MS.39          	19.462         	9.108
MS.40          	19.425         	9.015
MS.41          	19.385         	9.019
MS.42          	19.347         	9.154
MS.43          	19.307         	9.036
MS.44          	19.27          	8.788
MS.45          	19.23          	8.739
MS.46          	19.192         	9.104
MS.47          	19.155         	9.084
MS.48          	19.115         	9.044
MS.49          	19.077         	9.046
MS.50          	19.04          	8.951
MS.51          	19.002         	8.762
MS.52          	18.962         	9.146
MS.53          	18.925         	8.778
MS.54          	18.887         	8.776
MS.55          	18.85          	9.118
MS.56          	18.812         	9.082
MS.57          	18.775         	9.106
MS.58          	18.737         	9.015
MS.59          	18.7           	8.804
MS.60          	18.663         	8.735
MS.61          	18.625         	8.794
MS.62          	18.587         	8.727
MS.63          	18.55          	8.782
MS.64          	18.515         	8.703
MS.65          	18.477         	8.705
MS.66          	18.44          	8.796
MS.67          	18.403         	8.691
MS.68          	18.368         	9.098
MS.69          	18.33          	8.77
MS.70          	18.292         	8.715
MS.71          	18.257         	8.772
MS.72          	18.22          	8.756
MS.73          	18.182         	9.044
MS.74          	18.147         	8.758
MS.75          	18.11          	9.029
MS.76          	18.075         	8.574
MS.77          	18.038         	8.77
MS.78          	18.003         	8.745
MS.79          	17.967         	8.778
MS.80          	17.93          	8.788
MS.81          	17.895         	8.768
MS.82          	17.86          	8.592
MS.83          	17.823         	9.07
MS.84          	17.788         	8.727
MS.85          	17.753         	8.987
MS.86          	17.717         	8.687
MS.87          	17.682         	8.729
MS.88          	17.645         	8.719
MS.89          	17.61          	8.866
MS.90          	17.575         	8.719
MS.91          	17.54          	8.862
MS.92          	17.505         	8.741
MS.93          	17.47          	8.909
MS.94          	17.435         	8.524
MS.95          	17.4           	8.707
MS.96          	17.365         	8.665
MS.97          	17.333         	8.812
MS.98          	17.297         	8.685
MS.99          	17.262         	8.607
MS.100         	17.227         	8.641
MS.101         	17.192         	8.663
MS.102         	17.16          	8.721
MS.103         	17.125         	8.55
MS.104         	17.09          	8.713
MS.105         	17.057         	8.687
MS.106         	17.022         	8.856
MS.107         	16.987         	8.721
MS.108         	16.955         	9.034
MS.109         	16.92          	8.697
MS.110         	16.887         	8.695
MS.111         	16.852         	8.504
MS.112         	16.82          	8.548
MS.113         	16.785         	8.496
MS.114         	16.753         	8.524
MS.115         	16.717         	8.532
MS.116         	16.685         	8.623
MS.117         	16.653         	8.528
MS.118         	16.618         	8.486
MS.119         	16.585         	8.526
MS.120         	16.552         	8.598
MS.121         	16.52          	8.5
MS.122         	16.485         	8.586
MS.123         	16.452         	8.518
MS.124         	16.42          	8.655
MS.125         	16.387         	8.51
MS.126         	16.355         	8.566
MS.127         	16.323         	8.508
MS.128         	16.29          	8.524
MS.129         	16.257         	8.468
MS.130         	16.225         	8.55
MS.131         	16.192         	8.478
MS.132         	16.16          	8.335
MS.133         	16.128         	8.5
MS.134         	16.095         	8.512
MS.135         	16.062         	8.419
MS.136         	16.03          	8.461
MS.137         	16             	8.466
MS.138         	15.967         	8.572
MS.139         	15.935         	8.417
MS.140         	15.902         	8.447
MS.141         	15.872         	8.613
MS.142         	15.84          	8.53
MS.143         	15.807         	8.439
MS.144         	15.777         	8.472
MS.145         	15.745         	8.48
MS.146         	15.712         	8.532
MS.147         	15.682         	8.403
MS.148         	15.65          	8.47
MS.149         	15.62          	8.308
MS.150         	15.587         	8.345
MS.151         	15.557         	8.353
MS.152         	15.525         	8.286
MS.153         	15.495         	8.333
MS.154         	15.465         	8.423
MS.155         	15.432         	8.353
MS.156         	15.402         	8.413
MS.157         	15.372         	8.333
MS.158         	15.34          	8.204
MS.159         	15.31          	8.29
MS.160         	15.28          	8.19
MS.161         	15.25          	8.153
MS.162         	15.217         	8.341
MS.163         	15.188         	8.004
MS.164         	15.157         	8.286
MS.165         	15.127         	8.095
MS.166         	15.097         	8.155
MS.167         	15.068         	8.014
MS.168         	15.037         	7.916
MS.169         	15.007         	8.034
MS.170         	14.977         	7.843
MS.171         	14.947         	7.833
MS.172         	14.917         	7.736
MS.173         	14.887         	8.194
MS.174         	14.858         	7.811
MS.175         	14.827         	7.904
MS.176         	14.797         	7.726
MS.177         	14.77          	7.019
MS.178         	14.74          	7.708
MS.179         	14.71          	7.642
MS.180         	14.68          	7.638
MS.181         	14.65          	7.704
MS.182         	14.622         	7.573
MS.183         	14.592         	7.68
MS.184         	14.562         	7.716
MS.185         	14.535         	7.75
MS.186         	14.505         	7.483
MS.187         	14.477         	7.448
MS.188         	14.447         	7.549
MS.189         	14.417         	7.493
MS.190         	14.39          	7.456
MS.191         	14.36          	7.523
MS.192         	14.332         	7.499
MS.193         	14.302         	7.344
MS.194         	14.275         	7.289
MS.195         	14.247         	7.265
MS.196         	14.217         	7.082
MS.197         	14.19          	7.336
MS.198         	14.162         	7.346
MS.199         	14.132         	7.199
MS.200         	14.105         	7.356
MS.201         	14.077         	7.207
MS.202         	14.047         	6.248
MS.203         	14.02          	7.033
MS.204         	13.992         	6.145
MS.205         	13.965         	7.189
MS.206         	13.938         	6.31
MS.207         	13.91          	6.999
MS.208         	13.88          	6.274
MS.209         	13.852         	6.089
MS.210         	13.825         	6.774
MS.211         	13.797         	6.153
MS.212         	13.77          	6
MS.213         	13.742         	6.23
MS.214         	13.715         	5.801
MS.215         	13.688         	5.952
MS.216         	13.66          	6.016
MS.217         	13.632         	6.812
MS.218         	13.605         	5.765
MS.219         	13.58          	6.534
MS.220         	13.552         	5.895
MS.221         	13.525         	5.756
MS.222         	13.497         	5.722
MS.223         	13.47          	5.738
MS.224         	13.445         	5.789
MS.225         	13.417         	5.829
MS.226         	13.39          	5.805
MS.227         	13.362         	6.047
MS.228         	13.337         	5.698
MS.229         	13.31          	5.777
MS.230         	13.282         	4.55
MS.231         	13.257         	5.217
MS.232         	13.23          	4.661
MS.233         	13.205         	5.422
MS.234         	13.177         	5.162
MS.235         	13.153         	5.108
MS.236         	13.125         	5.573
MS.237         	13.1           	5.549
MS.238         	13.072         	5.609
MS.239         	13.047         	5.136
MS.240         	13.02          	4.365
MS.241         	12.995         	4.276
MS.242         	12.967         	4.105
MS.243         	12.943         	4.824
MS.244         	12.917         	4.109
MS.245         	12.89          	5.468
MS.246         	12.865         	4.707
MS.247         	12.84          	4.693
MS.248         	12.812         	4.077
MS.249         	12.787         	4.02
MS.250         	12.762         	3.746
MS.251         	12.738         	3.581
MS.252         	12.712         	3.835
MS.253         	12.685         	3.881
MS.254         	12.66          	3.537
MS.255         	12.635         	4.157
MS.256         	12.61          	3.489
MS.257         	12.585         	3.706
MS.258         	12.56          	3.589
MS.259         	12.535         	3.374
MS.260         	12.51          	3.198
MS.261         	12.485         	3.327
MS.262         	12.46          	3.362
MS.263         	12.435         	3.484
MS.264         	12.41          	3.337
MS.265         	12.385         	3.209
MS.266         	12.36          	3.104
MS.267         	12.335         	2.818
MS.268         	12.312         	2.763
MS.269         	12.287         	2.838
MS.270         	12.262         	2.709
MS.271         	12.238         	2.997
MS.272         	12.212         	2.633
MS.273         	12.19          	2.9
MS.274         	12.165         	2.755
MS.275         	12.14          	2.451
MS.276         	12.115         	2.56
MS.277         	12.092         	2.264
MS.278         	12.068         	2.776
MS.279         	12.042         	1.978
MS.280         	12.02          	2.574
MS.281         	11.995         	2.459
MS.282         	11.972         	2.171
MS.283         	11.947         	2.177
MS.284         	11.922         	2.183
MS.285         	11.9           	1.69
MS.286         	11.875         	2.028
MS.287         	11.852         	1.702
MS.288         	11.827         	1.867
MS.289         	11.805         	1.754
MS.290         	11.782         	1.787
MS.291         	11.757         	1.982
MS.292         	11.735         	1.897
MS.293         	11.71          	1.744
MS.294         	11.688         	1.631
MS.295         	11.665         	1.648
MS.296         	11.64          	1.547
MS.297         	11.617         	1.476
MS.298         	11.595         	1.505
MS.299         	11.57          	1.575
MS.300         	11.547         	1.523
MS.301         	11.525         	1.436
MS.302         	11.502         	1.654
MS.303         	11.48          	1.208
MS.304         	11.455         	1.088
MS.305         	11.432         	1.253
MS.306         	11.41          	1.221
MS.307         	11.387         	1.44
MS.308         	11.365         	1.557
MS.309         	11.342         	1.265
MS.310         	11.32          	1.287
MS.311         	11.297         	1.194
MS.312         	11.275         	1.188
MS.313         	11.252         	1.049
MS.314         	11.23          	1.112
MS.315         	11.207         	0.975
MS.316         	11.185         	1.154
MS.317         	11.162         	1.142
MS.318         	11.14          	1.223
MS.319         	11.117         	0.806
MS.320         	11.095         	1.14
MS.321         	11.073         	1.138
MS.322         	11.05          	0.844
MS.323         	11.03          	0.781
MS.324         	11.007         	1.003
MS.325         	10.985         	0.731
MS.326         	10.962         	0.828
MS.327         	10.94          	0.804
MS.328         	10.92          	1.102
MS.329         	10.898         	0.816
MS.330         	10.875         	0.973
MS.331         	10.855         	0.854
MS.332         	10.832         	0.872
MS.333         	10.81          	0.572
MS.334         	10.79          	0.669
MS.335         	10.767         	0.614
MS.336         	10.745         	0.777
MS.337         	10.725         	0.544
MS.338         	10.702         	0.723
MS.339         	10.682         	0.711
MS.340         	10.66          	0.943
MS.341         	10.64          	0.326
MS.342         	10.617         	0.352
MS.343         	10.597         	0.407
MS.344         	10.575         	0.578
MS.345         	10.555         	0.312
MS.346         	10.532         	0.576
MS.347         	10.512         	0.359
MS.348         	10.49          	0.548
MS.349         	10.47          	0.324
MS.350         	10.45          	0.594
MS.351         	10.427         	0.316
MS.352         	10.407         	0.544
MS.353         	10.387         	0.244
MS.354         	10.365         	0.278
MS.355         	10.345         	0.33
MS.356         	10.325         	0.149
MS.357         	10.305         	0.342
MS.358         	10.282         	0.203
MS.359         	10.262         	0.314
MS.360         	10.242         	0.203
MS.361         	10.222         	0.165
MS.362         	10.202         	0.187
MS.363         	10.18          	0.193
MS.364         	10.16          	0.318
MS.365         	10.14          	0.147
MS.366         	10.12          	0.105
MS.367         	10.1           	0.173
MS.368         	10.08          	0.135
MS.369         	10.06          	0.149
MS.370         	10.04          	0.27
MS.371         	10.02          	0.173
MS.372         	10             	0.153
MS.373         	9.98           	0.105
MS.374         	9.96           	0.157
MS.375         	9.94           	0.107
MS.376         	9.92           	0.147
MS.377         	9.9            	0.129
MS.378         	9.88           	0.099
MS.379         	9.86           	0.147
MS.380         	9.84           	0.103
MS.381         	9.82           	0.085
MS.382         	9.802          	0.091
MS.383         	9.782          	0.075
MS.384         	9.762          	0.099
MS.385         	9.742          	0.073
MS.386         	9.722          	0.091
MS.387         	9.705          	0.089
MS.388         	9.685          	0.077
MS.389         	9.665          	0.083
MS.390         	9.645          	0.095
MS.391         	9.627          	0.068
MS.392         	9.608          	0.064
MS.393         	9.587          	0.091
MS.394         	9.57           	0.083
MS.395         	9.55           	0.075
MS.396         	9.53           	0.068
MS.397         	9.512          	0.07
MS.398         	9.492          	0.083
MS.399         	9.472          	0.107
MS.400         	9.455          	0.077
MS.401         	9.435          	0.113
MS.402         	9.417          	0.101
MS.403         	9.398          	0.085
MS.404         	9.38           	0.066
MS.405         	9.36           	0.085
MS.406         	9.342          	0.087
MS.407         	9.323          	0.091
MS.408         	9.305          	0.058
MS.409         	9.285          	0.101
MS.410         	9.267          	0.097
MS.411         	9.25           	0.046
MS.412         	9.23           	0.091
MS.413         	9.212          	0.062
MS.414         	9.193          	0.123
MS.415         	9.175          	0.044
MS.416         	9.158          	0.062
MS.417         	9.137          	0.091
MS.418         	9.12           	0.07
MS.419         	9.102          	0.093
MS.420         	9.085          	0.105
MS.421         	9.065          	0.075
MS.422         	9.047          	0.064
MS.423         	9.03           	0.068
MS.424         	9.012          	0.07
MS.425         	8.992          	0.083
MS.426         	8.975          	0.068
MS.427         	8.957          	0.109
MS.428         	8.94           	0.103
MS.429         	8.922          	0.075
MS.430         	8.905          	0.073
MS.431         	8.887          	0.066
MS.432         	8.867          	0.064
MS.433         	8.85           	0.046
MS.434         	8.832          	0.046
MS.435         	8.815          	0.046
MS.436         	8.797          	0.099
MS.437         	8.78           	0.042
MS.438         	8.762          	0.075
MS.439         	8.745          	0.083
MS.440         	8.727          	0.083
MS.441         	8.71           	0.04
MS.442         	8.693          	0.04
MS.443         	8.675          	0.046
MS.444         	8.658          	0.04
MS.445         	8.64           	0.042
MS.446         	8.622          	0.081
MS.447         	8.608          	0.081
MS.448         	8.59           	0.044
MS.449         	8.573          	0.044
MS.450         	8.555          	0.044
MS.451         	8.537          	0.04
MS.452         	8.52           	0.04
MS.453         	8.505          	0.038
MS.454         	8.488          	0.048
MS.455         	8.47           	0.04
MS.456         	8.452          	0.046
MS.457         	8.435          	0.044
MS.458         	8.42           	0.042
MS.459         	8.403          	0.042
MS.460         	8.385          	0.042
MS.461         	8.37           	0.048
MS.462         	8.352          	0.042
MS.463         	8.335          	0.044
MS.464         	8.32           	0.046
MS.465         	8.302          	0.042
MS.466         	8.285          	0.042
MS.467         	8.27           	0.046
MS.468         	8.252          	0.048
MS.469         	8.235          	0.046
MS.470         	8.22           	0.048
MS.471         	8.202          	0.04
MS.472         	8.188          	0.042
MS.473         	8.17           	0.042
MS.474         	8.155          	0.042
MS.475         	8.137          	0.04
MS.476         	8.122          	0.044
MS.477         	8.105          	0.042
MS.478         	8.09           	0.048
MS.479         	8.073          	0.042
MS.480         	8.057          	0.042
MS.481         	8.04           	0.05
MS.482         	8.025          	0.04
MS.483         	8.007          	0.04
MS.484         	7.992          	0.046
MS.485         	7.977          	0.044
MS.486         	7.96           	0.042
MS.487         	7.945          	0.048
MS.488         	7.93           	0.042
MS.489         	7.912          	0.044
MS.490         	7.898          	0.044
MS.491         	7.882          	0.04
MS.492         	7.865          	0.042
MS.493         	7.85           	0.04
MS.494         	7.835          	0.042
MS.495         	7.817          	0.04
MS.496         	7.802          	0.04
MS.497         	7.787          	0.038
MS.498         	7.773          	0.038
MS.499         	7.757          	0.038
MS.500         	7.74           	0.04
MS.501         	7.725          	0.044
