File:              	C:\Qtrac\Data\Daniel M Sørensen\MScan multicentre study\Data from centres\Oulu\Processed data\OUHC01101B.QZD
Name:              	FL.OUL.NC.1.2
Protocol:          	MSCAN-R2
Date:              	1/11/20
Start time:        	16:10:43
Age:               	21
Sex:               	M
Temperature:       	34,6
S/R sites:         	ADM
NC/disease:        	NC
Operator:          	MK
Comments:
M-SCAN DATA (6.8-1.5m)
Scanpts: 10, 15, 483, 499
Stim. (mA)     	Amp. (mV)
MS.1           	22.5           	8.802
MS.2           	22.5           	8.701
MS.3           	22.5           	8.687
MS.4           	22.5           	8.733
MS.5           	22.5           	8.784
MS.6           	22.5           	8.721
MS.7           	22.5           	8.681
MS.8           	22.5           	8.663
MS.9           	22.5           	8.725
MS.10          	22.5           	8.828
MS.11          	22.5           	8.784
MS.12          	22.5           	8.677
MS.13          	22.5           	8.806
MS.14          	22.5           	8.671
MS.15          	22.5           	8.715
MS.16          	22.5           	8.705
MS.17          	22.5           	8.705
MS.18          	22.5           	8.629
MS.19          	22.5           	8.647
MS.20          	22.5           	8.733
MS.21          	22.5           	8.651
MS.22          	22.5           	8.824
MS.23          	22.455         	8.729
MS.24          	22.41          	8.621
MS.25          	22.365         	8.637
MS.26          	22.32          	8.679
MS.27          	22.275         	8.663
MS.28          	22.233         	8.762
MS.29          	22.188         	8.679
MS.30          	22.142         	8.619
MS.31          	22.097         	8.772
MS.32          	22.055         	8.647
MS.33          	22.01          	8.695
MS.34          	21.967         	8.377
MS.35          	21.922         	8.625
MS.36          	21.877         	8.588
MS.37          	21.835         	8.582
MS.38          	21.792         	8.397
MS.39          	21.747         	8.441
MS.40          	21.705         	8.449
MS.41          	21.66          	8.464
MS.42          	21.618         	8.445
MS.43          	21.575         	8.474
MS.44          	21.532         	8.407
MS.45          	21.487         	8.443
MS.46          	21.445         	8.427
MS.47          	21.403         	8.494
MS.48          	21.36          	8.49
MS.49          	21.317         	8.417
MS.50          	21.275         	8.506
MS.51          	21.233         	8.379
MS.52          	21.19          	8.528
MS.53          	21.147         	8.397
MS.54          	21.105         	8.498
MS.55          	21.062         	8.419
MS.56          	21.02          	8.405
MS.57          	20.98          	8.409
MS.58          	20.938         	8.439
MS.59          	20.895         	8.498
MS.60          	20.852         	8.421
MS.61          	20.812         	8.433
MS.62          	20.77          	8.498
MS.63          	20.727         	8.514
MS.64          	20.688         	8.48
MS.65          	20.645         	8.572
MS.66          	20.605         	8.55
MS.67          	20.562         	8.568
MS.68          	20.522         	8.546
MS.69          	20.483         	8.484
MS.70          	20.44          	8.637
MS.71          	20.4           	8.556
MS.72          	20.36          	8.566
MS.73          	20.317         	8.538
MS.74          	20.278         	8.558
MS.75          	20.237         	8.488
MS.76          	20.198         	8.488
MS.77          	20.157         	8.56
MS.78          	20.115         	8.447
MS.79          	20.075         	8.361
MS.80          	20.035         	8.538
MS.81          	19.995         	8.403
MS.82          	19.955         	8.568
MS.83          	19.915         	8.429
MS.84          	19.875         	8.582
MS.85          	19.837         	8.562
MS.86          	19.797         	8.468
MS.87          	19.757         	8.401
MS.88          	19.717         	8.457
MS.89          	19.677         	8.443
MS.90          	19.64          	8.248
MS.91          	19.6           	8.691
MS.92          	19.56          	7.775
MS.93          	19.522         	8.24
MS.94          	19.483         	8.222
MS.95          	19.442         	7.994
MS.96          	19.405         	7.684
MS.97          	19.365         	8.381
MS.98          	19.327         	8.117
MS.99          	19.288         	8.036
MS.100         	19.25          	7.227
MS.101         	19.212         	8.101
MS.102         	19.172         	7.881
MS.103         	19.135         	7.65
MS.104         	19.097         	7.287
MS.105         	19.057         	7.887
MS.106         	19.02          	7.517
MS.107         	18.983         	7.489
MS.108         	18.945         	7.247
MS.109         	18.907         	7.388
MS.110         	18.87          	6.959
MS.111         	18.83          	7.056
MS.112         	18.792         	7.585
MS.113         	18.755         	7.211
MS.114         	18.717         	7.577
MS.115         	18.68          	6.927
MS.116         	18.645         	7.007
MS.117         	18.608         	6.959
MS.118         	18.57          	6.643
MS.119         	18.532         	6.911
MS.120         	18.495         	6.919
MS.121         	18.458         	6.592
MS.122         	18.422         	7.225
MS.123         	18.385         	6.82
MS.124         	18.347         	6.945
MS.125         	18.312         	6.739
MS.126         	18.275         	6.677
MS.127         	18.237         	6.482
MS.128         	18.202         	6.804
MS.129         	18.165         	6.532
MS.130         	18.13          	6.929
MS.131         	18.092         	6.911
MS.132         	18.057         	6.29
MS.133         	18.02          	6.88
MS.134         	17.985         	6.173
MS.135         	17.948         	6.552
MS.136         	17.913         	6.544
MS.137         	17.878         	6.226
MS.138         	17.842         	6.486
MS.139         	17.805         	6.073
MS.140         	17.77          	6.244
MS.141         	17.735         	6.296
MS.142         	17.7           	6.274
MS.143         	17.665         	6.159
MS.144         	17.628         	6.167
MS.145         	17.592         	6.232
MS.146         	17.557         	6.061
MS.147         	17.522         	6.222
MS.148         	17.487         	6.153
MS.149         	17.452         	6.059
MS.150         	17.417         	6
MS.151         	17.382         	6.143
MS.152         	17.347         	6.127
MS.153         	17.315         	6.139
MS.154         	17.28          	6.085
MS.155         	17.245         	5.998
MS.156         	17.21          	5.966
MS.157         	17.175         	6.093
MS.158         	17.142         	5.906
MS.159         	17.108         	5.891
MS.160         	17.073         	5.906
MS.161         	17.04          	5.962
MS.162         	17.005         	5.811
MS.163         	16.97          	5.847
MS.164         	16.938         	5.841
MS.165         	16.903         	5.865
MS.166         	16.87          	5.718
MS.167         	16.835         	5.668
MS.168         	16.802         	5.883
MS.169         	16.767         	5.674
MS.170         	16.735         	5.71
MS.171         	16.702         	5.722
MS.172         	16.667         	5.692
MS.173         	16.635         	5.771
MS.174         	16.602         	5.599
MS.175         	16.567         	5.72
MS.176         	16.535         	5.708
MS.177         	16.503         	5.648
MS.178         	16.47          	5.543
MS.179         	16.438         	5.555
MS.180         	16.405         	5.609
MS.181         	16.37          	5.37
MS.182         	16.337         	5.468
MS.183         	16.305         	5.434
MS.184         	16.272         	5.4
MS.185         	16.24          	5.434
MS.186         	16.208         	5.344
MS.187         	16.175         	5.338
MS.188         	16.142         	5.358
MS.189         	16.11          	5.362
MS.190         	16.08          	5.317
MS.191         	16.047         	5.283
MS.192         	16.015         	5.225
MS.193         	15.983         	5.253
MS.194         	15.95          	5.243
MS.195         	15.92          	5.068
MS.196         	15.887         	5.255
MS.197         	15.855         	4.969
MS.198         	15.825         	5.287
MS.199         	15.792         	5.072
MS.200         	15.76          	5.142
MS.201         	15.73          	4.947
MS.202         	15.697         	4.925
MS.203         	15.667         	4.993
MS.204         	15.635         	5.035
MS.205         	15.605         	4.854
MS.206         	15.572         	4.931
MS.207         	15.542         	4.862
MS.208         	15.51          	4.971
MS.209         	15.48          	4.852
MS.210         	15.447         	4.969
MS.211         	15.417         	4.627
MS.212         	15.387         	4.689
MS.213         	15.355         	4.556
MS.214         	15.325         	4.79
MS.215         	15.295         	4.665
MS.216         	15.265         	4.906
MS.217         	15.235         	4.502
MS.218         	15.202         	4.518
MS.219         	15.172         	4.763
MS.220         	15.142         	4.457
MS.221         	15.112         	4.592
MS.222         	15.082         	4.701
MS.223         	15.052         	4.405
MS.224         	15.023         	4.383
MS.225         	14.992         	4.276
MS.226         	14.962         	4.387
MS.227         	14.932         	4.459
MS.228         	14.902         	4.302
MS.229         	14.872         	4.407
MS.230         	14.842         	4.159
MS.231         	14.812         	4.218
MS.232         	14.782         	3.948
MS.233         	14.755         	4.008
MS.234         	14.725         	4.171
MS.235         	14.695         	3.956
MS.236         	14.665         	4.141
MS.237         	14.637         	3.839
MS.238         	14.608         	4.141
MS.239         	14.577         	3.76
MS.240         	14.55          	3.797
MS.241         	14.52          	3.758
MS.242         	14.49          	3.831
MS.243         	14.462         	3.748
MS.244         	14.432         	3.71
MS.245         	14.405         	3.74
MS.246         	14.375         	3.962
MS.247         	14.347         	3.768
MS.248         	14.318         	3.676
MS.249         	14.29          	3.841
MS.250         	14.26          	3.65
MS.251         	14.233         	3.805
MS.252         	14.205         	3.702
MS.253         	14.175         	3.734
MS.254         	14.148         	3.724
MS.255         	14.12          	3.684
MS.256         	14.09          	3.64
MS.257         	14.062         	3.674
MS.258         	14.035         	3.656
MS.259         	14.007         	3.378
MS.260         	13.977         	3.593
MS.261         	13.95          	3.609
MS.262         	13.922         	3.619
MS.263         	13.895         	3.444
MS.264         	13.867         	3.607
MS.265         	13.84          	3.454
MS.266         	13.812         	3.601
MS.267         	13.785         	3.319
MS.268         	13.757         	3.444
MS.269         	13.73          	3.523
MS.270         	13.702         	3.63
MS.271         	13.675         	3.509
MS.272         	13.648         	3.416
MS.273         	13.62          	3.434
MS.274         	13.592         	3.438
MS.275         	13.565         	3.509
MS.276         	13.537         	3.422
MS.277         	13.51          	3.364
MS.278         	13.485         	3.446
MS.279         	13.457         	3.178
MS.280         	13.43          	3.317
MS.281         	13.403         	3.013
MS.282         	13.377         	3.045
MS.283         	13.35          	3.009
MS.284         	13.322         	3.049
MS.285         	13.297         	3.001
MS.286         	13.27          	2.9
MS.287         	13.242         	3.011
MS.288         	13.217         	2.995
MS.289         	13.19          	2.989
MS.290         	13.165         	2.904
MS.291         	13.137         	2.921
MS.292         	13.112         	2.914
MS.293         	13.085         	2.788
MS.294         	13.06          	2.888
MS.295         	13.032         	2.866
MS.296         	13.007         	2.898
MS.297         	12.983         	2.836
MS.298         	12.955         	2.818
MS.299         	12.93          	2.6
MS.300         	12.903         	2.769
MS.301         	12.877         	2.61
MS.302         	12.852         	2.604
MS.303         	12.827         	2.719
MS.304         	12.8           	2.461
MS.305         	12.775         	2.699
MS.306         	12.75          	2.675
MS.307         	12.725         	2.655
MS.308         	12.7           	2.667
MS.309         	12.672         	2.58
MS.310         	12.648         	2.282
MS.311         	12.622         	2.564
MS.312         	12.597         	2.506
MS.313         	12.572         	2.457
MS.314         	12.547         	2.504
MS.315         	12.523         	2.306
MS.316         	12.497         	2.449
MS.317         	12.472         	2.26
MS.318         	12.447         	2.306
MS.319         	12.422         	2.439
MS.320         	12.398         	2.137
MS.321         	12.372         	2.224
MS.322         	12.347         	2.083
MS.323         	12.322         	2.278
MS.324         	12.3           	2.127
MS.325         	12.275         	2.203
MS.326         	12.25          	2.143
MS.327         	12.225         	2.02
MS.328         	12.2           	2.206
MS.329         	12.177         	2.002
MS.330         	12.153         	1.956
MS.331         	12.127         	2.147
MS.332         	12.102         	1.952
MS.333         	12.08          	1.849
MS.334         	12.055         	2.024
MS.335         	12.032         	2.018
MS.336         	12.007         	1.954
MS.337         	11.983         	1.909
MS.338         	11.96          	1.742
MS.339         	11.935         	1.946
MS.340         	11.912         	1.845
MS.341         	11.887         	1.99
MS.342         	11.865         	1.909
MS.343         	11.84          	1.976
MS.344         	11.818         	1.793
MS.345         	11.792         	1.924
MS.346         	11.77          	1.75
MS.347         	11.745         	1.684
MS.348         	11.722         	1.819
MS.349         	11.7           	1.772
MS.350         	11.675         	1.889
MS.351         	11.653         	1.458
MS.352         	11.63          	1.638
MS.353         	11.605         	1.472
MS.354         	11.582         	1.474
MS.355         	11.56          	1.762
MS.356         	11.537         	1.313
MS.357         	11.512         	1.593
MS.358         	11.49          	0.939
MS.359         	11.467         	0.689
MS.360         	11.445         	1.313
MS.361         	11.422         	0.89
MS.362         	11.4           	1.666
MS.363         	11.375         	1.204
MS.364         	11.352         	1.319
MS.365         	11.33          	1.206
MS.366         	11.307         	0.526
MS.367         	11.285         	1.263
MS.368         	11.262         	0.828
MS.369         	11.24          	0.989
MS.370         	11.217         	0.83
MS.371         	11.195         	0.719
MS.372         	11.172         	1.211
MS.373         	11.15          	0.542
MS.374         	11.127         	0.931
MS.375         	11.108         	1.148
MS.376         	11.085         	0.892
MS.377         	11.062         	0.993
MS.378         	11.04          	0.612
MS.379         	11.017         	0.453
MS.380         	10.995         	0.447
MS.381         	10.975         	0.548
MS.382         	10.952         	0.548
MS.383         	10.93          	0.675
MS.384         	10.907         	0.191
MS.385         	10.887         	0.151
MS.386         	10.865         	0.193
MS.387         	10.842         	0.111
MS.388         	10.823         	0.145
MS.389         	10.8           	0.379
MS.390         	10.778         	0.451
MS.391         	10.757         	0.145
MS.392         	10.735         	0.153
MS.393         	10.712         	0.097
MS.394         	10.693         	0.101
MS.395         	10.67          	0.211
MS.396         	10.65          	0.107
MS.397         	10.627         	0.101
MS.398         	10.608         	0.107
MS.399         	10.585         	0.109
MS.400         	10.565         	0.121
MS.401         	10.542         	0.139
MS.402         	10.523         	0.075
MS.403         	10.502         	0.099
MS.404         	10.48          	0.101
MS.405         	10.46          	0.075
MS.406         	10.438         	0.077
MS.407         	10.417         	0.099
MS.408         	10.398         	0.099
MS.409         	10.375         	0.075
MS.410         	10.355         	0.077
MS.411         	10.335         	0.073
MS.412         	10.315         	0.075
MS.413         	10.292         	0.075
MS.414         	10.273         	0.058
MS.415         	10.252         	0.075
MS.416         	10.233         	0.058
MS.417         	10.212         	0.06
MS.418         	10.19          	0.077
MS.419         	10.17          	0.077
MS.420         	10.15          	0.075
MS.421         	10.13          	0.101
MS.422         	10.11          	0.073
MS.423         	10.09          	0.085
MS.424         	10.07          	0.028
MS.425         	10.05          	0.077
MS.426         	10.03          	0.058
MS.427         	10.01          	0.075
MS.428         	9.99           	0.075
MS.429         	9.97           	0.058
MS.430         	9.95           	0.06
MS.431         	9.93           	0.058
MS.432         	9.91           	0.062
MS.433         	9.89           	0.06
MS.434         	9.87           	0.058
MS.435         	9.85           	0.032
MS.436         	9.83           	0.03
MS.437         	9.81           	0.058
MS.438         	9.792          	0.028
MS.439         	9.773          	0.06
MS.440         	9.752          	0.002
MS.441         	9.733          	0.06
MS.442         	9.712          	0.03
MS.443         	9.695          	0.000
MS.444         	9.675          	0.002
MS.445         	9.655          	0.000
MS.446         	9.635          	0.032
MS.447         	9.617          	0.062
MS.448         	9.597          	0.062
MS.449         	9.577          	0.002
MS.450         	9.56           	0.032
MS.451         	9.54           	-0.002
MS.452         	9.52           	0.000
MS.453         	9.502          	-0.002
MS.454         	9.483          	0.002
MS.455         	9.465          	0.002
MS.456         	9.445          	0.032
MS.457         	9.427          	0.000
MS.458         	9.407          	-0.002
MS.459         	9.39           	0.002
MS.460         	9.37           	0.000
MS.461         	9.352          	0.000
MS.462         	9.332          	0.032
MS.463         	9.315          	0.004
MS.464         	9.295          	0.002
MS.465         	9.278          	-0.002
MS.466         	9.257          	0.002
MS.467         	9.24           	0.002
MS.468         	9.222          	0.002
MS.469         	9.202          	-0.002
MS.470         	9.185          	0.002
MS.471         	9.165          	0.000
MS.472         	9.148          	0.002
MS.473         	9.13           	0.000
MS.474         	9.113          	0.002
MS.475         	9.092          	0.002
MS.476         	9.075          	0.002
MS.477         	9.057          	-0.002
MS.478         	9.037          	0.000
MS.479         	9.02           	0.000
MS.480         	9.002          	0.004
MS.481         	8.985          	0.000
MS.482         	8.967          	0.000
MS.483         	8.95           	0.004
MS.484         	8.93           	0.002
MS.485         	8.912          	0.002
MS.486         	8.895          	0.000
MS.487         	8.877          	0.002
MS.488         	8.86           	0.004
MS.489         	8.842          	0.002
MS.490         	8.825          	-0.002
MS.491         	8.807          	0.002
MS.492         	8.79           	0.002
MS.493         	8.773          	0.000
MS.494         	8.755          	0.002
MS.495         	8.738          	0.004
MS.496         	8.72           	0.000
MS.497         	8.702          	0.000
MS.498         	8.685          	0.000
MS.499         	8.667          	0.000
MS.500         	8.65           	0.000
MS.501         	8.632          	0.002
