File:              	C:\Qtrac\Data\Daniel M Sørensen\MScan multicentre study\Data from centres\Oulu\Processed data\OUHC01119B.QZD
Name:              	FL.OUL.NC.3.2
Protocol:          	MSCAN-R2
Date:              	19/11/20
Start time:        	13:15:05
Age:               	78
Sex:               	M
Temperature:       	33,1
S/R sites:         	ADM
NC/disease:        	NC
Operator:          	MK
Comments:
M-SCAN DATA (2.2-0.0m)
Scanpts: 88, 101, 579, 597
Stim. (mA)     	Amp. (mV)
MS.1           	22             	12.137
MS.2           	22             	12.129
MS.3           	21.913         	12.123
MS.4           	21.868         	12.176
MS.5           	21.825         	12.164
MS.6           	21.78          	12.113
MS.7           	21.737         	12.141
MS.8           	21.695         	12.123
MS.9           	21.65          	12.135
MS.10          	21.608         	12.186
MS.11          	21.565         	12.19
MS.12          	21.52          	12.208
MS.13          	21.477         	12.157
MS.14          	21.435         	12.178
MS.15          	21.392         	12.153
MS.16          	21.35          	12.145
MS.17          	21.307         	12.188
MS.18          	21.265         	12.188
MS.19          	21.222         	12.216
MS.20          	21.18          	12.216
MS.21          	21.137         	12.222
MS.22          	21.095         	12.194
MS.23          	21.052         	12.218
MS.24          	21.01          	12.18
MS.25          	20.97          	12.22
MS.26          	20.927         	12.188
MS.27          	20.885         	12.168
MS.28          	20.842         	12.182
MS.29          	20.802         	12.234
MS.30          	20.76          	12.153
MS.31          	20.717         	12.176
MS.32          	20.677         	12.166
MS.33          	20.635         	12.172
MS.34          	20.595         	12.212
MS.35          	20.552         	12.228
MS.36          	20.512         	12.194
MS.37          	20.472         	12.149
MS.38          	20.43          	12.196
MS.39          	20.39          	12.168
MS.40          	20.35          	12.214
MS.41          	20.307         	12.186
MS.42          	20.267         	12.202
MS.43          	20.227         	12.228
MS.44          	20.188         	12.212
MS.45          	20.147         	12.182
MS.46          	20.108         	12.107
MS.47          	20.065         	12.186
MS.48          	20.025         	12.206
MS.49          	19.985         	12.26
MS.50          	19.945         	12.248
MS.51          	19.907         	12.274
MS.52          	19.868         	12.236
MS.53          	19.827         	12.208
MS.54          	19.788         	12.2
MS.55          	19.747         	12.216
MS.56          	19.708         	12.23
MS.57          	19.67          	12.23
MS.58          	19.63          	12.21
MS.59          	19.59          	12.284
MS.60          	19.55          	12.206
MS.61          	19.512         	12.2
MS.62          	19.472         	12.232
MS.63          	19.435         	12.252
MS.64          	19.395         	12.218
MS.65          	19.358         	12.28
MS.66          	19.317         	12.252
MS.67          	19.28          	12.164
MS.68          	19.24          	12.137
MS.69          	19.202         	12.18
MS.70          	19.165         	12.282
MS.71          	19.125         	12.258
MS.72          	19.087         	12.216
MS.73          	19.05          	12.244
MS.74          	19.012         	12.174
MS.75          	18.972         	12.153
MS.76          	18.935         	12.176
MS.77          	18.897         	12.17
MS.78          	18.86          	12.115
MS.79          	18.823         	12.194
MS.80          	18.785         	12.18
MS.81          	18.747         	12.248
MS.82          	18.71          	12.157
MS.83          	18.672         	12.212
MS.84          	18.635         	12.238
MS.85          	18.597         	12.151
MS.86          	18.56          	12.176
MS.87          	18.522         	12.178
MS.88          	18.487         	12.139
MS.89          	18.45          	12.131
MS.90          	18.413         	12.282
MS.91          	18.375         	12.21
MS.92          	18.34          	12.153
MS.93          	18.302         	12.129
MS.94          	18.265         	12.133
MS.95          	18.23          	12.168
MS.96          	18.192         	12.192
MS.97          	18.157         	12.151
MS.98          	18.12          	12.29
MS.99          	18.085         	12.147
MS.100         	18.047         	12.206
MS.101         	18.012         	12.178
MS.102         	17.975         	12.186
MS.103         	17.94          	12.22
MS.104         	17.905         	12.143
MS.105         	17.868         	12.157
MS.106         	17.833         	12.107
MS.107         	17.797         	12.244
MS.108         	17.762         	12.155
MS.109         	17.725         	12.24
MS.110         	17.69          	12.166
MS.111         	17.655         	12.145
MS.112         	17.62          	12.174
MS.113         	17.585         	12.137
MS.114         	17.55          	12.206
MS.115         	17.515         	12.174
MS.116         	17.48          	12.135
MS.117         	17.445         	12.041
MS.118         	17.41          	12.111
MS.119         	17.375         	12.184
MS.120         	17.34          	12.204
MS.121         	17.305         	12.109
MS.122         	17.27          	12.133
MS.123         	17.237         	12.188
MS.124         	17.202         	12.166
MS.125         	17.167         	12.103
MS.126         	17.132         	12.149
MS.127         	17.1           	12.127
MS.128         	17.065         	12.059
MS.129         	17.03          	12.075
MS.130         	16.997         	12.131
MS.131         	16.962         	12.073
MS.132         	16.93          	12.093
MS.133         	16.895         	12.093
MS.134         	16.862         	12.071
MS.135         	16.827         	12.081
MS.136         	16.795         	12.095
MS.137         	16.76          	12.065
MS.138         	16.727         	12.016
MS.139         	16.695         	12.099
MS.140         	16.66          	12.033
MS.141         	16.628         	12.123
MS.142         	16.595         	12.097
MS.143         	16.56          	12.085
MS.144         	16.528         	12.063
MS.145         	16.495         	11.569
MS.146         	16.462         	12.063
MS.147         	16.43          	11.521
MS.148         	16.395         	12.115
MS.149         	16.362         	11.956
MS.150         	16.33          	11.225
MS.151         	16.297         	11.589
MS.152         	16.265         	11.96
MS.153         	16.233         	11.267
MS.154         	16.2           	11.35
MS.155         	16.167         	11.273
MS.156         	16.135         	11.775
MS.157         	16.102         	11.269
MS.158         	16.073         	11.301
MS.159         	16.04          	11.225
MS.160         	16.007         	11.265
MS.161         	15.975         	11.235
MS.162         	15.943         	11.193
MS.163         	15.912         	11.539
MS.164         	15.88          	11.209
MS.165         	15.847         	11.144
MS.166         	15.818         	11.455
MS.167         	15.785         	11.193
MS.168         	15.752         	11.428
MS.169         	15.722         	11.271
MS.170         	15.69          	11.136
MS.171         	15.66          	11.247
MS.172         	15.627         	11.221
MS.173         	15.597         	11.158
MS.174         	15.565         	11.05
MS.175         	15.535         	11.249
MS.176         	15.502         	11.124
MS.177         	15.472         	11.11
MS.178         	15.44          	11.156
MS.179         	15.41          	11.128
MS.180         	15.38          	11.215
MS.181         	15.35          	11.074
MS.182         	15.318         	11.05
MS.183         	15.287         	11.1
MS.184         	15.257         	11.112
MS.185         	15.227         	11.122
MS.186         	15.195         	11.056
MS.187         	15.165         	10.975
MS.188         	15.135         	10.933
MS.189         	15.105         	10.887
MS.190         	15.075         	10.84
MS.191         	15.045         	10.883
MS.192         	15.015         	10.792
MS.193         	14.985         	10.883
MS.194         	14.955         	10.822
MS.195         	14.925         	10.798
MS.196         	14.895         	10.876
MS.197         	14.865         	10.756
MS.198         	14.835         	10.824
MS.199         	14.805         	10.86
MS.200         	14.777         	10.832
MS.201         	14.747         	10.679
MS.202         	14.717         	10.844
MS.203         	14.688         	10.679
MS.204         	14.66          	10.814
MS.205         	14.63          	10.709
MS.206         	14.6           	10.788
MS.207         	14.57          	10.788
MS.208         	14.542         	10.752
MS.209         	14.512         	10.782
MS.210         	14.485         	10.792
MS.211         	14.455         	10.663
MS.212         	14.425         	10.677
MS.213         	14.398         	10.707
MS.214         	14.367         	10.705
MS.215         	14.34          	10.79
MS.216         	14.31          	10.723
MS.217         	14.282         	10.677
MS.218         	14.255         	10.653
MS.219         	14.225         	10.667
MS.220         	14.197         	10.695
MS.221         	14.167         	10.637
MS.222         	14.14          	10.687
MS.223         	14.112         	10.729
MS.224         	14.085         	10.663
MS.225         	14.055         	10.657
MS.226         	14.028         	10.619
MS.227         	14             	10.659
MS.228         	13.972         	10.653
MS.229         	13.945         	10.601
MS.230         	13.915         	10.619
MS.231         	13.887         	10.564
MS.232         	13.86          	10.592
MS.233         	13.832         	10.617
MS.234         	13.805         	10.592
MS.235         	13.778         	10.568
MS.236         	13.75          	10.592
MS.237         	13.722         	10.49
MS.238         	13.695         	10.435
MS.239         	13.667         	10.522
MS.240         	13.64          	10.542
MS.241         	13.612         	10.568
MS.242         	13.585         	10.5
MS.243         	13.56          	10.439
MS.244         	13.532         	10.373
MS.245         	13.505         	10.46
MS.246         	13.477         	10.458
MS.247         	13.45          	10.423
MS.248         	13.425         	10.375
MS.249         	13.398         	10.321
MS.250         	13.37          	10.415
MS.251         	13.342         	10.329
MS.252         	13.318         	10.256
MS.253         	13.29          	10.347
MS.254         	13.265         	10.46
MS.255         	13.237         	10.22
MS.256         	13.21          	10.143
MS.257         	13.185         	10.212
MS.258         	13.157         	10.238
MS.259         	13.132         	10.443
MS.260         	13.105         	10.059
MS.261         	13.08          	9.485
MS.262         	13.052         	9.98
MS.263         	13.028         	9.948
MS.264         	13             	10.026
MS.265         	12.975         	9.922
MS.266         	12.95          	9.93
MS.267         	12.922         	9.99
MS.268         	12.898         	9.94
MS.269         	12.872         	9.966
MS.270         	12.845         	9.922
MS.271         	12.82          	9.797
MS.272         	12.795         	9.219
MS.273         	12.77          	9.873
MS.274         	12.742         	9.177
MS.275         	12.717         	9.894
MS.276         	12.693         	9.871
MS.277         	12.667         	9.751
MS.278         	12.642         	9.195
MS.279         	12.617         	9.12
MS.280         	12.592         	9.295
MS.281         	12.568         	9.025
MS.282         	12.542         	8.862
MS.283         	12.517         	9.062
MS.284         	12.492         	9.08
MS.285         	12.467         	9.749
MS.286         	12.443         	8.8
MS.287         	12.417         	8.909
MS.288         	12.392         	8.927
MS.289         	12.367         	8.804
MS.290         	12.342         	8.717
MS.291         	12.318         	8.693
MS.292         	12.292         	8.55
MS.293         	12.267         	8.584
MS.294         	12.245         	8.602
MS.295         	12.22          	8.486
MS.296         	12.195         	8.498
MS.297         	12.17          	8.383
MS.298         	12.148         	8.403
MS.299         	12.122         	8.413
MS.300         	12.097         	8.478
MS.301         	12.075         	8.56
MS.302         	12.05          	8.476
MS.303         	12.025         	8.333
MS.304         	12.002         	8.165
MS.305         	11.977         	8.19
MS.306         	11.952         	8.206
MS.307         	11.93          	8.085
MS.308         	11.905         	8.19
MS.309         	11.882         	8.341
MS.310         	11.858         	8.103
MS.311         	11.835         	8.085
MS.312         	11.81          	8.151
MS.313         	11.787         	8.2
MS.314         	11.765         	8.103
MS.315         	11.74          	8.085
MS.316         	11.717         	8.165
MS.317         	11.693         	7.889
MS.318         	11.67          	8.067
MS.319         	11.648         	8.093
MS.320         	11.622         	8.055
MS.321         	11.6           	7.956
MS.322         	11.577         	7.906
MS.323         	11.555         	7.75
MS.324         	11.53          	7.642
MS.325         	11.507         	7.708
MS.326         	11.485         	7.777
MS.327         	11.462         	7.74
MS.328         	11.44          	7.795
MS.329         	11.415         	7.879
MS.330         	11.392         	7.944
MS.331         	11.37          	7.559
MS.332         	11.347         	7.736
MS.333         	11.325         	7.432
MS.334         	11.302         	7.545
MS.335         	11.28          	7.684
MS.336         	11.257         	7.503
MS.337         	11.235         	7.33
MS.338         	11.212         	7.277
MS.339         	11.19          	7.44
MS.340         	11.167         	7.356
MS.341         	11.145         	7.485
MS.342         	11.122         	7.193
MS.343         	11.1           	7.017
MS.344         	11.08          	7.16
MS.345         	11.057         	7.019
MS.346         	11.035         	7.191
MS.347         	11.012         	7.172
MS.348         	10.99          	7.136
MS.349         	10.967         	7.096
MS.350         	10.948         	6.794
MS.351         	10.925         	7.003
MS.352         	10.903         	6.705
MS.353         	10.88          	6.969
MS.354         	10.86          	7.086
MS.355         	10.837         	6.802
MS.356         	10.815         	6.866
MS.357         	10.795         	6.512
MS.358         	10.773         	6.429
MS.359         	10.752         	6.443
MS.360         	10.73          	6.669
MS.361         	10.707         	6.347
MS.362         	10.688         	6.758
MS.363         	10.665         	6.572
MS.364         	10.645         	6.554
MS.365         	10.622         	6.657
MS.366         	10.602         	6.31
MS.367         	10.58          	6.292
MS.368         	10.56          	5.203
MS.369         	10.537         	6.053
MS.370         	10.517         	6.179
MS.371         	10.497         	6.008
MS.372         	10.475         	6.044
MS.373         	10.455         	6.345
MS.374         	10.432         	5.96
MS.375         	10.412         	6.071
MS.376         	10.392         	5.66
MS.377         	10.372         	6.107
MS.378         	10.35          	4.453
MS.379         	10.33          	4.574
MS.380         	10.31          	4.506
MS.381         	10.287         	5.265
MS.382         	10.267         	5.847
MS.383         	10.247         	4.612
MS.384         	10.227         	4.292
MS.385         	10.207         	4.62
MS.386         	10.185         	4.492
MS.387         	10.165         	4.709
MS.388         	10.145         	3.793
MS.389         	10.125         	4.393
MS.390         	10.105         	4.915
MS.391         	10.085         	4.175
MS.392         	10.065         	4.135
MS.393         	10.045         	4.937
MS.394         	10.025         	4.095
MS.395         	10.005         	3.571
MS.396         	9.985          	3.188
MS.397         	9.965          	3.07
MS.398         	9.945          	3.813
MS.399         	9.925          	2.973
MS.400         	9.905          	2.937
MS.401         	9.885          	3.053
MS.402         	9.865          	2.941
MS.403         	9.845          	2.981
MS.404         	9.825          	3.053
MS.405         	9.807          	2.874
MS.406         	9.787          	2.896
MS.407         	9.767          	2.806
MS.408         	9.747          	2.953
MS.409         	9.727          	2.826
MS.410         	9.71           	2.961
MS.411         	9.69           	2.498
MS.412         	9.67           	2.729
MS.413         	9.65           	2.647
MS.414         	9.632          	2.955
MS.415         	9.613          	2.91
MS.416         	9.592          	2.963
MS.417         	9.575          	2.997
MS.418         	9.555          	2.574
MS.419         	9.535          	2.554
MS.420         	9.517          	2.82
MS.421         	9.497          	2.711
MS.422         	9.477          	2.832
MS.423         	9.46           	2.711
MS.424         	9.44           	2.413
MS.425         	9.422          	2.296
MS.426         	9.403          	2.306
MS.427         	9.385          	2.516
MS.428         	9.365          	2.477
MS.429         	9.347          	2.385
MS.430         	9.327          	2.224
MS.431         	9.31           	2.044
MS.432         	9.29           	2.151
MS.433         	9.273          	2.121
MS.434         	9.255          	2.703
MS.435         	9.235          	2.048
MS.436         	9.217          	2.054
MS.437         	9.198          	1.648
MS.438         	9.18           	1.859
MS.439         	9.162          	1.638
MS.440         	9.142          	1.883
MS.441         	9.125          	1.688
MS.442         	9.108          	1.68
MS.443         	9.09           	1.682
MS.444         	9.07           	1.478
MS.445         	9.052          	1.706
MS.446         	9.035          	1.831
MS.447         	9.017          	1.484
MS.448         	8.997          	1.492
MS.449         	8.98           	1.426
MS.450         	8.962          	1.569
MS.451         	8.945          	1.462
MS.452         	8.927          	1.448
MS.453         	8.91           	1.104
MS.454         	8.89           	1.335
MS.455         	8.872          	1.295
MS.456         	8.855          	1.267
MS.457         	8.837          	1.311
MS.458         	8.82           	1.182
MS.459         	8.802          	0.979
MS.460         	8.785          	1.215
MS.461         	8.767          	1.088
MS.462         	8.75           	1.206
MS.463         	8.733          	1.227
MS.464         	8.715          	1.098
MS.465         	8.698          	1.098
MS.466         	8.68           	1.2
MS.467         	8.662          	0.661
MS.468         	8.645          	0.471
MS.469         	8.627          	0.769
MS.470         	8.61           	1.102
MS.471         	8.595          	0.802
MS.472         	8.577          	0.947
MS.473         	8.56           	0.693
MS.474         	8.542          	0.423
MS.475         	8.525          	0.433
MS.476         	8.507          	0.594
MS.477         	8.492          	0.683
MS.478         	8.475          	0.689
MS.479         	8.457          	0.469
MS.480         	8.44           	0.479
MS.481         	8.422          	0.504
MS.482         	8.408          	0.459
MS.483         	8.39           	0.381
MS.484         	8.372          	0.483
MS.485         	8.358          	0.487
MS.486         	8.34           	0.616
MS.487         	8.323          	0.479
MS.488         	8.307          	0.298
MS.489         	8.29           	0.403
MS.490         	8.273          	0.395
MS.491         	8.257          	0.288
MS.492         	8.24           	0.467
MS.493         	8.225          	0.344
MS.494         	8.207          	0.506
MS.495         	8.19           	0.389
