File:              	C:\Qtrac\Data\CKMC01111K.QZD
Name:              	RHS09
Protocol:          	MSCAN-R2
Date:              	11/11/20
Start time:        	14:45:41
Age:               	73
Sex:               	F
Temperature:       	38.6
S/R sites:         	RUln Wr-ADQ
NC/disease:        	NC
Operator:          	CK
Comments:          	CG
M-SCAN DATA (6.7-1.2m)
Scanpts: 10, 15, 566, 585
Stim. (mA)     	Amp. (mV)
MS.1           	19             	6.621
MS.2           	19             	6.637
MS.3           	19             	6.667
MS.4           	19             	6.595
MS.5           	19             	6.65
MS.6           	19             	6.639
MS.7           	19             	6.623
MS.8           	19             	6.581
MS.9           	19             	6.584
MS.10          	19             	6.562
MS.11          	19             	6.566
MS.12          	19             	6.543
MS.13          	19             	6.562
MS.14          	19             	6.555
MS.15          	19             	6.552
MS.16          	19             	6.539
MS.17          	19             	6.574
MS.18          	19             	6.523
MS.19          	19             	6.557
MS.20          	19             	6.534
MS.21          	19             	6.536
MS.22          	19             	6.548
MS.23          	19             	6.538
MS.24          	18.925         	6.53
MS.25          	18.885         	6.554
MS.26          	18.85          	6.548
MS.27          	18.81          	6.523
MS.28          	18.775         	6.515
MS.29          	18.735         	6.497
MS.30          	18.7           	6.507
MS.31          	18.66          	6.475
MS.32          	18.625         	6.509
MS.33          	18.585         	6.487
MS.34          	18.55          	6.488
MS.35          	18.51          	6.472
MS.36          	18.475         	6.467
MS.37          	18.44          	6.446
MS.38          	18.4           	6.426
MS.39          	18.365         	6.42
MS.40          	18.33          	6.416
MS.41          	18.29          	6.414
MS.42          	18.255         	6.385
MS.43          	18.22          	6.375
MS.44          	18.18          	6.389
MS.45          	18.145         	6.368
MS.46          	18.11          	6.371
MS.47          	18.075         	6.342
MS.48          	18.035         	6.356
MS.49          	18             	6.339
MS.50          	17.965         	6.301
MS.51          	17.93          	6.346
MS.52          	17.895         	6.318
MS.53          	17.86          	6.329
MS.54          	17.82          	6.367
MS.55          	17.785         	6.318
MS.56          	17.75          	6.308
MS.57          	17.715         	6.253
MS.58          	17.68          	6.311
MS.59          	17.645         	6.274
MS.60          	17.61          	6.376
MS.61          	17.575         	6.318
MS.62          	17.54          	6.306
MS.63          	17.505         	6.266
MS.64          	17.47          	6.246
MS.65          	17.435         	6.243
MS.66          	17.4           	6.186
MS.67          	17.365         	6.178
MS.68          	17.33          	6.196
MS.69          	17.295         	6.218
MS.70          	17.26          	6.152
MS.71          	17.225         	6.221
MS.72          	17.19          	6.234
MS.73          	17.155         	6.153
MS.74          	17.125         	6.18
MS.75          	17.09          	6.125
MS.76          	17.055         	6.116
MS.77          	17.02          	6.141
MS.78          	16.985         	6.135
MS.79          	16.955         	6.11
MS.80          	16.92          	6.121
MS.81          	16.885         	6.06
MS.82          	16.85          	6.038
MS.83          	16.82          	6.05
MS.84          	16.785         	6.032
MS.85          	16.75          	6.051
MS.86          	16.715         	6.04
MS.87          	16.685         	6.038
MS.88          	16.65          	6.037
MS.89          	16.615         	6.005
MS.90          	16.585         	6.029
MS.91          	16.55          	6.042
MS.92          	16.52          	5.977
MS.93          	16.485         	6.031
MS.94          	16.45          	6.024
MS.95          	16.42          	5.931
MS.96          	16.385         	6.008
MS.97          	16.355         	6.011
MS.98          	16.32          	6.009
MS.99          	16.29          	5.999
MS.100         	16.255         	5.953
MS.101         	16.225         	5.919
MS.102         	16.19          	5.93
MS.103         	16.16          	5.934
MS.104         	16.125         	5.948
MS.105         	16.095         	5.938
MS.106         	16.06          	5.942
MS.107         	16.03          	5.936
MS.108         	16             	5.952
MS.109         	15.965         	5.933
MS.110         	15.935         	5.92
MS.111         	15.9           	5.922
MS.112         	15.87          	5.939
MS.113         	15.84          	5.916
MS.114         	15.805         	5.914
MS.115         	15.775         	5.919
MS.116         	15.745         	5.911
MS.117         	15.71          	5.933
MS.118         	15.68          	5.909
MS.119         	15.65          	5.93
MS.120         	15.62          	5.925
MS.121         	15.585         	5.955
MS.122         	15.555         	5.945
MS.123         	15.525         	5.953
MS.124         	15.495         	5.9
MS.125         	15.465         	5.936
MS.126         	15.43          	5.922
MS.127         	15.4           	5.928
MS.128         	15.37          	5.884
MS.129         	15.34          	5.927
MS.130         	15.31          	5.933
MS.131         	15.28          	5.939
MS.132         	15.25          	5.941
MS.133         	15.215         	5.901
MS.134         	15.185         	5.927
MS.135         	15.155         	5.935
MS.136         	15.125         	5.875
MS.137         	15.095         	5.904
MS.138         	15.065         	5.875
MS.139         	15.035         	5.889
MS.140         	15.005         	5.843
MS.141         	14.975         	5.871
MS.142         	14.945         	5.887
MS.143         	14.915         	5.917
MS.144         	14.885         	5.9
MS.145         	14.855         	5.874
MS.146         	14.825         	5.759
MS.147         	14.795         	5.845
MS.148         	14.77          	5.882
MS.149         	14.74          	5.793
MS.150         	14.71          	5.819
MS.151         	14.68          	5.762
MS.152         	14.65          	5.851
MS.153         	14.62          	5.763
MS.154         	14.59          	5.767
MS.155         	14.56          	5.784
MS.156         	14.535         	5.693
MS.157         	14.505         	5.744
MS.158         	14.475         	5.715
MS.159         	14.445         	5.645
MS.160         	14.415         	5.665
MS.161         	14.39          	5.687
MS.162         	14.36          	5.634
MS.163         	14.33          	5.607
MS.164         	14.305         	5.645
MS.165         	14.275         	5.66
MS.166         	14.245         	5.664
MS.167         	14.215         	5.62
MS.168         	14.19          	5.616
MS.169         	14.16          	5.61
MS.170         	14.13          	5.631
MS.171         	14.105         	5.616
MS.172         	14.075         	5.652
MS.173         	14.045         	5.732
MS.174         	14.02          	5.624
MS.175         	13.99          	5.651
MS.176         	13.965         	5.612
MS.177         	13.935         	5.635
MS.178         	13.91          	5.627
MS.179         	13.88          	5.636
MS.180         	13.85          	5.551
MS.181         	13.825         	5.517
MS.182         	13.795         	5.613
MS.183         	13.77          	5.648
MS.184         	13.74          	5.554
MS.185         	13.715         	5.683
MS.186         	13.685         	5.542
MS.187         	13.66          	5.573
MS.188         	13.63          	5.547
MS.189         	13.605         	5.62
MS.190         	13.58          	5.61
MS.191         	13.55          	5.527
MS.192         	13.525         	5.629
MS.193         	13.495         	5.536
MS.194         	13.47          	5.442
MS.195         	13.445         	5.54
MS.196         	13.415         	5.51
MS.197         	13.39          	5.513
MS.198         	13.36          	5.466
MS.199         	13.335         	5.473
MS.200         	13.31          	5.39
MS.201         	13.28          	5.486
MS.202         	13.255         	5.363
MS.203         	13.23          	5.371
MS.204         	13.205         	5.306
MS.205         	13.175         	5.386
MS.206         	13.15          	5.353
MS.207         	13.125         	5.261
MS.208         	13.1           	5.41
MS.209         	13.07          	5.303
MS.210         	13.045         	5.137
MS.211         	13.02          	5.239
MS.212         	12.995         	5.167
MS.213         	12.965         	5.273
MS.214         	12.94          	5.15
MS.215         	12.915         	5.294
MS.216         	12.89          	5.07
MS.217         	12.865         	5.093
MS.218         	12.84          	5.063
MS.219         	12.815         	5.076
MS.220         	12.785         	5.059
MS.221         	12.76          	4.907
MS.222         	12.735         	5.097
MS.223         	12.71          	4.991
MS.224         	12.685         	5.081
MS.225         	12.66          	4.928
MS.226         	12.635         	4.96
MS.227         	12.61          	4.919
MS.228         	12.585         	4.902
MS.229         	12.56          	4.841
MS.230         	12.535         	4.667
MS.231         	12.51          	4.778
MS.232         	12.485         	4.865
MS.233         	12.46          	4.602
MS.234         	12.435         	4.623
MS.235         	12.41          	4.567
MS.236         	12.385         	4.569
MS.237         	12.36          	4.774
MS.238         	12.335         	4.571
MS.239         	12.31          	4.44
MS.240         	12.285         	4.47
MS.241         	12.26          	4.398
MS.242         	12.235         	4.238
MS.243         	12.21          	4.297
MS.244         	12.19          	4.334
MS.245         	12.165         	4.322
MS.246         	12.14          	4.174
MS.247         	12.115         	4.259
MS.248         	12.09          	4.176
MS.249         	12.065         	4.125
MS.250         	12.04          	4.147
MS.251         	12.02          	4.214
MS.252         	11.995         	4.033
MS.253         	11.97          	4.152
MS.254         	11.945         	4.03
MS.255         	11.925         	4.015
MS.256         	11.9           	4.086
MS.257         	11.875         	4.033
MS.258         	11.85          	4.024
MS.259         	11.83          	3.954
MS.260         	11.805         	3.912
MS.261         	11.78          	3.961
MS.262         	11.755         	3.914
MS.263         	11.735         	3.883
MS.264         	11.71          	3.801
MS.265         	11.685         	3.625
MS.266         	11.665         	3.812
MS.267         	11.64          	3.577
MS.268         	11.615         	3.437
MS.269         	11.595         	3.359
MS.270         	11.57          	3.447
MS.271         	11.545         	3.158
MS.272         	11.525         	3.661
MS.273         	11.5           	3.392
MS.274         	11.48          	3.172
MS.275         	11.455         	3.086
MS.276         	11.43          	3.173
MS.277         	11.41          	3.224
MS.278         	11.385         	3.105
MS.279         	11.365         	3.248
MS.280         	11.34          	3.01
MS.281         	11.32          	3.275
MS.282         	11.295         	3.038
MS.283         	11.275         	2.971
MS.284         	11.25          	3.013
MS.285         	11.23          	2.928
MS.286         	11.205         	2.947
MS.287         	11.185         	2.952
MS.288         	11.16          	2.824
MS.289         	11.14          	2.833
MS.290         	11.115         	2.846
MS.291         	11.095         	2.833
MS.292         	11.07          	2.731
MS.293         	11.05          	2.815
MS.294         	11.03          	2.796
MS.295         	11.005         	2.928
MS.296         	10.985         	2.761
MS.297         	10.96          	2.782
MS.298         	10.94          	2.731
MS.299         	10.92          	2.692
MS.300         	10.895         	2.756
MS.301         	10.875         	2.724
MS.302         	10.855         	2.727
MS.303         	10.83          	2.564
MS.304         	10.81          	2.689
MS.305         	10.79          	2.566
MS.306         	10.765         	2.664
MS.307         	10.745         	2.67
MS.308         	10.725         	2.527
MS.309         	10.7           	2.51
MS.310         	10.68          	2.422
MS.311         	10.66          	2.448
MS.312         	10.64          	2.457
MS.313         	10.615         	2.375
MS.314         	10.595         	2.391
MS.315         	10.575         	2.376
MS.316         	10.555         	2.368
MS.317         	10.53          	2.325
MS.318         	10.51          	2.354
MS.319         	10.49          	2.317
MS.320         	10.47          	2.256
MS.321         	10.45          	2.304
MS.322         	10.425         	2.151
MS.323         	10.405         	2.018
MS.324         	10.385         	2.209
MS.325         	10.365         	2.148
MS.326         	10.345         	2.039
MS.327         	10.325         	2.099
MS.328         	10.305         	1.81
MS.329         	10.28          	1.733
MS.330         	10.26          	1.978
MS.331         	10.24          	1.85
MS.332         	10.22          	1.679
MS.333         	10.2           	1.785
MS.334         	10.18          	1.82
MS.335         	10.16          	1.589
MS.336         	10.14          	1.676
MS.337         	10.12          	1.54
MS.338         	10.1           	1.547
MS.339         	10.08          	1.561
MS.340         	10.06          	1.593
MS.341         	10.04          	1.465
MS.342         	10.02          	1.622
MS.343         	10             	1.409
MS.344         	9.98           	1.513
MS.345         	9.96           	1.452
MS.346         	9.94           	1.398
MS.347         	9.92           	1.393
MS.348         	9.9            	1.401
MS.349         	9.88           	1.276
MS.350         	9.86           	1.325
MS.351         	9.84           	1.342
MS.352         	9.82           	1.36
MS.353         	9.8            	1.197
MS.354         	9.78           	1.316
MS.355         	9.76           	1.168
MS.356         	9.74           	1.212
MS.357         	9.72           	1.281
MS.358         	9.705          	1.128
MS.359         	9.685          	1.293
MS.360         	9.665          	1.268
MS.361         	9.645          	1.149
MS.362         	9.625          	1.094
MS.363         	9.605          	1.049
MS.364         	9.585          	1.085
MS.365         	9.57           	1.055
MS.366         	9.55           	1.084
MS.367         	9.53           	1.072
MS.368         	9.51           	1.086
MS.369         	9.49           	1.118
MS.370         	9.475          	1.114
MS.371         	9.455          	1.05
MS.372         	9.435          	0.997
MS.373         	9.415          	1.134
MS.374         	9.395          	0.986
MS.375         	9.38           	1.058
MS.376         	9.36           	1.072
MS.377         	9.34           	0.915
MS.378         	9.325          	1.064
MS.379         	9.305          	1.041
MS.380         	9.285          	1.02
MS.381         	9.265          	1.055
MS.382         	9.25           	1.027
MS.383         	9.23           	1.036
MS.384         	9.21           	0.957
MS.385         	9.195          	0.945
MS.386         	9.175          	0.908
MS.387         	9.155          	0.826
MS.388         	9.14           	0.906
MS.389         	9.12           	0.873
MS.390         	9.1            	0.937
MS.391         	9.085          	0.809
MS.392         	9.065          	0.839
MS.393         	9.045          	0.817
MS.394         	9.03           	0.918
MS.395         	9.01           	0.834
MS.396         	8.995          	0.852
MS.397         	8.975          	0.802
MS.398         	8.955          	0.796
MS.399         	8.94           	0.812
MS.400         	8.92           	0.756
MS.401         	8.905          	0.764
MS.402         	8.885          	0.709
MS.403         	8.87           	0.751
MS.404         	8.85           	0.741
MS.405         	8.83           	0.71
MS.406         	8.815          	0.694
MS.407         	8.795          	0.746
MS.408         	8.78           	0.759
MS.409         	8.76           	0.742
MS.410         	8.745          	0.658
MS.411         	8.725          	0.656
MS.412         	8.71           	0.669
MS.413         	8.69           	0.646
MS.414         	8.675          	0.693
MS.415         	8.66           	0.642
MS.416         	8.64           	0.573
MS.417         	8.625          	0.629
MS.418         	8.605          	0.656
MS.419         	8.59           	0.612
MS.420         	8.57           	0.652
MS.421         	8.555          	0.656
MS.422         	8.535          	0.528
MS.423         	8.52           	0.626
MS.424         	8.505          	0.601
MS.425         	8.485          	0.598
MS.426         	8.47           	0.632
MS.427         	8.45           	0.568
MS.428         	8.435          	0.475
MS.429         	8.42           	0.562
MS.430         	8.4            	0.582
MS.431         	8.385          	0.578
MS.432         	8.37           	0.566
MS.433         	8.35           	0.527
MS.434         	8.335          	0.479
MS.435         	8.32           	0.462
MS.436         	8.3            	0.529
MS.437         	8.285          	0.56
MS.438         	8.27           	0.515
MS.439         	8.25           	0.473
MS.440         	8.235          	0.552
MS.441         	8.22           	0.466
MS.442         	8.2            	0.509
MS.443         	8.185          	0.451
MS.444         	8.17           	0.467
MS.445         	8.155          	0.472
MS.446         	8.135          	0.487
MS.447         	8.12           	0.474
MS.448         	8.105          	0.471
MS.449         	8.09           	0.433
MS.450         	8.07           	0.366
MS.451         	8.055          	0.414
MS.452         	8.04           	0.441
MS.453         	8.025          	0.401
MS.454         	8.01           	0.433
MS.455         	7.99           	0.397
MS.456         	7.975          	0.444
MS.457         	7.96           	0.493
MS.458         	7.945          	0.428
MS.459         	7.93           	0.352
MS.460         	7.91           	0.377
MS.461         	7.895          	0.436
MS.462         	7.88           	0.397
MS.463         	7.865          	0.316
MS.464         	7.85           	0.355
MS.465         	7.835          	0.35
MS.466         	7.82           	0.317
MS.467         	7.8            	0.338
MS.468         	7.785          	0.317
MS.469         	7.77           	0.302
MS.470         	7.755          	0.108
MS.471         	7.74           	0.297
MS.472         	7.725          	0.126
MS.473         	7.71           	0.338
MS.474         	7.695          	0.312
MS.475         	7.68           	0.104
MS.476         	7.665          	0.311
MS.477         	7.65           	0.096
MS.478         	7.635          	0.161
MS.479         	7.615          	0.082
MS.480         	7.6            	0.106
MS.481         	7.585          	0.116
MS.482         	7.57           	0.299
MS.483         	7.555          	0.078
MS.484         	7.54           	0.11
MS.485         	7.525          	0.084
MS.486         	7.51           	0.104
MS.487         	7.495          	0.112
MS.488         	7.48           	0.076
MS.489         	7.465          	0.126
MS.490         	7.45           	0.109
MS.491         	7.435          	0.087
MS.492         	7.42           	0.073
MS.493         	7.405          	0.079
MS.494         	7.39           	0.071
MS.495         	7.375          	0.067
MS.496         	7.365          	0.086
MS.497         	7.35           	0.074
MS.498         	7.335          	0.056
MS.499         	7.32           	0.066
MS.500         	7.305          	0.076
MS.501         	7.29           	0.1
MS.502         	7.275          	0.076
MS.503         	7.26           	0.065
