File:              	C:\Qtrac\Data\CKMC01118G.QZD
Name:              	RHS08
Protocol:          	MSCAN-R2
Date:              	18/11/20
Start time:        	11:26:46
Age:               	65
Sex:               	F
Temperature:       	37.2
S/R sites:         	RUln Wr-ADQ
NC/disease:        	NC
Operator:          	CK
Comments:          	CG
M-SCAN DATA (8.4-1.4m)
Scanpts: 3, 9, 726, 746
Stim. (mA)     	Amp. (mV)
MS.1           	32             	7.791
MS.2           	32             	7.805
MS.3           	32             	7.878
MS.4           	32             	7.802
MS.5           	32             	7.885
MS.6           	32             	7.897
MS.7           	32             	7.8
MS.8           	32             	7.889
MS.9           	32             	7.869
MS.10          	32             	7.803
MS.11          	32             	7.882
MS.12          	32             	7.968
MS.13          	32             	7.881
MS.14          	32             	7.836
MS.15          	32             	7.88
MS.16          	32             	7.892
MS.17          	32             	7.876
MS.18          	32             	8.051
MS.19          	32             	8.011
MS.20          	32             	7.885
MS.21          	32             	7.842
MS.22          	32             	8.049
MS.23          	32             	8.034
MS.24          	31.87          	7.98
MS.25          	31.81          	7.887
MS.26          	31.745         	8.079
MS.27          	31.68          	8.043
MS.28          	31.62          	7.908
MS.29          	31.555         	7.976
MS.30          	31.49          	7.865
MS.31          	31.43          	7.803
MS.32          	31.365         	7.88
MS.33          	31.305         	7.806
MS.34          	31.24          	7.863
MS.35          	31.18          	7.792
MS.36          	31.115         	7.883
MS.37          	31.055         	7.775
MS.38          	30.99          	7.764
MS.39          	30.93          	7.775
MS.40          	30.87          	7.789
MS.41          	30.805         	7.776
MS.42          	30.745         	7.561
MS.43          	30.685         	7.742
MS.44          	30.62          	7.737
MS.45          	30.56          	7.729
MS.46          	30.5           	7.646
MS.47          	30.44          	7.712
MS.48          	30.38          	7.643
MS.49          	30.32          	7.758
MS.50          	30.255         	7.679
MS.51          	30.195         	7.671
MS.52          	30.135         	7.758
MS.53          	30.075         	7.635
MS.54          	30.015         	7.548
MS.55          	29.955         	7.501
MS.56          	29.895         	7.428
MS.57          	29.835         	7.495
MS.58          	29.775         	7.65
MS.59          	29.715         	7.66
MS.60          	29.66          	7.455
MS.61          	29.6           	7.421
MS.62          	29.54          	7.548
MS.63          	29.48          	7.347
MS.64          	29.42          	7.662
MS.65          	29.365         	7.357
MS.66          	29.305         	7.449
MS.67          	29.245         	7.321
MS.68          	29.185         	7.384
MS.69          	29.13          	7.177
MS.70          	29.07          	7.256
MS.71          	29.015         	7.306
MS.72          	28.955         	6.996
MS.73          	28.895         	7.139
MS.74          	28.84          	7.137
MS.75          	28.78          	7.002
MS.76          	28.725         	7.144
MS.77          	28.665         	6.938
MS.78          	28.61          	7.062
MS.79          	28.55          	6.949
MS.80          	28.495         	6.925
MS.81          	28.44          	7.097
MS.82          	28.38          	6.872
MS.83          	28.325         	6.916
MS.84          	28.27          	6.894
MS.85          	28.21          	6.927
MS.86          	28.155         	6.848
MS.87          	28.1           	6.909
MS.88          	28.045         	6.773
MS.89          	27.985         	6.804
MS.90          	27.93          	6.918
MS.91          	27.875         	6.721
MS.92          	27.82          	6.858
MS.93          	27.765         	6.777
MS.94          	27.71          	6.663
MS.95          	27.655         	6.632
MS.96          	27.6           	6.871
MS.97          	27.545         	6.513
MS.98          	27.49          	6.771
MS.99          	27.435         	6.658
MS.100         	27.38          	6.575
MS.101         	27.325         	6.553
MS.102         	27.27          	6.504
MS.103         	27.215         	6.566
MS.104         	27.16          	6.579
MS.105         	27.105         	6.391
MS.106         	27.05          	6.659
MS.107         	26.995         	6.456
MS.108         	26.945         	6.47
MS.109         	26.89          	6.435
MS.110         	26.835         	6.317
MS.111         	26.78          	6.273
MS.112         	26.73          	6.328
MS.113         	26.675         	6.27
MS.114         	26.62          	6.36
MS.115         	26.57          	6.351
MS.116         	26.515         	6.225
MS.117         	26.465         	6.214
MS.118         	26.41          	6.219
MS.119         	26.355         	6.179
MS.120         	26.305         	6.076
MS.121         	26.25          	6.115
MS.122         	26.2           	6.087
MS.123         	26.145         	6.122
MS.124         	26.095         	6.034
MS.125         	26.045         	6.12
MS.126         	25.99          	6.014
MS.127         	25.94          	5.968
MS.128         	25.885         	5.95
MS.129         	25.835         	5.98
MS.130         	25.785         	5.891
MS.131         	25.73          	5.886
MS.132         	25.68          	5.815
MS.133         	25.63          	5.795
MS.134         	25.58          	5.873
MS.135         	25.525         	5.828
MS.136         	25.475         	5.859
MS.137         	25.425         	5.689
MS.138         	25.375         	5.818
MS.139         	25.325         	5.665
MS.140         	25.275         	5.621
MS.141         	25.22          	5.682
MS.142         	25.17          	5.561
MS.143         	25.12          	5.508
MS.144         	25.07          	5.5
MS.145         	25.02          	5.511
MS.146         	24.97          	5.433
MS.147         	24.92          	5.672
MS.148         	24.87          	5.551
MS.149         	24.82          	5.539
MS.150         	24.77          	5.346
MS.151         	24.725         	5.498
MS.152         	24.675         	5.292
MS.153         	24.625         	5.408
MS.154         	24.575         	5.425
MS.155         	24.525         	5.258
MS.156         	24.475         	5.353
MS.157         	24.43          	5.292
MS.158         	24.38          	5.131
MS.159         	24.33          	5.126
MS.160         	24.28          	5.13
MS.161         	24.235         	5.259
MS.162         	24.185         	5.015
MS.163         	24.135         	4.914
MS.164         	24.09          	4.926
MS.165         	24.04          	4.882
MS.166         	23.99          	4.918
MS.167         	23.945         	4.79
MS.168         	23.895         	4.844
MS.169         	23.85          	4.6
MS.170         	23.8           	4.678
MS.171         	23.755         	4.677
MS.172         	23.705         	4.723
MS.173         	23.66          	4.724
MS.174         	23.61          	4.55
MS.175         	23.565         	4.681
MS.176         	23.515         	4.532
MS.177         	23.47          	4.498
MS.178         	23.425         	4.539
MS.179         	23.375         	4.365
MS.180         	23.33          	4.431
MS.181         	23.285         	4.32
MS.182         	23.235         	4.144
MS.183         	23.19          	4.318
MS.184         	23.145         	4.134
MS.185         	23.1           	4.234
MS.186         	23.05          	4.117
MS.187         	23.005         	3.949
MS.188         	22.96          	3.961
MS.189         	22.915         	4.017
MS.190         	22.87          	4.005
MS.191         	22.82          	4.055
MS.192         	22.775         	3.807
MS.193         	22.73          	3.77
MS.194         	22.685         	3.891
MS.195         	22.64          	3.679
MS.196         	22.595         	3.699
MS.197         	22.55          	3.818
MS.198         	22.505         	3.597
MS.199         	22.46          	3.594
MS.200         	22.415         	3.713
MS.201         	22.37          	3.615
MS.202         	22.325         	3.58
MS.203         	22.28          	3.569
MS.204         	22.235         	3.462
MS.205         	22.19          	3.418
MS.206         	22.15          	3.298
MS.207         	22.105         	3.205
MS.208         	22.06          	3.29
MS.209         	22.015         	3.137
MS.210         	21.97          	3.265
MS.211         	21.925         	3.257
MS.212         	21.885         	3.206
MS.213         	21.84          	3.176
MS.214         	21.795         	3.051
MS.215         	21.755         	2.973
MS.216         	21.71          	3.148
MS.217         	21.665         	2.99
MS.218         	21.62          	2.885
MS.219         	21.58          	3.041
MS.220         	21.535         	2.965
MS.221         	21.495         	2.861
MS.222         	21.45          	2.674
MS.223         	21.405         	2.902
MS.224         	21.365         	2.859
MS.225         	21.32          	2.811
MS.226         	21.28          	2.668
MS.227         	21.235         	2.69
MS.228         	21.195         	2.781
MS.229         	21.15          	2.465
MS.230         	21.11          	2.452
MS.231         	21.07          	2.559
MS.232         	21.025         	2.505
MS.233         	20.985         	2.476
MS.234         	20.94          	2.491
MS.235         	20.9           	2.545
MS.236         	20.86          	2.478
MS.237         	20.815         	2.432
MS.238         	20.775         	2.33
MS.239         	20.735         	2.215
MS.240         	20.69          	2.233
MS.241         	20.65          	2.098
MS.242         	20.61          	2.191
MS.243         	20.57          	2.208
MS.244         	20.525         	2.101
MS.245         	20.485         	2.11
MS.246         	20.445         	2.072
MS.247         	20.405         	2.062
MS.248         	20.365         	2.039
MS.249         	20.325         	1.889
MS.250         	20.28          	1.884
MS.251         	20.24          	1.918
MS.252         	20.2           	1.957
MS.253         	20.16          	1.8
MS.254         	20.12          	1.747
MS.255         	20.08          	1.815
MS.256         	20.04          	1.779
MS.257         	20             	1.664
MS.258         	19.96          	1.675
MS.259         	19.92          	1.733
MS.260         	19.88          	1.786
MS.261         	19.84          	1.728
MS.262         	19.8           	1.76
MS.263         	19.76          	1.679
MS.264         	19.72          	1.663
MS.265         	19.685         	1.632
MS.266         	19.645         	1.688
MS.267         	19.605         	1.487
MS.268         	19.565         	1.622
MS.269         	19.525         	1.674
MS.270         	19.485         	1.516
MS.271         	19.45          	1.576
MS.272         	19.41          	1.467
MS.273         	19.37          	1.456
MS.274         	19.33          	1.404
MS.275         	19.295         	1.418
MS.276         	19.255         	1.432
MS.277         	19.215         	1.368
MS.278         	19.175         	1.328
MS.279         	19.14          	1.326
MS.280         	19.1           	1.391
MS.281         	19.065         	1.345
MS.282         	19.025         	1.385
MS.283         	18.985         	1.385
MS.284         	18.95          	1.321
MS.285         	18.91          	1.281
MS.286         	18.875         	1.289
MS.287         	18.835         	1.325
MS.288         	18.8           	1.212
MS.289         	18.76          	1.27
MS.290         	18.725         	1.241
MS.291         	18.685         	1.182
MS.292         	18.65          	1.18
MS.293         	18.61          	1.215
MS.294         	18.575         	1.176
MS.295         	18.535         	1.216
MS.296         	18.5           	1.216
MS.297         	18.46          	1.083
MS.298         	18.425         	1.135
MS.299         	18.39          	1.095
MS.300         	18.35          	1.046
MS.301         	18.315         	1.072
MS.302         	18.28          	1.029
MS.303         	18.24          	1.075
MS.304         	18.205         	1.008
MS.305         	18.17          	1.05
MS.306         	18.135         	1.035
MS.307         	18.095         	0.901
MS.308         	18.06          	0.941
MS.309         	18.025         	0.94
MS.310         	17.99          	0.934
MS.311         	17.955         	0.939
MS.312         	17.915         	0.95
MS.313         	17.88          	0.892
MS.314         	17.845         	0.856
MS.315         	17.81          	0.805
MS.316         	17.775         	0.845
MS.317         	17.74          	0.841
MS.318         	17.705         	0.788
MS.319         	17.67          	0.79
MS.320         	17.63          	0.798
MS.321         	17.595         	0.763
MS.322         	17.56          	0.698
MS.323         	17.525         	0.829
MS.324         	17.49          	0.71
MS.325         	17.455         	0.737
MS.326         	17.42          	0.762
MS.327         	17.385         	0.707
MS.328         	17.35          	0.721
MS.329         	17.32          	0.735
MS.330         	17.285         	0.748
MS.331         	17.25          	0.629
MS.332         	17.215         	0.668
MS.333         	17.18          	0.668
MS.334         	17.145         	0.65
MS.335         	17.11          	0.633
MS.336         	17.075         	0.654
MS.337         	17.045         	0.655
MS.338         	17.01          	0.648
MS.339         	16.975         	0.582
MS.340         	16.94          	0.53
MS.341         	16.905         	0.607
MS.342         	16.875         	0.598
MS.343         	16.84          	0.622
MS.344         	16.805         	0.515
MS.345         	16.77          	0.533
MS.346         	16.74          	0.497
MS.347         	16.705         	0.458
MS.348         	16.67          	0.474
MS.349         	16.64          	0.579
MS.350         	16.605         	0.522
MS.351         	16.57          	0.457
MS.352         	16.54          	0.504
MS.353         	16.505         	0.472
MS.354         	16.475         	0.338
MS.355         	16.44          	0.398
MS.356         	16.405         	0.514
MS.357         	16.375         	0.385
MS.358         	16.34          	0.366
MS.359         	16.31          	0.41
MS.360         	16.275         	0.425
MS.361         	16.245         	0.389
MS.362         	16.21          	0.385
MS.363         	16.18          	0.36
MS.364         	16.145         	0.352
MS.365         	16.115         	0.347
MS.366         	16.085         	0.349
MS.367         	16.05          	0.363
MS.368         	16.02          	0.3
MS.369         	15.985         	0.286
MS.370         	15.955         	0.292
MS.371         	15.92          	0.291
MS.372         	15.89          	0.291
MS.373         	15.86          	0.293
MS.374         	15.825         	0.302
MS.375         	15.795         	0.313
MS.376         	15.765         	0.287
MS.377         	15.735         	0.299
MS.378         	15.7           	0.327
MS.379         	15.67          	0.306
MS.380         	15.64          	0.287
MS.381         	15.605         	0.3
MS.382         	15.575         	0.287
MS.383         	15.545         	0.312
MS.384         	15.515         	0.302
MS.385         	15.485         	0.289
MS.386         	15.45          	0.281
MS.387         	15.42          	0.317
MS.388         	15.39          	0.309
MS.389         	15.36          	0.298
MS.390         	15.33          	0.268
MS.391         	15.3           	0.318
MS.392         	15.27          	0.273
MS.393         	15.235         	0.313
MS.394         	15.205         	0.296
MS.395         	15.175         	0.305
MS.396         	15.145         	0.302
MS.397         	15.115         	0.267
MS.398         	15.085         	0.298
MS.399         	15.055         	0.322
MS.400         	15.025         	0.323
MS.401         	14.995         	0.316
MS.402         	14.965         	0.305
MS.403         	14.935         	0.298
MS.404         	14.905         	0.291
MS.405         	14.875         	0.305
MS.406         	14.845         	0.306
MS.407         	14.815         	0.31
MS.408         	14.785         	0.292
MS.409         	14.755         	0.292
MS.410         	14.73          	0.307
MS.411         	14.7           	0.281
MS.412         	14.67          	0.294
MS.413         	14.64          	0.297
MS.414         	14.61          	0.302
MS.415         	14.58          	0.292
MS.416         	14.55          	0.297
MS.417         	14.525         	0.292
MS.418         	14.495         	0.284
MS.419         	14.465         	0.29
MS.420         	14.435         	0.297
MS.421         	14.405         	0.307
MS.422         	14.38          	0.288
MS.423         	14.35          	0.29
MS.424         	14.32          	0.289
MS.425         	14.29          	0.281
MS.426         	14.265         	0.283
MS.427         	14.235         	0.289
MS.428         	14.205         	0.282
MS.429         	14.18          	0.294
MS.430         	14.15          	0.288
MS.431         	14.12          	0.274
MS.432         	14.095         	0.268
MS.433         	14.065         	0.289
MS.434         	14.035         	0.267
MS.435         	14.01          	0.275
MS.436         	13.98          	0.275
MS.437         	13.955         	0.287
MS.438         	13.925         	0.272
MS.439         	13.9           	0.268
MS.440         	13.87          	0.286
MS.441         	13.84          	0.266
MS.442         	13.815         	0.284
MS.443         	13.785         	0.269
MS.444         	13.76          	0.281
MS.445         	13.73          	0.267
MS.446         	13.705         	0.272
MS.447         	13.675         	0.271
MS.448         	13.65          	0.28
MS.449         	13.625         	0.264
MS.450         	13.595         	0.263
MS.451         	13.57          	0.272
MS.452         	13.54          	0.267
MS.453         	13.515         	0.272
MS.454         	13.485         	0.263
MS.455         	13.46          	0.271
MS.456         	13.435         	0.265
MS.457         	13.405         	0.269
MS.458         	13.38          	0.267
MS.459         	13.355         	0.265
MS.460         	13.325         	0.264
MS.461         	13.3           	0.27
MS.462         	13.275         	0.267
MS.463         	13.245         	0.263
MS.464         	13.22          	0.261
MS.465         	13.195         	0.263
MS.466         	13.165         	0.275
MS.467         	13.14          	0.272
MS.468         	13.115         	0.259
MS.469         	13.09          	0.265
MS.470         	13.06          	0.258
MS.471         	13.035         	0.261
MS.472         	13.01          	0.225
MS.473         	12.985         	0.241
MS.474         	12.96          	0.269
MS.475         	12.93          	0.264
MS.476         	12.905         	0.27
MS.477         	12.88          	0.22
MS.478         	12.855         	0.218
MS.479         	12.83          	0.264
MS.480         	12.805         	0.219
MS.481         	12.78          	0.222
MS.482         	12.755         	0.215
MS.483         	12.725         	0.217
MS.484         	12.7           	0.233
MS.485         	12.675         	0.213
MS.486         	12.65          	0.213
MS.487         	12.625         	0.22
MS.488         	12.6           	0.221
MS.489         	12.575         	0.214
MS.490         	12.55          	0.225
MS.491         	12.525         	0.212
MS.492         	12.5           	0.212
MS.493         	12.475         	0.213
MS.494         	12.45          	0.211
MS.495         	12.425         	0.208
MS.496         	12.4           	0.21
MS.497         	12.375         	0.191
MS.498         	12.35          	0.195
MS.499         	12.325         	0.21
MS.500         	12.3           	0.193
MS.501         	12.275         	0.2
MS.502         	12.255         	0.192
MS.503         	12.23          	0.189
