File:              	C:\Qtrac\Data\CKMC01111G.QZD
Name:              	RHS08
Protocol:          	MSCAN-R2
Date:              	11/11/20
Start time:        	11:50:59
Age:               	65
Sex:               	F
Temperature:       	38.4
S/R sites:         	RUln Wr-ADQ
NC/disease:        	NC
Operator:          	CK
Comments:          	CG
M-SCAN DATA (9.2-1.7m)
Scanpts: 1, 24, 776, 795
Stim. (mA)     	Amp. (mV)
MS.1           	26             	5.908
MS.2           	26             	5.947
MS.3           	26             	5.937
MS.4           	26             	5.925
MS.5           	26             	5.942
MS.6           	26             	5.937
MS.7           	26             	5.948
MS.8           	26             	5.917
MS.9           	26             	5.891
MS.10          	26             	5.902
MS.11          	26             	5.906
MS.12          	26             	5.912
MS.13          	26             	5.912
MS.14          	26             	5.933
MS.15          	26             	5.919
MS.16          	26             	5.943
MS.17          	26             	5.935
MS.18          	26             	5.917
MS.19          	26             	5.898
MS.20          	26             	5.933
MS.21          	26             	5.917
MS.22          	26             	5.933
MS.23          	26             	5.941
MS.24          	25.895         	5.909
MS.25          	25.845         	5.929
MS.26          	25.795         	5.917
MS.27          	25.74          	5.909
MS.28          	25.69          	5.933
MS.29          	25.64          	5.903
MS.30          	25.585         	5.907
MS.31          	25.535         	5.919
MS.32          	25.485         	5.903
MS.33          	25.435         	5.908
MS.34          	25.385         	5.92
MS.35          	25.335         	5.928
MS.36          	25.28          	5.895
MS.37          	25.23          	5.895
MS.38          	25.18          	5.899
MS.39          	25.13          	5.9
MS.40          	25.08          	5.883
MS.41          	25.03          	5.876
MS.42          	24.98          	5.875
MS.43          	24.93          	5.881
MS.44          	24.88          	5.89
MS.45          	24.83          	5.892
MS.46          	24.78          	5.873
MS.47          	24.73          	5.859
MS.48          	24.68          	5.894
MS.49          	24.635         	5.87
MS.50          	24.585         	5.874
MS.51          	24.535         	5.86
MS.52          	24.485         	5.875
MS.53          	24.435         	5.874
MS.54          	24.39          	5.837
MS.55          	24.34          	5.854
MS.56          	24.29          	5.841
MS.57          	24.24          	5.834
MS.58          	24.195         	5.838
MS.59          	24.145         	5.859
MS.60          	24.095         	5.856
MS.61          	24.05          	5.837
MS.62          	24             	5.829
MS.63          	23.955         	5.854
MS.64          	23.905         	5.85
MS.65          	23.855         	5.842
MS.66          	23.81          	5.756
MS.67          	23.76          	5.812
MS.68          	23.715         	5.73
MS.69          	23.665         	5.768
MS.70          	23.62          	5.801
MS.71          	23.575         	5.68
MS.72          	23.525         	5.74
MS.73          	23.48          	5.726
MS.74          	23.43          	5.744
MS.75          	23.385         	5.717
MS.76          	23.34          	5.67
MS.77          	23.29          	5.734
MS.78          	23.245         	5.703
MS.79          	23.2           	5.71
MS.80          	23.15          	5.681
MS.81          	23.105         	5.674
MS.82          	23.06          	5.703
MS.83          	23.015         	5.676
MS.84          	22.97          	5.648
MS.85          	22.92          	5.662
MS.86          	22.875         	5.674
MS.87          	22.83          	5.696
MS.88          	22.785         	5.658
MS.89          	22.74          	5.664
MS.90          	22.695         	5.612
MS.91          	22.65          	5.666
MS.92          	22.605         	5.613
MS.93          	22.56          	5.632
MS.94          	22.515         	5.591
MS.95          	22.47          	5.657
MS.96          	22.425         	5.585
MS.97          	22.38          	5.633
MS.98          	22.335         	5.582
MS.99          	22.29          	5.552
MS.100         	22.245         	5.588
MS.101         	22.2           	5.618
MS.102         	22.155         	5.58
MS.103         	22.11          	5.543
MS.104         	22.065         	5.552
MS.105         	22.025         	5.513
MS.106         	21.98          	5.512
MS.107         	21.935         	5.49
MS.108         	21.89          	5.577
MS.109         	21.85          	5.443
MS.110         	21.805         	5.496
MS.111         	21.76          	5.366
MS.112         	21.715         	5.48
MS.113         	21.675         	5.403
MS.114         	21.63          	5.196
MS.115         	21.585         	5.302
MS.116         	21.545         	5.528
MS.117         	21.5           	5.198
MS.118         	21.46          	5.117
MS.119         	21.415         	5.328
MS.120         	21.37          	5.239
MS.121         	21.33          	5.279
MS.122         	21.285         	5.225
MS.123         	21.245         	5.262
MS.124         	21.2           	5.032
MS.125         	21.16          	5.044
MS.126         	21.115         	5.021
MS.127         	21.075         	5.032
MS.128         	21.035         	5.046
MS.129         	20.99          	4.98
MS.130         	20.95          	5.13
MS.131         	20.905         	5.01
MS.132         	20.865         	5.174
MS.133         	20.825         	4.977
MS.134         	20.78          	4.966
MS.135         	20.74          	4.916
MS.136         	20.7           	4.897
MS.137         	20.66          	4.941
MS.138         	20.615         	4.847
MS.139         	20.575         	4.892
MS.140         	20.535         	4.874
MS.141         	20.495         	4.898
MS.142         	20.45          	4.838
MS.143         	20.41          	4.819
MS.144         	20.37          	4.88
MS.145         	20.33          	4.877
MS.146         	20.29          	4.796
MS.147         	20.25          	4.792
MS.148         	20.21          	4.766
MS.149         	20.17          	4.777
MS.150         	20.13          	4.747
MS.151         	20.085         	4.805
MS.152         	20.045         	4.778
MS.153         	20.005         	4.697
MS.154         	19.965         	4.706
MS.155         	19.925         	4.766
MS.156         	19.89          	4.81
MS.157         	19.85          	4.763
MS.158         	19.81          	4.753
MS.159         	19.77          	4.742
MS.160         	19.73          	4.742
MS.161         	19.69          	4.66
MS.162         	19.65          	4.592
MS.163         	19.61          	4.625
MS.164         	19.57          	4.614
MS.165         	19.535         	4.669
MS.166         	19.495         	4.572
MS.167         	19.455         	4.647
MS.168         	19.415         	4.552
MS.169         	19.375         	4.689
MS.170         	19.34          	4.545
MS.171         	19.3           	4.49
MS.172         	19.26          	4.516
MS.173         	19.225         	4.455
MS.174         	19.185         	4.476
MS.175         	19.145         	4.412
MS.176         	19.11          	4.432
MS.177         	19.07          	4.304
MS.178         	19.03          	4.348
MS.179         	18.995         	4.204
MS.180         	18.955         	4.276
MS.181         	18.92          	4.202
MS.182         	18.88          	4.183
MS.183         	18.84          	4.249
MS.184         	18.805         	4.19
MS.185         	18.765         	4.23
MS.186         	18.73          	4.191
MS.187         	18.69          	4.1
MS.188         	18.655         	4.112
MS.189         	18.615         	4.156
MS.190         	18.58          	4.081
MS.191         	18.545         	4.099
MS.192         	18.505         	4.008
MS.193         	18.47          	4.064
MS.194         	18.43          	4.042
MS.195         	18.395         	4.039
MS.196         	18.36          	3.982
MS.197         	18.32          	3.956
MS.198         	18.285         	3.957
MS.199         	18.25          	3.943
MS.200         	18.21          	3.925
MS.201         	18.175         	3.941
MS.202         	18.14          	3.914
MS.203         	18.105         	3.951
MS.204         	18.065         	3.956
MS.205         	18.03          	3.862
MS.206         	17.995         	3.878
MS.207         	17.96          	3.86
MS.208         	17.925         	3.812
MS.209         	17.885         	3.815
MS.210         	17.85          	3.792
MS.211         	17.815         	3.805
MS.212         	17.78          	3.772
MS.213         	17.745         	3.821
MS.214         	17.71          	3.772
MS.215         	17.675         	3.83
MS.216         	17.64          	3.788
MS.217         	17.605         	3.749
MS.218         	17.57          	3.735
MS.219         	17.535         	3.671
MS.220         	17.5           	3.738
MS.221         	17.465         	3.702
MS.222         	17.43          	3.758
MS.223         	17.395         	3.643
MS.224         	17.36          	3.682
MS.225         	17.325         	3.685
MS.226         	17.29          	3.568
MS.227         	17.255         	3.505
MS.228         	17.22          	3.546
MS.229         	17.185         	3.518
MS.230         	17.15          	3.495
MS.231         	17.115         	3.478
MS.232         	17.085         	3.396
MS.233         	17.05          	3.296
MS.234         	17.015         	3.306
MS.235         	16.98          	3.25
MS.236         	16.945         	3.443
MS.237         	16.915         	3.348
MS.238         	16.88          	3.292
MS.239         	16.845         	3.212
MS.240         	16.81          	3.257
MS.241         	16.78          	3.276
MS.242         	16.745         	3.312
MS.243         	16.71          	3.37
MS.244         	16.68          	3.3
MS.245         	16.645         	3.25
MS.246         	16.61          	3.551
MS.247         	16.58          	3.503
MS.248         	16.545         	3.506
MS.249         	16.51          	3.518
MS.250         	16.48          	3.497
MS.251         	16.445         	3.48
MS.252         	16.415         	3.569
MS.253         	16.38          	3.462
MS.254         	16.35          	3.336
MS.255         	16.315         	3.438
MS.256         	16.285         	3.42
MS.257         	16.25          	3.406
MS.258         	16.22          	3.383
MS.259         	16.185         	3.456
MS.260         	16.155         	3.526
MS.261         	16.12          	3.318
MS.262         	16.09          	3.37
MS.263         	16.055         	3.378
MS.264         	16.025         	3.284
MS.265         	15.99          	3.256
MS.266         	15.96          	3.295
MS.267         	15.93          	3.306
MS.268         	15.895         	3.109
MS.269         	15.865         	3.286
MS.270         	15.835         	3.231
MS.271         	15.8           	3.147
MS.272         	15.77          	3.148
MS.273         	15.74          	3.247
MS.274         	15.705         	3.128
MS.275         	15.675         	3.057
MS.276         	15.645         	3.016
MS.277         	15.615         	3.105
MS.278         	15.58          	3.051
MS.279         	15.55          	3.063
MS.280         	15.52          	3.002
MS.281         	15.49          	2.911
MS.282         	15.455         	2.821
MS.283         	15.425         	2.925
MS.284         	15.395         	2.77
MS.285         	15.365         	2.885
MS.286         	15.335         	2.757
MS.287         	15.305         	2.69
MS.288         	15.275         	2.787
MS.289         	15.245         	2.657
MS.290         	15.21          	2.761
MS.291         	15.18          	2.608
MS.292         	15.15          	2.622
MS.293         	15.12          	2.528
MS.294         	15.09          	2.559
MS.295         	15.06          	2.512
MS.296         	15.03          	2.493
MS.297         	15             	2.568
MS.298         	14.97          	2.416
MS.299         	14.94          	2.552
MS.300         	14.91          	2.508
MS.301         	14.88          	2.465
MS.302         	14.85          	2.404
MS.303         	14.82          	2.438
MS.304         	14.79          	2.404
MS.305         	14.765         	2.365
MS.306         	14.735         	2.264
MS.307         	14.705         	2.289
MS.308         	14.675         	2.252
MS.309         	14.645         	2.264
MS.310         	14.615         	2.24
MS.311         	14.585         	2.22
MS.312         	14.555         	2.231
MS.313         	14.53          	2.158
MS.314         	14.5           	2.16
MS.315         	14.47          	2.013
MS.316         	14.44          	2.092
MS.317         	14.41          	2.05
MS.318         	14.385         	2.014
MS.319         	14.355         	2.148
MS.320         	14.325         	2.073
MS.321         	14.3           	1.995
MS.322         	14.27          	1.953
MS.323         	14.24          	2.021
MS.324         	14.21          	1.938
MS.325         	14.185         	1.939
MS.326         	14.155         	1.956
MS.327         	14.125         	1.852
MS.328         	14.1           	1.778
MS.329         	14.07          	1.829
MS.330         	14.045         	1.857
MS.331         	14.015         	1.721
MS.332         	13.985         	1.771
MS.333         	13.96          	1.606
MS.334         	13.93          	1.633
MS.335         	13.905         	1.513
MS.336         	13.875         	1.68
MS.337         	13.845         	1.556
MS.338         	13.82          	1.588
MS.339         	13.79          	1.42
MS.340         	13.765         	1.436
MS.341         	13.735         	1.468
MS.342         	13.71          	1.488
MS.343         	13.68          	1.415
MS.344         	13.655         	1.474
MS.345         	13.63          	1.362
MS.346         	13.6           	1.35
MS.347         	13.575         	1.376
MS.348         	13.545         	1.282
MS.349         	13.52          	1.209
MS.350         	13.49          	1.283
MS.351         	13.465         	1.315
MS.352         	13.44          	1.219
MS.353         	13.41          	1.312
MS.354         	13.385         	1.246
MS.355         	13.36          	1.321
MS.356         	13.33          	1.188
MS.357         	13.305         	1.294
MS.358         	13.28          	1.113
MS.359         	13.25          	1.278
MS.360         	13.225         	1.175
MS.361         	13.2           	1.097
MS.362         	13.17          	1.204
MS.363         	13.145         	1.185
MS.364         	13.12          	1.17
MS.365         	13.095         	1.215
MS.366         	13.065         	1.113
MS.367         	13.04          	1.144
MS.368         	13.015         	1.118
MS.369         	12.99          	1.125
MS.370         	12.965         	1.14
MS.371         	12.935         	1.143
MS.372         	12.91          	1.039
MS.373         	12.885         	1.074
MS.374         	12.86          	1.077
MS.375         	12.835         	1.068
MS.376         	12.81          	1.071
MS.377         	12.785         	1.09
MS.378         	12.755         	1.044
MS.379         	12.73          	1.077
MS.380         	12.705         	0.983
MS.381         	12.68          	0.964
MS.382         	12.655         	1.059
MS.383         	12.63          	1.077
MS.384         	12.605         	0.893
MS.385         	12.58          	0.967
MS.386         	12.555         	0.919
MS.387         	12.53          	0.948
MS.388         	12.505         	0.909
MS.389         	12.48          	0.903
MS.390         	12.455         	0.904
MS.391         	12.43          	0.931
MS.392         	12.405         	0.942
MS.393         	12.38          	0.879
MS.394         	12.355         	0.825
MS.395         	12.33          	0.872
MS.396         	12.305         	0.856
MS.397         	12.28          	0.84
MS.398         	12.255         	0.898
MS.399         	12.23          	0.844
MS.400         	12.21          	0.85
MS.401         	12.185         	0.8
MS.402         	12.16          	0.891
MS.403         	12.135         	0.758
MS.404         	12.11          	0.804
MS.405         	12.085         	0.817
MS.406         	12.06          	0.718
MS.407         	12.04          	0.793
MS.408         	12.015         	0.773
MS.409         	11.99          	0.813
MS.410         	11.965         	0.753
MS.411         	11.94          	0.752
MS.412         	11.92          	0.76
MS.413         	11.895         	0.762
MS.414         	11.87          	0.738
MS.415         	11.845         	0.718
MS.416         	11.825         	0.753
MS.417         	11.8           	0.623
MS.418         	11.775         	0.551
MS.419         	11.755         	0.585
MS.420         	11.73          	0.549
MS.421         	11.705         	0.573
MS.422         	11.685         	0.555
MS.423         	11.66          	0.57
MS.424         	11.635         	0.547
MS.425         	11.615         	0.577
MS.426         	11.59          	0.549
MS.427         	11.565         	0.511
MS.428         	11.545         	0.521
MS.429         	11.52          	0.502
MS.430         	11.495         	0.514
MS.431         	11.475         	0.505
MS.432         	11.45          	0.491
MS.433         	11.43          	0.491
MS.434         	11.405         	0.496
MS.435         	11.385         	0.532
MS.436         	11.36          	0.515
MS.437         	11.335         	0.446
MS.438         	11.315         	0.432
MS.439         	11.29          	0.428
MS.440         	11.27          	0.402
MS.441         	11.245         	0.438
MS.442         	11.225         	0.443
MS.443         	11.2           	0.416
MS.444         	11.18          	0.427
MS.445         	11.155         	0.421
MS.446         	11.135         	0.419
MS.447         	11.115         	0.414
MS.448         	11.09          	0.38
MS.449         	11.07          	0.366
MS.450         	11.045         	0.39
MS.451         	11.025         	0.377
MS.452         	11             	0.375
MS.453         	10.98          	0.39
MS.454         	10.96          	0.339
MS.455         	10.935         	0.383
MS.456         	10.915         	0.327
MS.457         	10.895         	0.342
MS.458         	10.87          	0.331
MS.459         	10.85          	0.312
MS.460         	10.83          	0.305
MS.461         	10.805         	0.341
MS.462         	10.785         	0.299
MS.463         	10.765         	0.306
MS.464         	10.74          	0.291
MS.465         	10.72          	0.294
MS.466         	10.7           	0.284
MS.467         	10.675         	0.31
MS.468         	10.655         	0.253
MS.469         	10.635         	0.262
MS.470         	10.615         	0.264
MS.471         	10.59          	0.24
MS.472         	10.57          	0.284
MS.473         	10.55          	0.236
MS.474         	10.53          	0.25
MS.475         	10.51          	0.254
MS.476         	10.485         	0.245
MS.477         	10.465         	0.26
MS.478         	10.445         	0.25
MS.479         	10.425         	0.239
MS.480         	10.405         	0.194
MS.481         	10.38          	0.225
MS.482         	10.36          	0.22
MS.483         	10.34          	0.184
MS.484         	10.32          	0.197
MS.485         	10.3           	0.186
MS.486         	10.28          	0.18
MS.487         	10.26          	0.187
MS.488         	10.24          	0.193
MS.489         	10.215         	0.176
MS.490         	10.195         	0.173
MS.491         	10.175         	0.199
MS.492         	10.155         	0.176
MS.493         	10.135         	0.151
MS.494         	10.115         	0.156
MS.495         	10.095         	0.154
MS.496         	10.075         	0.141
MS.497         	10.055         	0.152
MS.498         	10.035         	0.15
MS.499         	10.015         	0.159
MS.500         	9.995          	0.143
MS.501         	9.975          	0.157
MS.502         	9.955          	0.172
MS.503         	9.935          	0.146
