File:              	C:\Qtrac\Data\CKMC01105B.QZD
Name:              	RHS04
Protocol:          	MSCAN-R2
Date:              	5/11/20
Start time:        	10:13:20
Age:               	63
Sex:               	F
Temperature:       	37.8
S/R sites:         	RUln Wr-ADQ
NC/disease:        	NC
Operator:          	CK
Comments:          	MScanFit2
M-SCAN DATA (7.1-1.4m)
Scanpts: 1, 24, 599, 618
Stim. (mA)     	Amp. (mV)
MS.1           	17             	5.049
MS.2           	17             	5.055
MS.3           	17             	5.044
MS.4           	17             	5.059
MS.5           	17             	5.059
MS.6           	17             	5.048
MS.7           	17             	5.035
MS.8           	17             	5.034
MS.9           	17             	5.034
MS.10          	17             	5.037
MS.11          	17             	5.051
MS.12          	17             	5.045
MS.13          	17             	5.056
MS.14          	17             	5.067
MS.15          	17             	5.067
MS.16          	17             	5.057
MS.17          	17             	5.051
MS.18          	17             	5.07
MS.19          	17             	5.063
MS.20          	17             	5.05
MS.21          	17             	5.036
MS.22          	17             	5.043
MS.23          	17             	5.033
MS.24          	16.93          	5.021
MS.25          	16.9           	5.034
MS.26          	16.865         	5.026
MS.27          	16.83          	5.029
MS.28          	16.795         	5.02
MS.29          	16.765         	5.009
MS.30          	16.73          	5.035
MS.31          	16.695         	5.012
MS.32          	16.665         	5.027
MS.33          	16.63          	5.029
MS.34          	16.595         	5.014
MS.35          	16.565         	5.029
MS.36          	16.53          	5.012
MS.37          	16.5           	5.027
MS.38          	16.465         	5.024
MS.39          	16.43          	5.011
MS.40          	16.4           	5.03
MS.41          	16.365         	5.012
MS.42          	16.335         	5
MS.43          	16.3           	5.001
MS.44          	16.27          	5.015
MS.45          	16.235         	5.009
MS.46          	16.205         	5.024
MS.47          	16.17          	5.021
MS.48          	16.14          	5.008
MS.49          	16.105         	5.016
MS.50          	16.075         	5.01
MS.51          	16.04          	5.01
MS.52          	16.01          	4.99
MS.53          	15.98          	4.977
MS.54          	15.945         	4.988
MS.55          	15.915         	4.999
MS.56          	15.88          	4.968
MS.57          	15.85          	4.975
MS.58          	15.82          	4.998
MS.59          	15.785         	4.984
MS.60          	15.755         	4.969
MS.61          	15.725         	4.987
MS.62          	15.695         	4.948
MS.63          	15.66          	4.953
MS.64          	15.63          	4.955
MS.65          	15.6           	4.96
MS.66          	15.57          	4.956
MS.67          	15.535         	4.964
MS.68          	15.505         	4.957
MS.69          	15.475         	4.95
MS.70          	15.445         	4.971
MS.71          	15.415         	4.98
MS.72          	15.38          	4.951
MS.73          	15.35          	4.977
MS.74          	15.32          	4.961
MS.75          	15.29          	4.953
MS.76          	15.26          	4.949
MS.77          	15.23          	4.928
MS.78          	15.2           	4.918
MS.79          	15.17          	4.941
MS.80          	15.14          	4.922
MS.81          	15.11          	4.96
MS.82          	15.08          	4.949
MS.83          	15.045         	4.924
MS.84          	15.015         	4.912
MS.85          	14.985         	4.937
MS.86          	14.955         	4.943
MS.87          	14.93          	4.926
MS.88          	14.9           	4.938
MS.89          	14.87          	4.906
MS.90          	14.84          	4.933
MS.91          	14.81          	4.922
MS.92          	14.78          	4.946
MS.93          	14.75          	4.926
MS.94          	14.72          	4.907
MS.95          	14.69          	4.908
MS.96          	14.66          	4.935
MS.97          	14.63          	4.926
MS.98          	14.605         	4.942
MS.99          	14.575         	4.909
MS.100         	14.545         	4.91
MS.101         	14.515         	4.911
MS.102         	14.485         	4.908
MS.103         	14.455         	4.898
MS.104         	14.43          	4.897
MS.105         	14.4           	4.91
MS.106         	14.37          	4.913
MS.107         	14.34          	4.882
MS.108         	14.315         	4.886
MS.109         	14.285         	4.891
MS.110         	14.255         	4.906
MS.111         	14.23          	4.903
MS.112         	14.2           	4.893
MS.113         	14.17          	4.891
MS.114         	14.145         	4.897
MS.115         	14.115         	4.891
MS.116         	14.085         	4.901
MS.117         	14.06          	4.894
MS.118         	14.03          	4.89
MS.119         	14             	4.87
MS.120         	13.975         	4.865
MS.121         	13.945         	4.894
MS.122         	13.92          	4.883
MS.123         	13.89          	4.863
MS.124         	13.865         	4.891
MS.125         	13.835         	4.871
MS.126         	13.805         	4.876
MS.127         	13.78          	4.855
MS.128         	13.75          	4.883
MS.129         	13.725         	4.875
MS.130         	13.695         	4.865
MS.131         	13.67          	4.891
MS.132         	13.645         	4.879
MS.133         	13.615         	4.856
MS.134         	13.59          	4.888
MS.135         	13.56          	4.88
MS.136         	13.535         	4.896
MS.137         	13.505         	4.865
MS.138         	13.48          	4.871
MS.139         	13.455         	4.863
MS.140         	13.425         	4.888
MS.141         	13.4           	4.875
MS.142         	13.375         	4.865
MS.143         	13.345         	4.857
MS.144         	13.32          	4.876
MS.145         	13.295         	4.858
MS.146         	13.265         	4.866
MS.147         	13.24          	4.871
MS.148         	13.215         	4.86
MS.149         	13.185         	4.857
MS.150         	13.16          	4.866
MS.151         	13.135         	4.864
MS.152         	13.11          	4.844
MS.153         	13.08          	4.847
MS.154         	13.055         	4.859
MS.155         	13.03          	4.875
MS.156         	13.005         	4.869
MS.157         	12.975         	4.838
MS.158         	12.95          	4.85
MS.159         	12.925         	4.863
MS.160         	12.9           	4.858
MS.161         	12.875         	4.874
MS.162         	12.85          	4.844
MS.163         	12.825         	4.852
MS.164         	12.795         	4.837
MS.165         	12.77          	4.83
MS.166         	12.745         	4.83
MS.167         	12.72          	4.847
MS.168         	12.695         	4.843
MS.169         	12.67          	4.85
MS.170         	12.645         	4.825
MS.171         	12.62          	4.826
MS.172         	12.595         	4.839
MS.173         	12.57          	4.855
MS.174         	12.545         	4.873
MS.175         	12.52          	4.867
MS.176         	12.495         	4.833
MS.177         	12.47          	4.838
MS.178         	12.445         	4.839
MS.179         	12.42          	4.844
MS.180         	12.395         	4.834
MS.181         	12.37          	4.867
MS.182         	12.345         	4.836
MS.183         	12.32          	4.865
MS.184         	12.295         	4.844
MS.185         	12.27          	4.854
MS.186         	12.245         	4.857
MS.187         	12.22          	4.839
MS.188         	12.195         	4.822
MS.189         	12.175         	4.846
MS.190         	12.15          	4.847
MS.191         	12.125         	4.838
MS.192         	12.1           	4.84
MS.193         	12.075         	4.852
MS.194         	12.05          	4.802
MS.195         	12.03          	4.824
MS.196         	12.005         	4.831
MS.197         	11.98          	4.832
MS.198         	11.955         	4.84
MS.199         	11.93          	4.82
MS.200         	11.91          	4.84
MS.201         	11.885         	4.806
MS.202         	11.86          	4.814
MS.203         	11.835         	4.816
MS.204         	11.815         	4.815
MS.205         	11.79          	4.809
MS.206         	11.765         	4.805
MS.207         	11.74          	4.802
MS.208         	11.72          	4.791
MS.209         	11.695         	4.776
MS.210         	11.67          	4.816
MS.211         	11.65          	4.791
MS.212         	11.625         	4.778
MS.213         	11.6           	4.797
MS.214         	11.58          	4.772
MS.215         	11.555         	4.768
MS.216         	11.535         	4.748
MS.217         	11.51          	4.74
MS.218         	11.485         	4.753
MS.219         	11.465         	4.742
MS.220         	11.44          	4.722
MS.221         	11.42          	4.731
MS.222         	11.395         	4.716
MS.223         	11.375         	4.691
MS.224         	11.35          	4.744
MS.225         	11.325         	4.691
MS.226         	11.305         	4.661
MS.227         	11.28          	4.67
MS.228         	11.26          	4.669
MS.229         	11.235         	4.633
MS.230         	11.215         	4.655
MS.231         	11.19          	4.72
MS.232         	11.17          	4.664
MS.233         	11.145         	4.641
MS.234         	11.125         	4.577
MS.235         	11.105         	4.604
MS.236         	11.08          	4.627
MS.237         	11.06          	4.633
MS.238         	11.035         	4.633
MS.239         	11.015         	4.554
MS.240         	10.99          	4.611
MS.241         	10.97          	4.529
MS.242         	10.95          	4.611
MS.243         	10.925         	4.565
MS.244         	10.905         	4.528
MS.245         	10.885         	4.581
MS.246         	10.86          	4.481
MS.247         	10.84          	4.479
MS.248         	10.82          	4.495
MS.249         	10.795         	4.501
MS.250         	10.775         	4.473
MS.251         	10.755         	4.472
MS.252         	10.73          	4.481
MS.253         	10.71          	4.472
MS.254         	10.69          	4.462
MS.255         	10.67          	4.492
MS.256         	10.645         	4.476
MS.257         	10.625         	4.489
MS.258         	10.605         	4.464
MS.259         	10.585         	4.445
MS.260         	10.56          	4.452
MS.261         	10.54          	4.467
MS.262         	10.52          	4.421
MS.263         	10.5           	4.458
MS.264         	10.475         	4.351
MS.265         	10.455         	4.449
MS.266         	10.435         	4.413
MS.267         	10.415         	4.427
MS.268         	10.395         	4.387
MS.269         	10.375         	4.393
MS.270         	10.35          	4.388
MS.271         	10.33          	4.365
MS.272         	10.31          	4.357
MS.273         	10.29          	4.402
MS.274         	10.27          	4.339
MS.275         	10.25          	4.351
MS.276         	10.23          	4.364
MS.277         	10.21          	4.337
MS.278         	10.19          	4.346
MS.279         	10.17          	4.321
MS.280         	10.145         	4.298
MS.281         	10.125         	4.308
MS.282         	10.105         	4.267
MS.283         	10.085         	4.33
MS.284         	10.065         	4.237
MS.285         	10.045         	4.267
MS.286         	10.025         	4.217
MS.287         	10.005         	4.216
MS.288         	9.985          	4.211
MS.289         	9.965          	4.27
MS.290         	9.945          	4.229
MS.291         	9.925          	4.25
MS.292         	9.905          	4.185
MS.293         	9.885          	4.186
MS.294         	9.865          	4.166
MS.295         	9.845          	4.174
MS.296         	9.83           	4.162
MS.297         	9.81           	4.128
MS.298         	9.79           	4.137
MS.299         	9.77           	4.078
MS.300         	9.75           	4.088
MS.301         	9.73           	4.13
MS.302         	9.71           	4.103
MS.303         	9.69           	4.074
MS.304         	9.67           	4.081
MS.305         	9.65           	3.933
MS.306         	9.635          	3.894
MS.307         	9.615          	3.889
MS.308         	9.595          	3.979
MS.309         	9.575          	3.895
MS.310         	9.555          	3.849
MS.311         	9.535          	4.006
MS.312         	9.52           	3.999
MS.313         	9.5            	3.759
MS.314         	9.48           	3.819
MS.315         	9.46           	3.828
MS.316         	9.44           	3.768
MS.317         	9.425          	3.74
MS.318         	9.405          	3.713
MS.319         	9.385          	3.702
MS.320         	9.365          	3.691
MS.321         	9.35           	3.674
MS.322         	9.33           	3.715
MS.323         	9.31           	3.699
MS.324         	9.295          	3.628
MS.325         	9.275          	3.613
MS.326         	9.255          	3.663
MS.327         	9.235          	3.547
MS.328         	9.22           	3.561
MS.329         	9.2            	3.422
MS.330         	9.18           	3.362
MS.331         	9.165          	3.374
MS.332         	9.145          	3.495
MS.333         	9.125          	3.386
MS.334         	9.11           	3.336
MS.335         	9.09           	3.461
MS.336         	9.07           	3.277
MS.337         	9.055          	3.244
MS.338         	9.035          	3.115
MS.339         	9.02           	3.18
MS.340         	9              	3.239
MS.341         	8.98           	3.013
MS.342         	8.965          	3.05
MS.343         	8.945          	3.038
MS.344         	8.93           	3.022
MS.345         	8.91           	2.985
MS.346         	8.895          	2.974
MS.347         	8.875          	2.977
MS.348         	8.855          	2.837
MS.349         	8.84           	2.911
MS.350         	8.82           	2.833
MS.351         	8.805          	2.855
MS.352         	8.785          	2.841
MS.353         	8.77           	2.826
MS.354         	8.75           	2.793
MS.355         	8.735          	2.79
MS.356         	8.715          	2.795
MS.357         	8.7            	2.723
MS.358         	8.68           	2.743
MS.359         	8.665          	2.681
MS.360         	8.645          	2.632
MS.361         	8.63           	2.595
MS.362         	8.61           	2.608
MS.363         	8.595          	2.588
MS.364         	8.58           	2.665
MS.365         	8.56           	2.504
MS.366         	8.545          	2.509
MS.367         	8.525          	2.49
MS.368         	8.51           	2.513
MS.369         	8.495          	2.463
MS.370         	8.475          	2.46
MS.371         	8.46           	2.485
MS.372         	8.44           	2.458
MS.373         	8.425          	2.226
MS.374         	8.41           	2.311
MS.375         	8.39           	2.321
MS.376         	8.375          	2.302
MS.377         	8.36           	2.38
MS.378         	8.34           	2.197
MS.379         	8.325          	2.288
MS.380         	8.31           	2.235
MS.381         	8.29           	2.22
MS.382         	8.275          	2.147
MS.383         	8.26           	2.166
MS.384         	8.24           	2.103
MS.385         	8.225          	2.199
MS.386         	8.21           	1.946
MS.387         	8.19           	2.114
MS.388         	8.175          	2.101
MS.389         	8.16           	1.991
MS.390         	8.145          	2.009
MS.391         	8.125          	1.824
MS.392         	8.11           	1.769
MS.393         	8.095          	1.929
MS.394         	8.08           	1.771
MS.395         	8.06           	1.724
MS.396         	8.045          	1.721
MS.397         	8.03           	1.602
MS.398         	8.015          	1.653
MS.399         	8              	1.683
MS.400         	7.98           	1.632
MS.401         	7.965          	1.518
MS.402         	7.95           	1.542
MS.403         	7.935          	1.434
MS.404         	7.92           	1.464
MS.405         	7.905          	1.42
MS.406         	7.885          	1.431
MS.407         	7.87           	1.398
MS.408         	7.855          	1.449
MS.409         	7.84           	1.277
MS.410         	7.825          	1.383
MS.411         	7.81           	1.277
MS.412         	7.795          	1.367
MS.413         	7.775          	1.3
MS.414         	7.76           	1.364
MS.415         	7.745          	1.287
MS.416         	7.73           	1.166
MS.417         	7.715          	1.279
MS.418         	7.7            	1.062
MS.419         	7.685          	1.144
MS.420         	7.67           	1.085
MS.421         	7.655          	0.96
MS.422         	7.64           	1.042
MS.423         	7.625          	0.991
MS.424         	7.61           	0.964
MS.425         	7.595          	0.903
MS.426         	7.58           	0.99
MS.427         	7.565          	0.839
MS.428         	7.545          	0.983
MS.429         	7.53           	0.875
MS.430         	7.515          	0.846
MS.431         	7.5            	0.75
MS.432         	7.485          	0.703
MS.433         	7.47           	0.723
MS.434         	7.455          	0.75
MS.435         	7.445          	0.649
MS.436         	7.43           	0.73
MS.437         	7.415          	0.648
MS.438         	7.4            	0.727
MS.439         	7.385          	0.568
MS.440         	7.37           	0.56
MS.441         	7.355          	0.548
MS.442         	7.34           	0.645
MS.443         	7.325          	0.436
MS.444         	7.31           	0.512
MS.445         	7.295          	0.446
MS.446         	7.28           	0.386
MS.447         	7.265          	0.438
MS.448         	7.25           	0.409
MS.449         	7.235          	0.338
MS.450         	7.225          	0.404
MS.451         	7.21           	0.384
MS.452         	7.195          	0.355
MS.453         	7.18           	0.336
MS.454         	7.165          	0.312
MS.455         	7.15           	0.41
MS.456         	7.135          	0.231
MS.457         	7.12           	0.34
MS.458         	7.11           	0.336
MS.459         	7.095          	0.275
MS.460         	7.08           	0.327
MS.461         	7.065          	0.253
MS.462         	7.05           	0.201
MS.463         	7.035          	0.222
MS.464         	7.025          	0.151
MS.465         	7.01           	0.197
MS.466         	6.995          	0.179
MS.467         	6.98           	0.162
MS.468         	6.965          	0.096
MS.469         	6.955          	0.123
MS.470         	6.94           	0.175
MS.471         	6.925          	0.14
MS.472         	6.91           	0.187
MS.473         	6.9            	0.174
MS.474         	6.885          	0.163
MS.475         	6.87           	0.145
MS.476         	6.855          	0.14
MS.477         	6.845          	0.103
MS.478         	6.83           	0.111
MS.479         	6.815          	0.116
MS.480         	6.8            	0.104
MS.481         	6.79           	0.107
MS.482         	6.775          	0.122
MS.483         	6.76           	0.084
MS.484         	6.75           	0.098
MS.485         	6.735          	0.082
MS.486         	6.72           	0.078
MS.487         	6.705          	0.097
MS.488         	6.695          	0.067
MS.489         	6.68           	0.085
MS.490         	6.665          	0.082
MS.491         	6.655          	0.103
MS.492         	6.64           	0.07
MS.493         	6.625          	0.065
MS.494         	6.615          	0.065
MS.495         	6.6            	0.077
MS.496         	6.59           	0.073
MS.497         	6.575          	0.064
MS.498         	6.56           	0.065
MS.499         	6.55           	0.05
MS.500         	6.535          	0.078
MS.501         	6.52           	0.054
MS.502         	6.51           	0.07
MS.503         	6.495          	0.047
