File:              	C:\Qtrac\Data\CKMC01124D.QZD
Name:              	RHS09
Protocol:          	MSCAN-R2
Date:              	24/11/20
Start time:        	14:43:20
Age:               	74
Sex:               	F
Temperature:       	39.0
S/R sites:         	RUln Wr-ADQ
NC/disease:        	NC
Operator:          	CK
Comments:
M-SCAN DATA (8.6-1.7m)
Scanpts: 3, 11, 710, 729
Stim. (mA)     	Amp. (mV)
MS.1           	36             	6.014
MS.2           	36             	6.009
MS.3           	36             	5.998
MS.4           	36             	6.003
MS.5           	36             	6.016
MS.6           	36             	5.997
MS.7           	36             	5.97
MS.8           	36             	6.005
MS.9           	36             	5.994
MS.10          	36             	5.981
MS.11          	36             	6.013
MS.12          	36             	5.995
MS.13          	36             	6.006
MS.14          	36             	5.978
MS.15          	36             	5.991
MS.16          	36             	6.008
MS.17          	36             	6.005
MS.18          	36             	5.978
MS.19          	36             	5.936
MS.20          	36             	5.984
MS.21          	36             	5.945
MS.22          	36             	5.944
MS.23          	36             	5.941
MS.24          	35.855         	5.962
MS.25          	35.785         	5.92
MS.26          	35.715         	5.937
MS.27          	35.64          	5.929
MS.28          	35.57          	5.927
MS.29          	35.5           	5.92
MS.30          	35.43          	5.922
MS.31          	35.36          	5.906
MS.32          	35.285         	5.9
MS.33          	35.215         	5.886
MS.34          	35.145         	5.869
MS.35          	35.075         	5.891
MS.36          	35.005         	5.88
MS.37          	34.935         	5.858
MS.38          	34.865         	5.884
MS.39          	34.795         	5.878
MS.40          	34.725         	5.848
MS.41          	34.66          	5.862
MS.42          	34.59          	5.839
MS.43          	34.52          	5.826
MS.44          	34.45          	5.85
MS.45          	34.38          	5.85
MS.46          	34.315         	5.88
MS.47          	34.245         	5.841
MS.48          	34.175         	5.811
MS.49          	34.105         	5.819
MS.50          	34.04          	5.829
MS.51          	33.97          	5.815
MS.52          	33.905         	5.839
MS.53          	33.835         	5.823
MS.54          	33.77          	5.833
MS.55          	33.7           	5.826
MS.56          	33.635         	5.799
MS.57          	33.565         	5.832
MS.58          	33.5           	5.834
MS.59          	33.43          	5.826
MS.60          	33.365         	5.822
MS.61          	33.3           	5.828
MS.62          	33.23          	5.814
MS.63          	33.165         	5.795
MS.64          	33.1           	5.805
MS.65          	33.035         	5.727
MS.66          	32.965         	5.798
MS.67          	32.9           	5.797
MS.68          	32.835         	5.771
MS.69          	32.77          	5.786
MS.70          	32.705         	5.707
MS.71          	32.64          	5.778
MS.72          	32.575         	5.793
MS.73          	32.51          	5.771
MS.74          	32.445         	5.77
MS.75          	32.38          	5.732
MS.76          	32.315         	5.762
MS.77          	32.25          	5.767
MS.78          	32.185         	5.778
MS.79          	32.12          	5.754
MS.80          	32.055         	5.667
MS.81          	31.995         	5.696
MS.82          	31.93          	5.718
MS.83          	31.865         	5.732
MS.84          	31.8           	5.686
MS.85          	31.74          	5.668
MS.86          	31.675         	5.679
MS.87          	31.61          	5.714
MS.88          	31.55          	5.657
MS.89          	31.485         	5.68
MS.90          	31.42          	5.668
MS.91          	31.36          	5.646
MS.92          	31.295         	5.681
MS.93          	31.235         	5.624
MS.94          	31.17          	5.654
MS.95          	31.11          	5.657
MS.96          	31.045         	5.674
MS.97          	30.985         	5.732
MS.98          	30.925         	5.685
MS.99          	30.86          	5.648
MS.100         	30.8           	5.627
MS.101         	30.74          	5.635
MS.102         	30.675         	5.653
MS.103         	30.615         	5.641
MS.104         	30.555         	5.652
MS.105         	30.495         	5.605
MS.106         	30.435         	5.628
MS.107         	30.37          	5.588
MS.108         	30.31          	5.643
MS.109         	30.25          	5.568
MS.110         	30.19          	5.541
MS.111         	30.13          	5.588
MS.112         	30.07          	5.598
MS.113         	30.01          	5.54
MS.114         	29.95          	5.602
MS.115         	29.89          	5.555
MS.116         	29.83          	5.582
MS.117         	29.77          	5.522
MS.118         	29.71          	5.512
MS.119         	29.65          	5.604
MS.120         	29.59          	5.534
MS.121         	29.535         	5.479
MS.122         	29.475         	5.555
MS.123         	29.415         	5.494
MS.124         	29.355         	5.543
MS.125         	29.3           	5.493
MS.126         	29.24          	5.508
MS.127         	29.18          	5.527
MS.128         	29.125         	5.421
MS.129         	29.065         	5.443
MS.130         	29.005         	5.444
MS.131         	28.95          	5.511
MS.132         	28.89          	5.485
MS.133         	28.835         	5.449
MS.134         	28.775         	5.473
MS.135         	28.72          	5.412
MS.136         	28.66          	5.42
MS.137         	28.605         	5.413
MS.138         	28.545         	5.412
MS.139         	28.49          	5.389
MS.140         	28.43          	5.369
MS.141         	28.375         	5.418
MS.142         	28.32          	5.302
MS.143         	28.26          	5.352
MS.144         	28.205         	5.375
MS.145         	28.15          	5.376
MS.146         	28.095         	5.342
MS.147         	28.035         	5.341
MS.148         	27.98          	5.282
MS.149         	27.925         	5.269
MS.150         	27.87          	5.312
MS.151         	27.815         	5.188
MS.152         	27.76          	5.342
MS.153         	27.7           	5.328
MS.154         	27.645         	5.312
MS.155         	27.59          	5.317
MS.156         	27.535         	5.273
MS.157         	27.48          	5.336
MS.158         	27.425         	5.311
MS.159         	27.37          	5.212
MS.160         	27.315         	5.23
MS.161         	27.265         	5.269
MS.162         	27.21          	5.401
MS.163         	27.155         	5.178
MS.164         	27.1           	5.212
MS.165         	27.045         	5.222
MS.166         	26.99          	5.21
MS.167         	26.935         	5.212
MS.168         	26.885         	5.246
MS.169         	26.83          	5.166
MS.170         	26.775         	5.163
MS.171         	26.725         	5.193
MS.172         	26.67          	5.148
MS.173         	26.615         	5.132
MS.174         	26.565         	5.156
MS.175         	26.51          	5.102
MS.176         	26.455         	5.018
MS.177         	26.405         	5.038
MS.178         	26.35          	5.022
MS.179         	26.3           	5.015
MS.180         	26.245         	5.038
MS.181         	26.195         	5.018
MS.182         	26.14          	4.987
MS.183         	26.09          	4.989
MS.184         	26.035         	4.886
MS.185         	25.985         	4.871
MS.186         	25.935         	5.004
MS.187         	25.88          	4.926
MS.188         	25.83          	4.893
MS.189         	25.78          	4.966
MS.190         	25.725         	4.849
MS.191         	25.675         	4.833
MS.192         	25.625         	4.957
MS.193         	25.57          	4.822
MS.194         	25.52          	4.99
MS.195         	25.47          	4.889
MS.196         	25.42          	4.92
MS.197         	25.37          	4.808
MS.198         	25.32          	4.964
MS.199         	25.265         	4.871
MS.200         	25.215         	4.758
MS.201         	25.165         	4.681
MS.202         	25.115         	4.742
MS.203         	25.065         	4.622
MS.204         	25.015         	4.776
MS.205         	24.965         	4.678
MS.206         	24.915         	4.728
MS.207         	24.865         	4.559
MS.208         	24.815         	4.697
MS.209         	24.765         	4.75
MS.210         	24.72          	4.601
MS.211         	24.67          	4.543
MS.212         	24.62          	4.625
MS.213         	24.57          	4.598
MS.214         	24.52          	4.576
MS.215         	24.47          	4.481
MS.216         	24.425         	4.626
MS.217         	24.375         	4.545
MS.218         	24.325         	4.543
MS.219         	24.275         	4.548
MS.220         	24.23          	4.612
MS.221         	24.18          	4.458
MS.222         	24.13          	4.402
MS.223         	24.085         	4.453
MS.224         	24.035         	4.583
MS.225         	23.985         	4.382
MS.226         	23.94          	4.457
MS.227         	23.89          	4.501
MS.228         	23.845         	4.474
MS.229         	23.795         	4.445
MS.230         	23.75          	4.277
MS.231         	23.7           	4.42
MS.232         	23.655         	4.396
MS.233         	23.605         	4.351
MS.234         	23.56          	4.172
MS.235         	23.51          	4.24
MS.236         	23.465         	4.093
MS.237         	23.42          	4.237
MS.238         	23.37          	4.153
MS.239         	23.325         	4.017
MS.240         	23.28          	4.234
MS.241         	23.23          	4
MS.242         	23.185         	3.835
MS.243         	23.14          	4.04
MS.244         	23.095         	3.994
MS.245         	23.045         	4.169
MS.246         	23             	3.904
MS.247         	22.955         	4.008
MS.248         	22.91          	4.016
MS.249         	22.865         	3.825
MS.250         	22.815         	3.535
MS.251         	22.77          	3.929
MS.252         	22.725         	3.885
MS.253         	22.68          	3.796
MS.254         	22.635         	3.612
MS.255         	22.59          	3.729
MS.256         	22.545         	3.55
MS.257         	22.5           	3.443
MS.258         	22.455         	3.548
MS.259         	22.41          	3.643
MS.260         	22.365         	3.519
MS.261         	22.32          	3.519
MS.262         	22.275         	3.568
MS.263         	22.23          	3.522
MS.264         	22.185         	3.405
MS.265         	22.145         	3.448
MS.266         	22.1           	3.363
MS.267         	22.055         	3.354
MS.268         	22.01          	3.406
MS.269         	21.965         	3.227
MS.270         	21.925         	3.348
MS.271         	21.88          	3.145
MS.272         	21.835         	3.23
MS.273         	21.79          	3.281
MS.274         	21.75          	3.374
MS.275         	21.705         	3.081
MS.276         	21.66          	3.156
MS.277         	21.62          	3.077
MS.278         	21.575         	3.051
MS.279         	21.53          	3.132
MS.280         	21.49          	3.006
MS.281         	21.445         	2.952
MS.282         	21.405         	2.916
MS.283         	21.36          	2.981
MS.284         	21.315         	3.097
MS.285         	21.275         	3.029
MS.286         	21.23          	2.817
MS.287         	21.19          	2.961
MS.288         	21.145         	2.962
MS.289         	21.105         	2.762
MS.290         	21.065         	2.977
MS.291         	21.02          	2.816
MS.292         	20.98          	2.833
MS.293         	20.935         	2.749
MS.294         	20.895         	2.846
MS.295         	20.855         	2.825
MS.296         	20.81          	2.762
MS.297         	20.77          	2.543
MS.298         	20.73          	2.789
MS.299         	20.685         	2.788
MS.300         	20.645         	2.69
MS.301         	20.605         	2.61
MS.302         	20.565         	2.668
MS.303         	20.52          	2.56
MS.304         	20.48          	2.559
MS.305         	20.44          	2.601
MS.306         	20.4           	2.48
MS.307         	20.36          	2.536
MS.308         	20.32          	2.532
MS.309         	20.28          	2.559
MS.310         	20.235         	2.481
MS.311         	20.195         	2.574
MS.312         	20.155         	2.457
MS.313         	20.115         	2.475
MS.314         	20.075         	2.514
MS.315         	20.035         	2.355
MS.316         	19.995         	2.419
MS.317         	19.955         	2.405
MS.318         	19.915         	2.331
MS.319         	19.875         	2.39
MS.320         	19.835         	2.34
MS.321         	19.795         	2.253
MS.322         	19.755         	2.333
MS.323         	19.72          	2.253
MS.324         	19.68          	2.184
MS.325         	19.64          	2.112
MS.326         	19.6           	2.188
MS.327         	19.56          	2.201
MS.328         	19.52          	2.129
MS.329         	19.48          	2.054
MS.330         	19.445         	2.195
MS.331         	19.405         	2.144
MS.332         	19.365         	2.023
MS.333         	19.325         	1.984
MS.334         	19.29          	2.108
MS.335         	19.25          	1.923
MS.336         	19.21          	2.103
MS.337         	19.175         	1.885
MS.338         	19.135         	1.985
MS.339         	19.095         	1.96
MS.340         	19.06          	1.843
MS.341         	19.02          	2.006
MS.342         	18.98          	1.82
MS.343         	18.945         	1.975
MS.344         	18.905         	1.884
MS.345         	18.87          	1.846
MS.346         	18.83          	1.92
MS.347         	18.795         	1.78
MS.348         	18.755         	1.704
MS.349         	18.72          	1.782
MS.350         	18.68          	1.727
MS.351         	18.645         	1.552
MS.352         	18.605         	1.771
MS.353         	18.57          	1.783
MS.354         	18.53          	1.666
MS.355         	18.495         	1.729
MS.356         	18.46          	1.507
MS.357         	18.42          	1.546
MS.358         	18.385         	1.496
MS.359         	18.35          	1.47
MS.360         	18.31          	1.539
MS.361         	18.275         	1.453
MS.362         	18.24          	1.456
MS.363         	18.2           	1.619
MS.364         	18.165         	1.363
MS.365         	18.13          	1.48
MS.366         	18.095         	1.375
MS.367         	18.055         	1.321
MS.368         	18.02          	1.345
MS.369         	17.985         	1.316
MS.370         	17.95          	1.165
MS.371         	17.915         	1.172
MS.372         	17.875         	1.161
MS.373         	17.84          	1.407
MS.374         	17.805         	1.382
MS.375         	17.77          	1.188
MS.376         	17.735         	1.061
MS.377         	17.7           	1.243
MS.378         	17.665         	1.08
MS.379         	17.63          	1.033
MS.380         	17.595         	1.203
MS.381         	17.56          	0.888
MS.382         	17.525         	1.036
MS.383         	17.49          	0.945
MS.384         	17.455         	0.984
MS.385         	17.42          	1.019
MS.386         	17.385         	0.946
MS.387         	17.35          	0.985
MS.388         	17.315         	1.035
MS.389         	17.28          	1.019
MS.390         	17.245         	0.889
MS.391         	17.21          	1
MS.392         	17.175         	0.969
MS.393         	17.14          	0.91
MS.394         	17.105         	0.958
MS.395         	17.075         	0.946
MS.396         	17.04          	0.964
MS.397         	17.005         	0.918
MS.398         	16.97          	0.859
MS.399         	16.935         	0.858
MS.400         	16.905         	0.905
MS.401         	16.87          	0.882
MS.402         	16.835         	0.863
MS.403         	16.8           	0.866
MS.404         	16.77          	0.753
MS.405         	16.735         	0.875
MS.406         	16.7           	0.79
MS.407         	16.67          	0.762
MS.408         	16.635         	0.794
MS.409         	16.6           	0.764
MS.410         	16.57          	0.772
MS.411         	16.535         	0.788
MS.412         	16.505         	0.74
MS.413         	16.47          	0.781
MS.414         	16.435         	0.768
MS.415         	16.405         	0.695
MS.416         	16.37          	0.695
MS.417         	16.34          	0.583
MS.418         	16.305         	0.754
MS.419         	16.275         	0.586
MS.420         	16.24          	0.692
MS.421         	16.21          	0.667
MS.422         	16.175         	0.596
MS.423         	16.145         	0.632
MS.424         	16.11          	0.65
MS.425         	16.08          	0.598
MS.426         	16.045         	0.569
MS.427         	16.015         	0.538
MS.428         	15.985         	0.579
MS.429         	15.95          	0.656
MS.430         	15.92          	0.53
MS.431         	15.885         	0.58
MS.432         	15.855         	0.514
MS.433         	15.825         	0.53
MS.434         	15.79          	0.491
MS.435         	15.76          	0.574
MS.436         	15.73          	0.463
MS.437         	15.7           	0.509
MS.438         	15.665         	0.465
MS.439         	15.635         	0.494
MS.440         	15.605         	0.474
MS.441         	15.575         	0.488
MS.442         	15.54          	0.436
MS.443         	15.51          	0.38
MS.444         	15.48          	0.4
MS.445         	15.45          	0.4
MS.446         	15.42          	0.417
MS.447         	15.385         	0.4
MS.448         	15.355         	0.38
MS.449         	15.325         	0.416
MS.450         	15.295         	0.405
MS.451         	15.265         	0.358
MS.452         	15.235         	0.376
MS.453         	15.205         	0.394
MS.454         	15.175         	0.385
MS.455         	15.145         	0.427
MS.456         	15.11          	0.367
MS.457         	15.08          	0.363
MS.458         	15.05          	0.4
MS.459         	15.02          	0.428
MS.460         	14.99          	0.358
MS.461         	14.96          	0.366
MS.462         	14.93          	0.364
MS.463         	14.9           	0.38
MS.464         	14.875         	0.361
MS.465         	14.845         	0.298
MS.466         	14.815         	0.366
MS.467         	14.785         	0.374
MS.468         	14.755         	0.374
MS.469         	14.725         	0.284
MS.470         	14.695         	0.362
MS.471         	14.665         	0.359
MS.472         	14.635         	0.364
MS.473         	14.605         	0.358
MS.474         	14.58          	0.294
MS.475         	14.55          	0.356
MS.476         	14.52          	0.291
MS.477         	14.49          	0.29
MS.478         	14.46          	0.291
MS.479         	14.435         	0.357
MS.480         	14.405         	0.298
MS.481         	14.375         	0.289
MS.482         	14.345         	0.283
MS.483         	14.32          	0.353
MS.484         	14.29          	0.289
MS.485         	14.26          	0.352
MS.486         	14.23          	0.286
MS.487         	14.205         	0.281
MS.488         	14.175         	0.294
MS.489         	14.145         	0.284
MS.490         	14.12          	0.278
MS.491         	14.09          	0.279
MS.492         	14.065         	0.3
MS.493         	14.035         	0.278
MS.494         	14.005         	0.272
MS.495         	13.98          	0.278
MS.496         	13.95          	0.282
MS.497         	13.925         	0.279
MS.498         	13.895         	0.291
MS.499         	13.865         	0.281
MS.500         	13.84          	0.28
MS.501         	13.81          	0.281
MS.502         	13.785         	0.273
MS.503         	13.755         	0.273
MS.504         	13.73          	0.286
