File:              	C:\Qtrac\Data\Daniel M Sørensen\MScan multicentre study\Data from centres\Newcastle\Processed data\SMC00218B.QZD
Name:              	UK.NEW.NC.4.1
Protocol:          	MSCAN-R2
Date:              	18/2/20
Start time:        	09:54:49
Age:               	49
Sex:               	M
Temperature:       	35.5
S/R sites:         	ADM
NC/disease:        	NC
Operator:          	SM
Comments:
M-SCAN DATA (7.8-2.1m)
Scanpts: 103, 112, 480, 501
Stim. (mA)     	Amp. (mV)
MS.1           	20.5           	10.8
MS.2           	20.5           	10.792
MS.3           	20.5           	10.826
MS.4           	20.5           	10.832
MS.5           	20.5           	10.828
MS.6           	20.5           	10.778
MS.7           	20.5           	10.862
MS.8           	20.5           	10.907
MS.9           	20.5           	10.907
MS.10          	20.5           	10.919
MS.11          	20.5           	10.917
MS.12          	20.5           	10.933
MS.13          	20.5           	10.979
MS.14          	20.5           	10.985
MS.15          	20.5           	11.04
MS.16          	20.5           	11.054
MS.17          	20.5           	11.102
MS.18          	20.5           	11.13
MS.19          	20.5           	11.13
MS.20          	20.5           	11.112
MS.21          	20.5           	11.118
MS.22          	20.5           	11.07
MS.23          	20.5           	11.098
MS.24          	20.417         	11.074
MS.25          	20.377         	11.12
MS.26          	20.337         	11.082
MS.27          	20.295         	11.076
MS.28          	20.255         	11.066
MS.29          	20.215         	11.028
MS.30          	20.175         	11.072
MS.31          	20.135         	11.048
MS.32          	20.095         	11.1
MS.33          	20.055         	11.118
MS.34          	20.015         	11.082
MS.35          	19.975         	11.098
MS.36          	19.935         	11.142
MS.37          	19.895         	11.036
MS.38          	19.855         	11.142
MS.39          	19.815         	11.173
MS.40          	19.775         	11.199
MS.41          	19.735         	11.177
MS.42          	19.695         	11.096
MS.43          	19.657         	11.146
MS.44          	19.618         	11.154
MS.45          	19.577         	11.162
MS.46          	19.54          	11.179
MS.47          	19.5           	11.074
MS.48          	19.46          	11.162
MS.49          	19.422         	11.132
MS.50          	19.382         	11.15
MS.51          	19.345         	11.13
MS.52          	19.305         	11.118
MS.53          	19.267         	11.144
MS.54          	19.23          	11.118
MS.55          	19.19          	11.223
MS.56          	19.153         	11.199
MS.57          	19.115         	11.173
MS.58          	19.075         	11.094
MS.59          	19.038         	11.08
MS.60          	19             	11.257
MS.61          	18.962         	11.267
MS.62          	18.925         	11.263
MS.63          	18.885         	11.263
MS.64          	18.847         	11.215
MS.65          	18.81          	11.249
MS.66          	18.772         	11.263
MS.67          	18.735         	11.225
MS.68          	18.698         	11.279
MS.69          	18.66          	11.279
MS.70          	18.622         	11.303
MS.71          	18.585         	11.305
MS.72          	18.55          	11.289
MS.73          	18.512         	11.138
MS.74          	18.475         	11.217
MS.75          	18.438         	11.273
MS.76          	18.403         	11.213
MS.77          	18.365         	11.233
MS.78          	18.327         	11.265
MS.79          	18.29          	11.221
MS.80          	18.255         	11.203
MS.81          	18.217         	11.237
MS.82          	18.182         	11.247
MS.83          	18.145         	11.293
MS.84          	18.11          	11.243
MS.85          	18.073         	11.287
MS.86          	18.038         	11.291
MS.87          	18             	11.297
MS.88          	17.965         	11.324
MS.89          	17.93          	11.291
MS.90          	17.892         	11.316
MS.91          	17.858         	11.279
MS.92          	17.823         	11.33
MS.93          	17.785         	11.346
MS.94          	17.75          	11.318
MS.95          	17.715         	11.354
MS.96          	17.68          	11.312
MS.97          	17.645         	11.334
MS.98          	17.61          	11.368
MS.99          	17.575         	11.336
MS.100         	17.54          	11.336
MS.101         	17.505         	11.342
MS.102         	17.47          	11.362
MS.103         	17.435         	11.362
MS.104         	17.4           	11.366
MS.105         	17.365         	11.368
MS.106         	17.33          	11.37
MS.107         	17.295         	11.328
MS.108         	17.26          	11.322
MS.109         	17.225         	11.34
MS.110         	17.192         	11.342
MS.111         	17.157         	11.364
MS.112         	17.122         	11.382
MS.113         	17.09          	11.267
MS.114         	17.055         	11.36
MS.115         	17.02          	11.414
MS.116         	16.987         	11.354
MS.117         	16.952         	11.285
MS.118         	16.917         	11.269
MS.119         	16.885         	11.31
MS.120         	16.85          	11.342
MS.121         	16.817         	11.287
MS.122         	16.785         	11.271
MS.123         	16.75          	11.247
MS.124         	16.717         	11.378
MS.125         	16.682         	11.326
MS.126         	16.65          	11.285
MS.127         	16.618         	11.249
MS.128         	16.583         	11.281
MS.129         	16.55          	11.253
MS.130         	16.517         	11.273
MS.131         	16.485         	11.338
MS.132         	16.452         	11.344
MS.133         	16.417         	11.322
MS.134         	16.385         	11.334
MS.135         	16.352         	11.303
MS.136         	16.32          	11.267
MS.137         	16.288         	11.324
MS.138         	16.255         	11.316
MS.139         	16.222         	11.342
MS.140         	16.19          	11.352
MS.141         	16.157         	11.33
MS.142         	16.125         	11.314
MS.143         	16.092         	11.326
MS.144         	16.062         	11.209
MS.145         	16.03          	11.336
MS.146         	15.997         	11.348
MS.147         	15.965         	11.307
MS.148         	15.932         	11.164
MS.149         	15.902         	11.291
MS.150         	15.87          	11.32
MS.151         	15.837         	11.287
MS.152         	15.807         	11.293
MS.153         	15.775         	11.156
MS.154         	15.742         	11.213
MS.155         	15.712         	11.303
MS.156         	15.68          	11.225
MS.157         	15.65          	11.249
MS.158         	15.617         	11.122
MS.159         	15.587         	11.118
MS.160         	15.555         	11.253
MS.161         	15.525         	11.187
MS.162         	15.492         	11.217
MS.163         	15.462         	11.074
MS.164         	15.432         	11.281
MS.165         	15.4           	11.223
MS.166         	15.37          	11.084
MS.167         	15.34          	11.04
MS.168         	15.307         	11.048
MS.169         	15.277         	11.038
MS.170         	15.247         	11.021
MS.171         	15.217         	10.907
MS.172         	15.188         	11.017
MS.173         	15.157         	11.044
MS.174         	15.125         	10.921
MS.175         	15.095         	11.026
MS.176         	15.065         	10.901
MS.177         	15.035         	10.899
MS.178         	15.005         	10.931
MS.179         	14.975         	10.933
MS.180         	14.945         	10.947
MS.181         	14.915         	10.872
MS.182         	14.885         	11.023
MS.183         	14.858         	10.887
MS.184         	14.827         	10.917
MS.185         	14.797         	10.963
MS.186         	14.767         	10.872
MS.187         	14.737         	10.87
MS.188         	14.707         	10.603
MS.189         	14.68          	10.85
MS.190         	14.65          	10.885
MS.191         	14.62          	10.744
MS.192         	14.59          	10.798
MS.193         	14.562         	10.737
MS.194         	14.532         	10.647
MS.195         	14.505         	10.731
MS.196         	14.475         	10.478
MS.197         	14.445         	10.605
MS.198         	14.417         	10.345
MS.199         	14.387         	10.153
MS.200         	14.36          	10.369
MS.201         	14.33          	10.282
MS.202         	14.302         	10.232
MS.203         	14.273         	10.167
MS.204         	14.245         	10.172
MS.205         	14.217         	10.093
MS.206         	14.188         	10.151
MS.207         	14.16          	10.178
MS.208         	14.132         	10.045
MS.209         	14.102         	10.206
MS.210         	14.075         	10.067
MS.211         	14.047         	10.129
MS.212         	14.02          	10.041
MS.213         	13.99          	9.932
MS.214         	13.962         	10.041
MS.215         	13.935         	10.079
MS.216         	13.907         	10.031
MS.217         	13.88          	9.896
MS.218         	13.852         	9.906
MS.219         	13.825         	9.813
MS.220         	13.797         	9.863
MS.221         	13.77          	9.841
MS.222         	13.742         	9.906
MS.223         	13.715         	9.809
MS.224         	13.688         	9.799
MS.225         	13.66          	9.847
MS.226         	13.632         	9.759
MS.227         	13.605         	9.742
MS.228         	13.577         	9.749
MS.229         	13.55          	9.69
MS.230         	13.523         	9.688
MS.231         	13.497         	9.616
MS.232         	13.47          	9.511
MS.233         	13.443         	9.458
MS.234         	13.415         	9.348
MS.235         	13.39          	9.029
MS.236         	13.362         	9.088
MS.237         	13.335         	9.06
MS.238         	13.307         	8.794
MS.239         	13.282         	8.903
MS.240         	13.255         	9.154
MS.241         	13.23          	8.82
MS.242         	13.202         	8.695
MS.243         	13.177         	8.651
MS.244         	13.15          	8.51
MS.245         	13.122         	8.574
MS.246         	13.097         	8.548
MS.247         	13.072         	8.53
MS.248         	13.045         	8.312
MS.249         	13.02          	8.175
MS.250         	12.992         	7.93
MS.251         	12.967         	8.383
MS.252         	12.943         	7.918
MS.253         	12.915         	7.926
MS.254         	12.89          	7.654
MS.255         	12.865         	7.91
MS.256         	12.837         	7.984
MS.257         	12.812         	7.787
MS.258         	12.787         	7.748
MS.259         	12.762         	7.362
MS.260         	12.735         	7.583
MS.261         	12.71          	7.622
MS.262         	12.685         	7.386
MS.263         	12.66          	7.14
MS.264         	12.635         	7.193
MS.265         	12.61          	7.313
MS.266         	12.585         	7.132
MS.267         	12.56          	6.858
MS.268         	12.532         	6.915
MS.269         	12.507         	6.733
MS.270         	12.483         	7.114
MS.271         	12.457         	7.114
MS.272         	12.435         	6.993
MS.273         	12.41          	6.931
MS.274         	12.385         	6.812
MS.275         	12.36          	6.864
MS.276         	12.335         	6.886
MS.277         	12.31          	6.623
MS.278         	12.285         	6.606
MS.279         	12.26          	6.457
MS.280         	12.238         	6.314
MS.281         	12.212         	6.457
MS.282         	12.188         	6.2
MS.283         	12.162         	6.274
MS.284         	12.14          	6.22
MS.285         	12.115         	5.91
MS.286         	12.09          	6.157
MS.287         	12.068         	6.145
MS.288         	12.042         	6.04
MS.289         	12.017         	5.831
MS.290         	11.995         	5.972
MS.291         	11.97          	5.865
MS.292         	11.947         	5.654
MS.293         	11.922         	5.622
MS.294         	11.898         	5.307
MS.295         	11.875         	5.287
MS.296         	11.85          	5.14
MS.297         	11.827         	4.872
MS.298         	11.805         	5.09
MS.299         	11.78          	4.816
MS.300         	11.757         	4.717
MS.301         	11.733         	4.9
MS.302         	11.71          	4.778
MS.303         	11.688         	4.868
MS.304         	11.662         	4.637
MS.305         	11.64          	4.463
MS.306         	11.617         	4.407
MS.307         	11.592         	4.298
MS.308         	11.57          	4.643
MS.309         	11.547         	4.437
MS.310         	11.525         	4.288
MS.311         	11.5           	4.475
MS.312         	11.477         	3.879
MS.313         	11.455         	3.93
MS.314         	11.432         	4.248
MS.315         	11.41          	4.038
MS.316         	11.387         	4.002
MS.317         	11.363         	3.817
MS.318         	11.34          	3.464
MS.319         	11.318         	4.075
MS.320         	11.295         	3.573
MS.321         	11.273         	3.323
MS.322         	11.25          	3.249
MS.323         	11.227         	3.174
MS.324         	11.205         	3.259
MS.325         	11.182         	2.824
MS.326         	11.16          	3.017
MS.327         	11.137         	2.939
MS.328         	11.117         	3.281
MS.329         	11.095         	2.534
MS.330         	11.073         	2.548
MS.331         	11.05          	2.483
MS.332         	11.028         	2.671
MS.333         	11.005         	2.24
MS.334         	10.985         	2.181
MS.335         	10.962         	2.53
MS.336         	10.94          	2.201
MS.337         	10.917         	1.97
MS.338         	10.898         	2.117
MS.339         	10.875         	1.835
MS.340         	10.852         	1.789
MS.341         	10.83          	1.573
MS.342         	10.81          	1.738
MS.343         	10.787         	1.68
MS.344         	10.767         	1.742
MS.345         	10.745         	1.37
MS.346         	10.722         	1.553
MS.347         	10.702         	1.186
MS.348         	10.68          	1.456
MS.349         	10.66          	1.172
MS.350         	10.637         	1.454
MS.351         	10.617         	1.076
MS.352         	10.595         	1.204
MS.353         	10.575         	1.098
MS.354         	10.552         	1.188
MS.355         	10.532         	0.916
MS.356         	10.51          	0.741
MS.357         	10.49          	1.136
MS.358         	10.47          	0.798
MS.359         	10.448         	1.072
MS.360         	10.427         	0.802
MS.361         	10.407         	0.947
MS.362         	10.385         	0.781
MS.363         	10.365         	0.967
MS.364         	10.345         	0.62
MS.365         	10.323         	0.804
MS.366         	10.302         	0.82
MS.367         	10.282         	0.703
MS.368         	10.262         	0.528
MS.369         	10.24          	0.59
MS.370         	10.22          	0.62
MS.371         	10.2           	0.62
MS.372         	10.18          	0.61
MS.373         	10.16          	0.622
MS.374         	10.14          	0.681
MS.375         	10.12          	0.697
MS.376         	10.1           	0.447
MS.377         	10.077         	0.518
MS.378         	10.057         	0.53
MS.379         	10.037         	0.548
MS.380         	10.017         	0.415
MS.381         	9.997          	0.493
MS.382         	9.977          	0.411
MS.383         	9.957          	0.328
MS.384         	9.938          	0.439
MS.385         	9.917          	0.383
MS.386         	9.9            	0.405
MS.387         	9.88           	0.417
MS.388         	9.86           	0.304
MS.389         	9.84           	0.409
MS.390         	9.82           	0.304
MS.391         	9.8            	0.35
MS.392         	9.78           	0.332
MS.393         	9.762          	0.31
MS.394         	9.742          	0.262
MS.395         	9.722          	0.352
MS.396         	9.702          	0.389
MS.397         	9.682          	0.308
MS.398         	9.665          	0.224
MS.399         	9.645          	0.246
MS.400         	9.625          	0.25
MS.401         	9.608          	0.252
MS.402         	9.587          	0.298
MS.403         	9.568          	0.224
MS.404         	9.55           	0.228
MS.405         	9.53           	0.3
MS.406         	9.51           	0.222
MS.407         	9.492          	0.197
MS.408         	9.472          	0.24
MS.409         	9.455          	0.216
MS.410         	9.435          	0.089
MS.411         	9.415          	0.234
MS.412         	9.398          	0.153
MS.413         	9.377          	0.232
MS.414         	9.36           	0.207
MS.415         	9.34           	0.234
MS.416         	9.323          	0.232
MS.417         	9.305          	0.105
MS.418         	9.285          	0.183
MS.419         	9.267          	0.121
MS.420         	9.247          	0.226
MS.421         	9.23           	0.238
MS.422         	9.21           	0.224
MS.423         	9.193          	0.22
MS.424         	9.175          	0.099
MS.425         	9.155          	0.103
MS.426         	9.137          	0.103
MS.427         	9.12           	0.091
MS.428         	9.102          	0.111
MS.429         	9.082          	0.083
MS.430         	9.065          	0.185
MS.431         	9.047          	0.103
MS.432         	9.03           	0.103
MS.433         	9.01           	0.093
MS.434         	8.992          	0.091
MS.435         	8.975          	0.085
MS.436         	8.957          	0.145
MS.437         	8.94           	0.087
MS.438         	8.92           	0.083
MS.439         	8.903          	0.093
MS.440         	8.885          	0.085
MS.441         	8.867          	0.101
MS.442         	8.85           	0.077
MS.443         	8.832          	0.109
MS.444         	8.815          	0.107
MS.445         	8.797          	0.115
MS.446         	8.78           	0.06
MS.447         	8.762          	0.125
MS.448         	8.745          	0.064
MS.449         	8.727          	0.064
MS.450         	8.71           	0.091
MS.451         	8.693          	0.115
MS.452         	8.675          	0.081
MS.453         	8.658          	0.07
MS.454         	8.64           	0.097
MS.455         	8.622          	0.085
MS.456         	8.605          	0.073
MS.457         	8.587          	0.07
MS.458         	8.573          	0.091
MS.459         	8.555          	0.099
MS.460         	8.537          	0.062
MS.461         	8.52           	0.062
MS.462         	8.502          	0.054
MS.463         	8.485          	0.052
MS.464         	8.47           	0.062
MS.465         	8.452          	0.064
MS.466         	8.435          	0.066
MS.467         	8.417          	0.06
MS.468         	8.403          	0.058
MS.469         	8.385          	0.052
MS.470         	8.367          	0.07
MS.471         	8.352          	0.056
MS.472         	8.335          	0.06
MS.473         	8.318          	0.066
MS.474         	8.302          	0.058
MS.475         	8.285          	0.07
MS.476         	8.267          	0.058
MS.477         	8.252          	0.056
MS.478         	8.235          	0.054
MS.479         	8.22           	0.058
MS.480         	8.202          	0.054
MS.481         	8.185          	0.06
MS.482         	8.17           	0.058
MS.483         	8.153          	0.056
MS.484         	8.137          	0.062
MS.485         	8.12           	0.054
MS.486         	8.105          	0.054
MS.487         	8.087          	0.058
MS.488         	8.073          	0.056
MS.489         	8.055          	0.058
MS.490         	8.04           	0.058
MS.491         	8.025          	0.054
MS.492         	8.007          	0.06
MS.493         	7.992          	0.054
MS.494         	7.975          	0.054
MS.495         	7.96           	0.064
MS.496         	7.945          	0.058
