File:              	C:\Qtrac\Data\Daniel M Sørensen\MScan multicentre study\Data from centres\Newcastle\Processed data\SMC00221E.QZD
Name:              	UK.NEW.NC.6.1
Protocol:          	MSCAN-R2
Date:              	21/2/20
Start time:        	12:52:06
Age:               	54
Sex:               	F
Temperature:       	32.1
S/R sites:         	ADM
NC/disease:        	NC
Operator:          	SM
Comments:
M-SCAN DATA (8.3-4.1m)
Scanpts: 3, 7, 378, 387
Stim. (mA)     	Amp. (mV)
MS.1           	25.5           	6.641
MS.2           	25.5           	6.641
MS.3           	25.5           	6.635
MS.4           	25.5           	6.596
MS.5           	25.5           	6.651
MS.6           	25.5           	6.635
MS.7           	25.5           	6.635
MS.8           	25.5           	6.584
MS.9           	25.5           	6.606
MS.10          	25.5           	6.606
MS.11          	25.5           	6.602
MS.12          	25.5           	6.6
MS.13          	25.5           	6.558
MS.14          	25.5           	6.6
MS.15          	25.5           	6.558
MS.16          	25.5           	6.518
MS.17          	25.5           	6.647
MS.18          	25.5           	6.619
MS.19          	25.5           	6.631
MS.20          	25.5           	6.602
MS.21          	25.5           	6.576
MS.22          	25.5           	6.653
MS.23          	25.5           	6.588
MS.24          	25.397         	6.544
MS.25          	25.347         	6.584
MS.26          	25.297         	6.548
MS.27          	25.245         	6.514
MS.28          	25.195         	6.554
MS.29          	25.145         	6.486
MS.30          	25.095         	6.435
MS.31          	25.045         	6.52
MS.32          	24.995         	6.502
MS.33          	24.945         	6.518
MS.34          	24.895         	6.488
MS.35          	24.845         	6.353
MS.36          	24.795         	6.385
MS.37          	24.747         	6.294
MS.38          	24.698         	6.238
MS.39          	24.647         	6.23
MS.40          	24.597         	6.196
MS.41          	24.55          	6.135
MS.42          	24.5           	6.228
MS.43          	24.45          	6.214
MS.44          	24.403         	6.125
MS.45          	24.352         	6.032
MS.46          	24.305         	5.964
MS.47          	24.257         	6.222
MS.48          	24.207         	6.141
MS.49          	24.16          	6.024
MS.50          	24.11          	6.157
MS.51          	24.062         	5.873
MS.52          	24.015         	5.996
MS.53          	23.967         	6.069
MS.54          	23.92          	5.881
MS.55          	23.87          	5.926
MS.56          	23.823         	5.928
MS.57          	23.775         	5.974
MS.58          	23.727         	5.974
MS.59          	23.68          	5.754
MS.60          	23.632         	5.74
MS.61          	23.587         	5.859
MS.62          	23.54          	5.857
MS.63          	23.493         	5.779
MS.64          	23.445         	5.754
MS.65          	23.397         	5.728
MS.66          	23.352         	5.555
MS.67          	23.305         	5.744
MS.68          	23.257         	5.573
MS.69          	23.212         	5.595
MS.70          	23.165         	5.724
MS.71          	23.12          	5.688
MS.72          	23.073         	5.539
MS.73          	23.028         	5.704
MS.74          	22.98          	5.557
MS.75          	22.935         	5.513
MS.76          	22.89          	5.634
MS.77          	22.842         	5.479
MS.78          	22.797         	5.501
MS.79          	22.752         	5.386
MS.80          	22.707         	5.521
MS.81          	22.663         	5.43
MS.82          	22.618         	5.609
MS.83          	22.57          	5.382
MS.84          	22.525         	5.333
MS.85          	22.48          	5.446
MS.86          	22.435         	5.243
MS.87          	22.392         	5.418
MS.88          	22.347         	5.199
MS.89          	22.302         	5.247
MS.90          	22.257         	5.213
MS.91          	22.212         	5.205
MS.92          	22.167         	5.283
MS.93          	22.125         	5.237
MS.94          	22.08          	5.084
MS.95          	22.035         	5.17
MS.96          	21.993         	5.13
MS.97          	21.948         	5.054
MS.98          	21.905         	4.876
MS.99          	21.86          	5.098
MS.100         	21.817         	5.025
MS.101         	21.772         	4.864
MS.102         	21.73          	5.06
MS.103         	21.685         	5.009
MS.104         	21.642         	4.802
MS.105         	21.6           	4.981
MS.106         	21.557         	4.878
MS.107         	21.512         	4.703
MS.108         	21.47          	4.814
MS.109         	21.427         	4.625
MS.110         	21.385         	4.79
MS.111         	21.342         	4.88
MS.112         	21.3           	4.625
MS.113         	21.257         	4.522
MS.114         	21.215         	4.51
MS.115         	21.172         	4.274
MS.116         	21.13          	4.409
MS.117         	21.087         	4.498
MS.118         	21.045         	4.347
MS.119         	21.002         	4.655
MS.120         	20.96          	4.363
MS.121         	20.92          	4.22
MS.122         	20.877         	4.254
MS.123         	20.835         	4.345
MS.124         	20.795         	4.232
MS.125         	20.752         	4.109
MS.126         	20.71          	4.149
MS.127         	20.67          	4.153
MS.128         	20.627         	4.224
MS.129         	20.587         	4.139
MS.130         	20.545         	4.006
MS.131         	20.505         	4.157
MS.132         	20.465         	4.059
MS.133         	20.422         	3.899
MS.134         	20.382         	4.093
MS.135         	20.342         	4
MS.136         	20.3           	3.948
MS.137         	20.26          	4.089
MS.138         	20.22          	3.936
MS.139         	20.18          	3.811
MS.140         	20.14          	3.893
MS.141         	20.1           	3.851
MS.142         	20.06          	3.799
MS.143         	20.02          	3.877
MS.144         	19.98          	3.855
MS.145         	19.94          	3.591
MS.146         	19.9           	3.766
MS.147         	19.86          	3.813
MS.148         	19.82          	3.537
MS.149         	19.78          	3.764
MS.150         	19.74          	3.632
MS.151         	19.7           	3.476
MS.152         	19.663         	3.702
MS.153         	19.622         	3.589
MS.154         	19.583         	3.603
MS.155         	19.545         	3.549
MS.156         	19.505         	3.605
MS.157         	19.465         	3.666
MS.158         	19.427         	3.579
MS.159         	19.387         	3.382
MS.160         	19.35          	3.444
MS.161         	19.31          	3.408
MS.162         	19.272         	3.277
MS.163         	19.235         	3.537
MS.164         	19.195         	3.335
MS.165         	19.157         	3.096
MS.166         	19.12          	3.489
MS.167         	19.08          	3.194
MS.168         	19.042         	3.227
MS.169         	19.005         	3.164
MS.170         	18.967         	3.227
MS.171         	18.927         	3.104
MS.172         	18.89          	3.094
MS.173         	18.852         	3.172
MS.174         	18.815         	2.935
MS.175         	18.778         	2.945
MS.176         	18.74          	2.985
MS.177         	18.702         	3.005
MS.178         	18.665         	3.029
MS.179         	18.628         	2.743
MS.180         	18.59          	2.763
MS.181         	18.555         	2.977
MS.182         	18.517         	2.836
MS.183         	18.48          	2.705
MS.184         	18.442         	2.88
MS.185         	18.405         	2.773
MS.186         	18.37          	2.739
MS.187         	18.333         	2.637
MS.188         	18.295         	2.584
MS.189         	18.26          	2.713
MS.190         	18.222         	2.675
MS.191         	18.188         	2.534
MS.192         	18.15          	2.502
MS.193         	18.115         	2.314
MS.194         	18.077         	2.065
MS.195         	18.042         	2.56
MS.196         	18.005         	2.272
MS.197         	17.97          	2.514
MS.198         	17.932         	2.548
MS.199         	17.897         	2.226
MS.200         	17.862         	2.334
MS.201         	17.827         	2.326
MS.202         	17.79          	2.161
MS.203         	17.755         	2.326
MS.204         	17.72          	2.008
MS.205         	17.685         	2.262
MS.206         	17.65          	2.129
MS.207         	17.612         	1.869
MS.208         	17.577         	2.121
MS.209         	17.542         	2.095
MS.210         	17.507         	1.932
MS.211         	17.472         	2.083
MS.212         	17.438         	1.885
MS.213         	17.403         	1.781
MS.214         	17.37          	1.958
MS.215         	17.335         	1.768
MS.216         	17.3           	1.72
MS.217         	17.265         	1.853
MS.218         	17.23          	1.776
MS.219         	17.195         	1.758
MS.220         	17.163         	1.72
MS.221         	17.128         	1.656
MS.222         	17.092         	1.68
MS.223         	17.06          	1.726
MS.224         	17.025         	1.507
MS.225         	16.99          	1.742
MS.226         	16.958         	1.561
MS.227         	16.922         	1.789
MS.228         	16.89          	1.684
MS.229         	16.855         	1.472
MS.230         	16.823         	1.654
MS.231         	16.788         	1.585
MS.232         	16.755         	1.501
MS.233         	16.72          	1.513
MS.234         	16.688         	1.529
MS.235         	16.655         	1.217
MS.236         	16.62          	1.45
MS.237         	16.587         	1.505
MS.238         	16.555         	1.237
MS.239         	16.522         	1.474
MS.240         	16.487         	1.323
MS.241         	16.455         	1.092
MS.242         	16.422         	1.561
MS.243         	16.39          	1.184
MS.244         	16.358         	1.271
MS.245         	16.325         	1.154
MS.246         	16.292         	1.108
MS.247         	16.26          	1.333
MS.248         	16.227         	1.225
MS.249         	16.195         	0.987
MS.250         	16.163         	1.13
MS.251         	16.13          	1.243
MS.252         	16.097         	0.916
MS.253         	16.065         	1.202
MS.254         	16.032         	0.987
MS.255         	16.003         	0.868
MS.256         	15.97          	0.979
MS.257         	15.938         	0.864
MS.258         	15.905         	1.229
MS.259         	15.875         	0.927
MS.260         	15.842         	0.856
MS.261         	15.81          	0.989
MS.262         	15.78          	0.711
MS.263         	15.747         	0.751
MS.264         	15.715         	0.965
MS.265         	15.685         	0.771
MS.266         	15.652         	1.015
MS.267         	15.622         	0.864
MS.268         	15.59          	0.717
MS.269         	15.56          	0.721
MS.270         	15.527         	0.747
MS.271         	15.497         	0.594
MS.272         	15.467         	0.705
MS.273         	15.435         	0.675
MS.274         	15.405         	0.784
MS.275         	15.375         	0.645
MS.276         	15.342         	0.578
MS.277         	15.312         	0.667
MS.278         	15.282         	0.626
MS.279         	15.252         	0.665
MS.280         	15.22          	0.6
MS.281         	15.19          	0.538
MS.282         	15.16          	0.679
MS.283         	15.13          	0.532
MS.284         	15.1           	0.538
MS.285         	15.07          	0.5
MS.286         	15.04          	0.477
MS.287         	15.01          	0.598
MS.288         	14.98          	0.381
MS.289         	14.95          	0.401
MS.290         	14.92          	0.487
MS.291         	14.89          	0.52
MS.292         	14.86          	0.365
MS.293         	14.83          	0.445
MS.294         	14.8           	0.425
MS.295         	14.77          	0.35
MS.296         	14.742         	0.354
MS.297         	14.712         	0.344
MS.298         	14.682         	0.453
MS.299         	14.652         	0.306
MS.300         	14.625         	0.395
MS.301         	14.595         	0.298
MS.302         	14.565         	0.256
MS.303         	14.537         	0.34
MS.304         	14.507         	0.209
MS.305         	14.477         	0.296
MS.306         	14.45          	0.336
MS.307         	14.42          	0.266
MS.308         	14.392         	0.316
MS.309         	14.362         	0.238
MS.310         	14.335         	0.201
MS.311         	14.305         	0.222
MS.312         	14.278         	0.161
MS.313         	14.25          	0.123
MS.314         	14.22          	0.266
MS.315         	14.193         	0.195
MS.316         	14.162         	0.167
MS.317         	14.135         	0.211
MS.318         	14.108         	0.143
MS.319         	14.08          	0.258
MS.320         	14.05          	0.205
MS.321         	14.023         	0.246
MS.322         	13.995         	0.252
MS.323         	13.967         	0.207
MS.324         	13.94          	0.187
MS.325         	13.91          	0.177
MS.326         	13.882         	0.103
MS.327         	13.855         	0.254
MS.328         	13.827         	0.145
MS.329         	13.8           	0.127
MS.330         	13.773         	0.157
MS.331         	13.745         	0.149
MS.332         	13.717         	0.099
MS.333         	13.69          	0.115
MS.334         	13.662         	0.133
MS.335         	13.635         	0.097
MS.336         	13.608         	0.119
MS.337         	13.58          	0.125
MS.338         	13.555         	0.127
MS.339         	13.528         	0.109
MS.340         	13.5           	0.133
MS.341         	13.472         	0.141
MS.342         	13.445         	0.127
MS.343         	13.42          	0.056
MS.344         	13.392         	0.097
MS.345         	13.365         	0.125
MS.346         	13.34          	0.07
MS.347         	13.312         	0.133
MS.348         	13.285         	0.099
MS.349         	13.26          	0.068
MS.350         	13.233         	0.079
MS.351         	13.205         	0.06
MS.352         	13.18          	0.089
MS.353         	13.153         	0.077
MS.354         	13.127         	0.01
MS.355         	13.1           	0.107
MS.356         	13.075         	0.058
MS.357         	13.047         	0.052
MS.358         	13.023         	0.058
MS.359         	12.997         	0.028
MS.360         	12.97          	0.079
MS.361         	12.945         	0.028
MS.362         	12.917         	0.048
MS.363         	12.892         	0.07
MS.364         	12.867         	0.062
MS.365         	12.842         	0.002
MS.366         	12.815         	0.038
MS.367         	12.79          	0.022
MS.368         	12.765         	0.014
MS.369         	12.74          	0.01
MS.370         	12.712         	-0.004
MS.371         	12.688         	-0.006
MS.372         	12.662         	0.000
MS.373         	12.637         	-0.004
MS.374         	12.613         	-0.004
MS.375         	12.587         	0.004
MS.376         	12.562         	0.014
MS.377         	12.537         	0.002
MS.378         	12.512         	-0.004
MS.379         	12.488         	0.000
MS.380         	12.462         	0.006
MS.381         	12.438         	-0.004
MS.382         	12.412         	-0.002
MS.383         	12.387         	0.004
MS.384         	12.363         	0.002
MS.385         	12.337         	0.026
MS.386         	12.312         	0.004
MS.387         	12.287         	0.000
MS.388         	12.265         	-0.004
MS.389         	12.24          	0.000
MS.390         	12.215         	0.000
MS.391         	12.19          	-0.012
MS.392         	12.167         	-0.004
MS.393         	12.142         	-0.002
MS.394         	12.117         	0.026
MS.395         	12.092         	-0.002
MS.396         	12.07          	-0.002
MS.397         	12.045         	-0.004
MS.398         	12.02          	0.026
MS.399         	11.997         	-0.006
MS.400         	11.972         	-0.002
MS.401         	11.95          	-0.004
MS.402         	11.925         	0.03
MS.403         	11.903         	0.018
MS.404         	11.877         	0.014
MS.405         	11.855         	0.000
MS.406         	11.83          	-0.004
MS.407         	11.807         	-0.002
MS.408         	11.782         	-0.008
MS.409         	11.76          	-0.014
MS.410         	11.735         	0.002
MS.411         	11.712         	0.034
MS.412         	11.69          	0.000
MS.413         	11.665         	-0.002
MS.414         	11.642         	0.02
MS.415         	11.62          	0.02
MS.416         	11.595         	0.016
MS.417         	11.572         	-0.012
MS.418         	11.55          	0.02
MS.419         	11.528         	0.02
MS.420         	11.505         	0.012
MS.421         	11.48          	0.026
MS.422         	11.457         	0.018
MS.423         	11.435         	0.016
MS.424         	11.412         	0.022
MS.425         	11.39          	0.014
MS.426         	11.367         	0.022
MS.427         	11.345         	0.028
MS.428         	11.32          	0.014
MS.429         	11.297         	0.022
MS.430         	11.275         	0.018
MS.431         	11.252         	0.022
MS.432         	11.23          	0.022
MS.433         	11.207         	0.02
MS.434         	11.185         	0.022
MS.435         	11.165         	0.022
MS.436         	11.142         	0.02
MS.437         	11.12          	0.02
MS.438         	11.097         	0.022
MS.439         	11.075         	0.022
MS.440         	11.052         	0.026
MS.441         	11.03          	0.018
MS.442         	11.007         	0.018
MS.443         	10.988         	0.012
MS.444         	10.965         	0.024
MS.445         	10.943         	0.026
MS.446         	10.92          	0.022
MS.447         	10.9           	0.018
MS.448         	10.877         	0.022
MS.449         	10.855         	0.018
MS.450         	10.835         	0.016
MS.451         	10.812         	0.018
MS.452         	10.79          	0.018
MS.453         	10.77          	0.018
MS.454         	10.747         	0.006
MS.455         	10.725         	0.014
MS.456         	10.705         	0.018
MS.457         	10.682         	0.014
MS.458         	10.662         	0.02
MS.459         	10.64          	0.024
MS.460         	10.62          	0.022
MS.461         	10.597         	0.022
MS.462         	10.577         	0.02
MS.463         	10.555         	0.02
MS.464         	10.535         	0.024
MS.465         	10.512         	0.014
MS.466         	10.492         	0.018
MS.467         	10.472         	0.022
MS.468         	10.45          	0.022
MS.469         	10.43          	0.02
DERIVED EXCITABILITY VARIABLES
Program = QTracP 9/10/2021
Threshold method = 6 (optimised for CAP, using data for present condition only)
SR method = 1 (using actual data values)
6.                 	0.000               	Peak response\(mV)
9.                 	32.1                	Temperature ( C)
17.                	54                  	Age (years)
18.                	2                   	Sex (M=1, F=2)

EXTRA VARIABLES

MScPeak(mV) = 6.59
MScS5(mA) = 14.56
MScS50(mA) = 19.19
MScS95(mA) = 24.72
MScNSteps = 1
MScSteps(%) = 2.5
MScStepMax(%) = 2.5
MScD50 = 59
MScSlope = 3.98
MScDuration(min) = 4.2
MSFTraces = 385
MSFPeakAmp(mV) = 6.63
MSFNUnits = 98
MSFMeanUnitAmp(uV) = 67.6
MSFHuntTime(m) = 1.73
MSFError(%) = 2.91
MSFNLarge = 29.97
MSFMedianAmp(%) = 0.916
MSFMedianAmp(mV) = 0.0607
MSFHalfAmpAmp(%) = 1.22
MSFHalfAmpAmp(mV) = 0.0812
MSFLargestAmp(%) = 3.06
MSFLargestAmp(mV) = 0.203
MSFMeanRS(%) = 1.99
MSFSizeLimit(uV) = 16.6
MSFLimitType = 1
MSFSmallestAmp(uV) = 18.6
MSFOpts = 10106121

EXTRA WAVEFORMS


!MScan Model
!98
	1	12.8	0.3	2
	2	13.07	0.56	2
	3	13.41	0.72	2
	4	13.78	0.62	2
	5	14.25	1.05	2
	6	14.37	0.51	2
	7	14.47	0.53	2
	8	14.59	0.67	2
	9	14.77	0.88	2
