File:              	C:\Qtrac\Data\Daniel M Sørensen\MScan multicentre study\Data from centres\Oslo\IronKey\Oslo_NC_first examination\SZC00428C.QZD
Name:              	NO.OSL.NC.2.1
Protocol:          	MSCAN-R2
Date:              	28/4/20
Start time:        	12:22:31
Age:               	41
Sex:               	F
Temperature:       	29.9
S/R sites:         	Ulnar Wr-ADM2
NC/disease:        	NC2
Operator:          	SZ
Comments:          	Ulnar2
M-SCAN DATA (4.7-1.4m)
Scanpts: 8, 12, 350, 371
Stim. (mA)     	Amp. (mV)
MS.1           	12.5           	9.791
MS.2           	12.5           	9.704
MS.3           	12.5           	9.71
MS.4           	12.5           	9.851
MS.5           	12.5           	9.718
MS.6           	12.5           	9.839
MS.7           	12.5           	9.867
MS.8           	12.5           	9.72
MS.9           	12.5           	9.841
MS.10          	12.5           	9.738
MS.11          	12.5           	9.857
MS.12          	12.5           	9.811
MS.13          	12.5           	9.712
MS.14          	12.5           	9.74
MS.15          	12.5           	9.859
MS.16          	12.5           	9.769
MS.17          	12.5           	9.708
MS.18          	12.5           	9.787
MS.19          	12.5           	9.918
MS.20          	12.5           	9.803
MS.21          	12.5           	9.877
MS.22          	12.5           	9.785
MS.23          	12.45          	9.821
MS.24          	12.425         	9.809
MS.25          	12.4           	9.936
MS.26          	12.375         	9.805
MS.27          	12.35          	9.839
MS.28          	12.325         	9.819
MS.29          	12.302         	9.807
MS.30          	12.278         	9.879
MS.31          	12.252         	9.71
MS.32          	12.227         	9.7
MS.33          	12.202         	9.841
MS.34          	12.18          	9.668
MS.35          	12.155         	9.736
MS.36          	12.13          	9.622
MS.37          	12.108         	9.771
MS.38          	12.082         	9.763
MS.39          	12.057         	9.732
MS.40          	12.035         	9.749
MS.41          	12.01          	9.577
MS.42          	11.985         	9.551
MS.43          	11.962         	9.698
MS.44          	11.938         	9.452
MS.45          	11.915         	9.539
MS.46          	11.89          	9.352
MS.47          	11.867         	9.346
MS.48          	11.842         	9.32
MS.49          	11.82          	9.255
MS.50          	11.795         	9.65
MS.51          	11.773         	9.338
MS.52          	11.747         	9.181
MS.53          	11.725         	8.985
MS.54          	11.702         	9.209
MS.55          	11.677         	9.199
MS.56          	11.655         	9.336
MS.57          	11.632         	8.878
MS.58          	11.608         	9.096
MS.59          	11.585         	9.029
MS.60          	11.562         	8.965
MS.61          	11.54          	8.8
MS.62          	11.515         	8.556
MS.63          	11.492         	8.752
MS.64          	11.47          	8.331
MS.65          	11.447         	8.707
MS.66          	11.425         	8.943
MS.67          	11.403         	8.238
MS.68          	11.377         	8.423
MS.69          	11.355         	8.693
MS.70          	11.332         	8.379
MS.71          	11.31          	8.627
MS.72          	11.287         	8.369
MS.73          	11.265         	8.919
MS.74          	11.242         	8.554
MS.75          	11.22          	8.631
MS.76          	11.197         	8.212
MS.77          	11.175         	8.375
MS.78          	11.153         	8.703
MS.79          	11.13          	8.331
MS.80          	11.108         	8.349
MS.81          	11.087         	7.978
MS.82          	11.065         	8.063
MS.83          	11.042         	7.847
MS.84          	11.02          	8.292
MS.85          	10.997         	8.163
MS.86          	10.975         	7.952
MS.87          	10.955         	7.464
MS.88          	10.932         	7.855
MS.89          	10.91          	7.97
MS.90          	10.887         	8.47
MS.91          	10.867         	7.491
MS.92          	10.845         	7.904
MS.93          	10.823         	7.458
MS.94          	10.802         	7.577
MS.95          	10.78          	7.73
MS.96          	10.76          	7.366
MS.97          	10.738         	7.178
MS.98          	10.715         	7.352
MS.99          	10.695         	7.529
MS.100         	10.672         	7.527
MS.101         	10.653         	7.271
MS.102         	10.63          	6.989
MS.103         	10.61          	6.808
MS.104         	10.587         	7.096
MS.105         	10.568         	7.068
MS.106         	10.545         	7.007
MS.107         	10.525         	6.836
MS.108         	10.502         	6.461
MS.109         	10.483         	6.705
MS.110         	10.462         	6.665
MS.111         	10.44          	6.671
MS.112         	10.42          	6.437
MS.113         	10.4           	6.465
MS.114         	10.377         	6.236
MS.115         	10.358         	6.467
MS.116         	10.337         	6.741
MS.117         	10.318         	6.832
MS.118         	10.295         	6.433
MS.119         	10.275         	6.157
MS.120         	10.255         	6.188
MS.121         	10.235         	6.151
MS.122         	10.212         	6.324
MS.123         	10.193         	6.208
MS.124         	10.172         	6.216
MS.125         	10.153         	5.775
MS.126         	10.132         	5.569
MS.127         	10.113         	5.783
MS.128         	10.092         	5.805
MS.129         	10.073         	6.435
MS.130         	10.052         	5.984
MS.131         	10.032         	5.303
MS.132         	10.012         	5.549
MS.133         	9.992          	5.613
MS.134         	9.972          	5.603
MS.135         	9.952          	5.817
MS.136         	9.932          	5.364
MS.137         	9.912          	5.295
MS.138         	9.892          	5.203
MS.139         	9.872          	5.154
MS.140         	9.852          	5.301
MS.141         	9.832          	4.902
MS.142         	9.812          	4.707
MS.143         	9.792          	5.237
MS.144         	9.775          	4.947
MS.145         	9.755          	5.323
MS.146         	9.735          	4.558
MS.147         	9.715          	4.532
MS.148         	9.695          	4.504
MS.149         	9.677          	4.463
MS.150         	9.657          	4.763
MS.151         	9.637          	4.467
MS.152         	9.62           	4.125
MS.153         	9.6            	4.292
MS.154         	9.58           	4.018
MS.155         	9.562          	4.183
MS.156         	9.542          	4.375
MS.157         	9.523          	4.038
MS.158         	9.505          	3.817
MS.159         	9.485          	3.636
MS.160         	9.465          	3.785
MS.161         	9.448          	3.905
MS.162         	9.427          	3.911
MS.163         	9.41           	3.593
MS.164         	9.39           	3.243
MS.165         	9.372          	3.541
MS.166         	9.352          	3.503
MS.167         	9.335          	3.356
MS.168         	9.315          	3.519
MS.169         	9.297          	3.13
MS.170         	9.278          	3.08
MS.171         	9.26           	3.148
MS.172         	9.242          	3.118
MS.173         	9.222          	3.14
MS.174         	9.205          	3.146
MS.175         	9.188          	3.086
MS.176         	9.167          	2.971
MS.177         	9.15           	2.743
MS.178         	9.132          	3.122
MS.179         	9.113          	3.003
MS.180         	9.095          	3.168
MS.181         	9.077          	2.759
MS.182         	9.057          	2.649
MS.183         	9.04           	2.616
MS.184         	9.023          	2.741
MS.185         	9.005          	2.594
MS.186         	8.988          	2.908
MS.187         	8.967          	2.59
MS.188         	8.95           	2.342
MS.189         	8.932          	2.111
MS.190         	8.915          	2.262
MS.191         	8.898          	2.439
MS.192         	8.88           	2.431
MS.193         	8.863          	2.346
MS.194         	8.845          	2.151
MS.195         	8.825          	1.966
MS.196         	8.807          	1.762
MS.197         	8.79           	2.256
MS.198         	8.773          	2.461
MS.199         	8.755          	1.907
MS.200         	8.738          	2.107
MS.201         	8.72           	1.627
MS.202         	8.702          	1.829
MS.203         	8.685          	1.821
MS.204         	8.67           	2.026
MS.205         	8.653          	1.233
MS.206         	8.635          	1.241
MS.207         	8.617          	1.245
MS.208         	8.6            	1.291
MS.209         	8.582          	1.666
MS.210         	8.565          	1.134
MS.211         	8.547          	1.273
MS.212         	8.53           	1.092
MS.213         	8.515          	1.098
MS.214         	8.497          	1.094
MS.215         	8.48           	1.07
MS.216         	8.462          	1.001
MS.217         	8.448          	1.092
MS.218         	8.43           	0.892
MS.219         	8.412          	0.955
MS.220         	8.395          	0.753
MS.221         	8.38           	0.727
MS.222         	8.363          	1.055
MS.223         	8.345          	1.152
MS.224         	8.33           	0.775
MS.225         	8.312          	0.951
MS.226         	8.295          	0.808
MS.227         	8.28           	0.693
MS.228         	8.262          	0.651
MS.229         	8.245          	0.562
MS.230         	8.23           	0.618
MS.231         	8.212          	0.487
MS.232         	8.198          	0.572
MS.233         	8.18           	0.777
MS.234         	8.165          	0.516
MS.235         	8.148          	0.572
MS.236         	8.132          	0.477
MS.237         	8.115          	0.522
MS.238         	8.1            	0.524
MS.239         	8.082          	0.522
MS.240         	8.068          	0.495
MS.241         	8.05           	0.512
MS.242         	8.035          	0.538
MS.243         	8.017          	0.483
MS.244         	8.002          	0.425
MS.245         	7.987          	0.429
MS.246         	7.97           	0.467
MS.247         	7.955          	0.463
MS.248         	7.938          	0.487
MS.249         	7.922          	0.433
MS.250         	7.907          	0.419
MS.251         	7.89           	0.324
MS.252         	7.875          	0.399
MS.253         	7.86           	0.407
MS.254         	7.845          	0.375
MS.255         	7.827          	0.455
MS.256         	7.812          	0.361
MS.257         	7.797          	0.173
MS.258         	7.782          	0.155
MS.259         	7.765          	0.197
MS.260         	7.75           	0.318
MS.261         	7.735          	0.296
MS.262         	7.72           	0.197
MS.263         	7.705          	0.201
MS.264         	7.688          	0.131
MS.265         	7.672          	0.129
MS.266         	7.657          	0.276
MS.267         	7.642          	0.199
MS.268         	7.628          	0.183
MS.269         	7.612          	0.143
MS.270         	7.597          	0.141
MS.271         	7.582          	0.125
MS.272         	7.567          	0.115
MS.273         	7.552          	0.3
MS.274         	7.535          	0.083
MS.275         	7.52           	0.135
MS.276         	7.505          	0.143
MS.277         	7.49           	0.085
MS.278         	7.475          	0.103
MS.279         	7.462          	0.157
MS.280         	7.447          	0.093
MS.281         	7.432          	0.07
MS.282         	7.418          	0.091
MS.283         	7.402          	0.151
MS.284         	7.387          	0.091
MS.285         	7.372          	0.097
MS.286         	7.357          	0.097
MS.287         	7.342          	0.075
MS.288         	7.327          	0.068
MS.289         	7.312          	0.101
MS.290         	7.3            	0.093
MS.291         	7.285          	0.075
MS.292         	7.27           	0.087
MS.293         	7.255          	0.066
MS.294         	7.24           	0.073
MS.295         	7.227          	0.068
MS.296         	7.212          	0.103
MS.297         	7.197          	0.066
MS.298         	7.182          	0.066
MS.299         	7.168          	0.068
MS.300         	7.155          	0.07
MS.301         	7.14           	0.05
MS.302         	7.125          	0.097
MS.303         	7.112          	0.07
MS.304         	7.097          	0.054
MS.305         	7.082          	0.054
MS.306         	7.07           	0.075
MS.307         	7.055          	0.042
MS.308         	7.04           	0.062
MS.309         	7.027          	0.068
MS.310         	7.012          	0.068
MS.311         	6.997          	0.038
MS.312         	6.985          	0.034
MS.313         	6.97           	0.038
MS.314         	6.957          	0.03
MS.315         	6.942          	0.036
MS.316         	6.93           	0.04
MS.317         	6.915          	0.034
MS.318         	6.902          	0.038
MS.319         	6.887          	0.032
MS.320         	6.875          	0.042
MS.321         	6.86           	0.038
MS.322         	6.847          	0.032
MS.323         	6.832          	0.032
MS.324         	6.82           	0.03
MS.325         	6.805          	0.03
MS.326         	6.793          	0.032
MS.327         	6.777          	0.032
MS.328         	6.765          	0.032
MS.329         	6.75           	0.034
MS.330         	6.737          	0.026
MS.331         	6.725          	0.036
MS.332         	6.71           	0.03
MS.333         	6.697          	0.028
MS.334         	6.685          	0.028
MS.335         	6.67           	0.032
MS.336         	6.657          	0.03
MS.337         	6.645          	0.038
MS.338         	6.63           	0.03
MS.339         	6.617          	0.034
MS.340         	6.605          	0.026
MS.341         	6.59           	0.03
MS.342         	6.577          	0.036
MS.343         	6.565          	0.028
MS.344         	6.552          	0.026
MS.345         	6.537          	0.032
MS.346         	6.525          	0.034
MS.347         	6.512          	0.032
MS.348         	6.5            	0.038
MS.349         	6.487          	0.032
MS.350         	6.472          	0.032
MS.351         	6.46           	0.03
MS.352         	6.447          	0.028
MS.353         	6.435          	0.032
MS.354         	6.422          	0.032
MS.355         	6.41           	0.032
MS.356         	6.398          	0.034
MS.357         	6.382          	0.032
MS.358         	6.37           	0.03
MS.359         	6.358          	0.044
MS.360         	6.345          	0.028
MS.361         	6.332          	0.036
MS.362         	6.32           	0.038
MS.363         	6.307          	0.03
MS.364         	6.295          	0.032
MS.365         	6.282          	0.032
MS.366         	6.27           	0.03
MS.367         	6.257          	0.042
MS.368         	6.245          	0.034
MS.369         	6.233          	0.03
MS.370         	6.22           	0.036
MS.371         	6.207          	0.044
DERIVED EXCITABILITY VARIABLES
Program = QTracP 3/4/2020
Threshold method = 6 (optimised for CAP, using data for present condition only)
SR method = 1 (using actual data values)
6.                 	0.000               	Peak response\(mV)
9.                 	29.9                	Temperature ( C)
17.                	41                  	Age (years)
18.                	2                   	Sex (M=1, F=2)

EXTRA VARIABLES

MScPeak(mV) = 9.76
MScS5(mA) = 8.14
MScS50(mA) = 9.79
MScS95(mA) = 11.74
MScNSteps = 3
MScSteps(%) = 7.6
MScStepMax(%) = 3.4
MScD50 = 41
MScSlope = 5.22
MSFPeakAmp(mV) = 9.76
MSFNUnits = 79
MSFMeanUnitAmp(uV) = 123.5
MSFHuntTime(m) = 1.86
MSFError(%) = 6.42
MSFNLarge = 19.33
MSFMedianAmp(%) = 0.98
MSFMedianAmp(mV) = 0.0956
MSFHalfAmpAmp(%) = 1.33
MSFHalfAmpAmp(mV) = 0.129
MSFLargestAmp(%) = 5.66
MSFLargestAmp(mV) = 0.553
MSFMeanRS(%) = 2.01
MSFOpts = 10106121
MScDuration(min) = 3.3
MSFTraces = 364
MSFSizeLimit(uV) = 25.4
MSFLimitType = 3
MSFSmallestAmp(uV) = 24.5

EXTRA WAVEFORMS


!MScan Model
!79
	1	7.09	0.31	2
	2	7.35	0.28	2
	3	7.65	0.94	2
	4	7.77	0.84	2
	5	7.82	0.76	2
	6	7.9	0.5	2
	7	7.93	0.91	2
	8	8.18	0.92	2
	9	8.23	0.86	2
	10	8.31	1.39	2
	11	8.43	2.05	2
	12	8.46	0.25	2
	13	8.48	0.71	2
	14	8.53	1.14	2
	15	8.58	1.24	2
	16	8.62	1.28	2
	17	8.73	5.32	2
	18	8.87	3.02	2
	19	8.91	1.07	2
	20	8.94	0.98	2
	21	8.96	0.69	2
	22	8.99	0.41	2
	23	9.02	1.09	2
	24	9.05	1.21	2
	25	9.09	0.82	2
	26	9.25	3.11	2.4
	27	9.29	1	2
	28	9.32	0.63	2
	29	9.35	0.98	2
	30	9.38	0.99	2
	31	9.41	0.97	2
	32	9.44	1.04	2
	33	9.47	1	2
	34	9.49	0.75	2
	35	9.51	0.74	2
	36	9.53	0.61	2
	37	9.55	0.65	2
	38	9.57	0.85	2
	39	9.59	0.93	2
	40	9.62	0.81	2
	41	9.64	0.82	2
	42	9.68	1.82	2
	43	9.75	2.5	2
	44	9.82	2.92	2
	45	9.88	1.95	2
	46	9.93	1.35	2
	47	9.98	2.03	2
	48	10.21	5.66	2
	49	10.32	2.65	2
	50	10.39	1.09	2
	51	10.45	0.59	2
	52	10.47	0.66	2
	53	10.49	0.8	2
	54	10.51	0.68	2
	55	10.54	0.56	2
	56	10.56	0.79	2
	57	10.58	0.91	2
	58	10.63	1.52	2
	59	10.69	1.22	2
	60	10.75	1.67	2
	61	10.85	3.27	2
	62	10.97	1.93	2
	63	11.03	1.21	2
	64	11.08	1.33	2
	65	11.13	1.17	2
	66	11.42	2.9	2
	67	11.48	1.22	2
	68	11.52	0.77	2
	69	11.56	0.4	2
	70	11.6	1.01	2
	71	11.69	2.48	2
	72	11.76	1.01	2
	73	11.82	0.85	2
	74	11.85	0.61	2
	75	11.91	0.48	2
	76	11.93	0.26	2
	77	11.95	0.58	2
	78	12.04	1.2	2
	79	12.2	1.05	2

