File:              	C:\Qtrac\Data\Daniel M Sørensen\MScan multicentre study\Data from centres\Oslo\Processed data\SZC00714C.QZD
Name:              	NO.OSL.NC.23.2
Protocol:          	MSCAN-R2
Date:              	14/7/20
Start time:        	15:52:53
Age:               	35
Sex:               	F
Temperature:       	30.7
S/R sites:         	ADM
NC/disease:        	NC23
Operator:          	SZ
Comments:          	Test2
M-SCAN DATA (8.1-2.1m)
Scanpts: 62, 73, 621, 632
Stim. (mA)     	Amp. (mV)
MS.1           	13.5           	9.499
MS.2           	13.5           	9.479
MS.3           	13.5           	9.499
MS.4           	13.5           	9.501
MS.5           	13.5           	9.503
MS.6           	13.5           	9.513
MS.7           	13.5           	9.517
MS.8           	13.5           	9.503
MS.9           	13.5           	9.505
MS.10          	13.5           	9.505
MS.11          	13.5           	9.511
MS.12          	13.5           	9.511
MS.13          	13.5           	9.517
MS.14          	13.5           	9.497
MS.15          	13.5           	9.517
MS.16          	13.5           	9.529
MS.17          	13.5           	9.541
MS.18          	13.5           	9.531
MS.19          	13.5           	9.541
MS.20          	13.5           	9.533
MS.21          	13.5           	9.529
MS.22          	13.5           	9.541
MS.23          	13.5           	9.537
MS.24          	13.445         	9.527
MS.25          	13.42          	9.549
MS.26          	13.392         	9.543
MS.27          	13.365         	9.539
MS.28          	13.34          	9.545
MS.29          	13.312         	9.547
MS.30          	13.285         	9.575
MS.31          	13.26          	9.553
MS.32          	13.233         	9.567
MS.33          	13.205         	9.563
MS.34          	13.18          	9.563
MS.35          	13.153         	9.571
MS.36          	13.127         	9.565
MS.37          	13.1           	9.557
MS.38          	13.075         	9.547
MS.39          	13.047         	9.555
MS.40          	13.023         	9.559
MS.41          	12.997         	9.565
MS.42          	12.97          	9.575
MS.43          	12.945         	9.559
MS.44          	12.92          	9.559
MS.45          	12.892         	9.583
MS.46          	12.867         	9.569
MS.47          	12.842         	9.565
MS.48          	12.815         	9.589
MS.49          	12.79          	9.589
MS.50          	12.765         	9.589
MS.51          	12.74          	9.583
MS.52          	12.715         	9.602
MS.53          	12.688         	9.622
MS.54          	12.662         	9.61
MS.55          	12.637         	9.581
MS.56          	12.613         	9.618
MS.57          	12.587         	9.61
MS.58          	12.562         	9.604
MS.59          	12.537         	9.579
MS.60          	12.512         	9.599
MS.61          	12.488         	9.608
MS.62          	12.462         	9.577
MS.63          	12.438         	9.64
MS.64          	12.412         	9.622
MS.65          	12.387         	9.587
MS.66          	12.363         	9.654
MS.67          	12.337         	9.604
MS.68          	12.312         	9.624
MS.69          	12.29          	9.565
MS.70          	12.265         	9.624
MS.71          	12.24          	9.604
MS.72          	12.215         	9.64
MS.73          	12.19          	9.628
MS.74          	12.167         	9.628
MS.75          	12.142         	9.63
MS.76          	12.117         	9.581
MS.77          	12.092         	9.64
MS.78          	12.07          	9.608
MS.79          	12.045         	9.626
MS.80          	12.023         	9.604
MS.81          	11.997         	9.563
MS.82          	11.972         	9.523
MS.83          	11.95          	9.644
MS.84          	11.925         	9.612
MS.85          	11.903         	9.519
MS.86          	11.877         	9.515
MS.87          	11.855         	9.565
MS.88          	11.83          	9.465
MS.89          	11.807         	9.606
MS.90          	11.782         	9.517
MS.91          	11.76          	9.458
MS.92          	11.738         	9.483
MS.93          	11.712         	9.438
MS.94          	11.69          	9.505
MS.95          	11.665         	9.45
MS.96          	11.642         	9.537
MS.97          	11.62          	9.479
MS.98          	11.597         	9.495
MS.99          	11.572         	9.406
MS.100         	11.55          	9.432
MS.101         	11.528         	9.432
MS.102         	11.505         	9.41
MS.103         	11.48          	9.406
MS.104         	11.457         	9.489
MS.105         	11.435         	9.418
MS.106         	11.412         	9.473
MS.107         	11.39          	9.424
MS.108         	11.367         	9.364
MS.109         	11.345         	9.414
MS.110         	11.322         	9.452
MS.111         	11.297         	9.408
MS.112         	11.275         	9.384
MS.113         	11.252         	9.346
MS.114         	11.23          	9.406
MS.115         	11.207         	9.42
MS.116         	11.188         	9.416
MS.117         	11.165         	9.388
MS.118         	11.142         	9.384
MS.119         	11.12          	9.428
MS.120         	11.097         	9.382
MS.121         	11.075         	9.392
MS.122         	11.052         	9.378
MS.123         	11.03          	9.378
MS.124         	11.007         	9.398
MS.125         	10.988         	9.396
MS.126         	10.965         	9.392
MS.127         	10.943         	9.388
MS.128         	10.92          	9.384
MS.129         	10.9           	9.394
MS.130         	10.877         	9.412
MS.131         	10.855         	9.356
MS.132         	10.835         	9.372
MS.133         	10.812         	9.38
MS.134         	10.79          	9.384
MS.135         	10.77          	9.384
MS.136         	10.747         	9.378
MS.137         	10.725         	9.32
MS.138         	10.705         	9.229
MS.139         	10.682         	9.209
MS.140         	10.662         	9.251
MS.141         	10.64          	9.277
MS.142         	10.62          	9.36
MS.143         	10.597         	9.35
MS.144         	10.577         	9.166
MS.145         	10.555         	9.334
MS.146         	10.535         	9.324
MS.147         	10.515         	9.215
MS.148         	10.492         	9.116
MS.149         	10.472         	9.223
MS.150         	10.45          	9.114
MS.151         	10.43          	9.209
MS.152         	10.41          	9.128
MS.153         	10.387         	9.046
MS.154         	10.367         	9.245
MS.155         	10.347         	9.257
MS.156         	10.325         	9.183
MS.157         	10.305         	9.225
MS.158         	10.285         	9.174
MS.159         	10.265         	9.164
MS.160         	10.245         	9.166
MS.161         	10.222         	9.017
MS.162         	10.202         	9.205
MS.163         	10.182         	9.136
MS.164         	10.162         	9.102
MS.165         	10.142         	8.965
MS.166         	10.122         	9.179
MS.167         	10.102         	9.158
MS.168         	10.082         	9.205
MS.169         	10.06          	9.066
MS.170         	10.04          	9.034
MS.171         	10.02          	9.015
MS.172         	10             	9.031
MS.173         	9.98           	9.154
MS.174         	9.96           	9.048
MS.175         	9.94           	9.034
MS.176         	9.922          	8.979
MS.177         	9.903          	8.995
MS.178         	9.882          	9.056
MS.179         	9.863          	9.181
MS.180         	9.842          	8.981
MS.181         	9.823          	9.046
MS.182         	9.802          	9.029
MS.183         	9.782          	8.979
MS.184         	9.765          	8.985
MS.185         	9.745          	9.019
MS.186         	9.725          	9.042
MS.187         	9.705          	9.015
MS.188         	9.685          	9.072
MS.189         	9.667          	9.009
MS.190         	9.648          	9.001
MS.191         	9.627          	9.005
MS.192         	9.61           	8.909
MS.193         	9.59           	8.967
MS.194         	9.57           	8.911
MS.195         	9.552          	8.911
MS.196         	9.532          	8.832
MS.197         	9.512          	8.971
MS.198         	9.495          	8.814
MS.199         	9.475          	8.907
MS.200         	9.457          	8.77
MS.201         	9.438          	8.772
MS.202         	9.417          	8.758
MS.203         	9.4            	8.878
MS.204         	9.38           	8.891
MS.205         	9.363          	8.762
MS.206         	9.342          	8.766
MS.207         	9.325          	8.705
MS.208         	9.305          	8.697
MS.209         	9.287          	8.794
MS.210         	9.27           	8.679
MS.211         	9.25           	8.687
MS.212         	9.233          	8.679
MS.213         	9.212          	8.625
MS.214         	9.195          	8.681
MS.215         	9.177          	8.641
MS.216         	9.158          	8.576
MS.217         	9.14           	8.691
MS.218         	9.122          	8.657
MS.219         	9.102          	8.649
MS.220         	9.085          	8.566
MS.221         	9.068          	8.586
MS.222         	9.05           	8.588
MS.223         	9.03           	8.737
MS.224         	9.012          	8.578
MS.225         	8.995          	8.5
MS.226         	8.977          	8.645
MS.227         	8.96           	8.554
MS.228         	8.943          	8.643
MS.229         	8.922          	8.492
MS.230         	8.905          	8.665
MS.231         	8.887          	8.536
MS.232         	8.87           	8.637
MS.233         	8.852          	8.482
MS.234         	8.835          	8.468
MS.235         	8.818          	8.55
MS.236         	8.8            	8.484
MS.237         	8.783          	8.451
MS.238         	8.765          	8.433
MS.239         	8.747          	8.431
MS.240         	8.73           	8.484
MS.241         	8.712          	8.466
MS.242         	8.695          	8.425
MS.243         	8.677          	8.453
MS.244         	8.66           	8.405
MS.245         	8.642          	8.461
MS.246         	8.625          	8.52
MS.247         	8.608          	8.367
MS.248         	8.59           	8.403
MS.249         	8.573          	8.327
MS.250         	8.557          	8.536
MS.251         	8.54           	8.453
MS.252         	8.523          	8.437
MS.253         	8.505          	8.415
MS.254         	8.488          	8.425
MS.255         	8.472          	8.415
MS.256         	8.455          	8.339
MS.257         	8.438          	8.437
MS.258         	8.42           	8.333
MS.259         	8.405          	8.393
MS.260         	8.387          	8.419
MS.261         	8.37           	8.304
MS.262         	8.352          	8.506
MS.263         	8.337          	8.397
MS.264         	8.32           	8.427
MS.265         	8.302          	8.453
MS.266         	8.287          	8.331
MS.267         	8.27           	8.498
MS.268         	8.255          	8.474
MS.269         	8.238          	8.474
MS.270         	8.22           	8.464
MS.271         	8.205          	8.355
MS.272         	8.188          	8.459
MS.273         	8.172          	8.441
MS.274         	8.155          	8.441
MS.275         	8.14           	8.427
MS.276         	8.122          	8.435
MS.277         	8.108          	8.417
MS.278         	8.09           	8.409
MS.279         	8.075          	8.347
MS.280         	8.057          	8.343
MS.281         	8.042          	8.361
MS.282         	8.025          	8.286
MS.283         	8.01           	8.395
MS.284         	7.995          	8.389
MS.285         	7.977          	8.417
MS.286         	7.962          	8.379
MS.287         	7.945          	8.333
MS.288         	7.93           	8.377
MS.289         	7.915          	8.393
MS.290         	7.898          	8.365
MS.291         	7.882          	8.353
MS.292         	7.867          	8.327
MS.293         	7.852          	8.308
MS.294         	7.835          	8.353
MS.295         	7.82           	8.357
MS.296         	7.805          	8.29
MS.297         	7.79           	8.312
MS.298         	7.773          	8.359
MS.299         	7.757          	8.393
MS.300         	7.742          	8.006
MS.301         	7.727          	7.99
MS.302         	7.712          	8.401
MS.303         	7.695          	8.357
MS.304         	7.68           	8
MS.305         	7.665          	8.371
MS.306         	7.65           	7.992
MS.307         	7.635          	7.994
MS.308         	7.62           	8.433
MS.309         	7.605          	7.873
MS.310         	7.59           	8.373
MS.311         	7.572          	7.958
MS.312         	7.557          	7.916
MS.313         	7.543          	8.049
MS.314         	7.527          	7.976
MS.315         	7.512          	7.996
MS.316         	7.497          	7.99
MS.317         	7.482          	7.982
MS.318         	7.467          	7.906
MS.319         	7.452          	7.849
MS.320         	7.438          	7.974
MS.321         	7.425          	8.039
MS.322         	7.41           	7.845
MS.323         	7.395          	7.904
MS.324         	7.38           	7.885
MS.325         	7.365          	7.94
MS.326         	7.35           	7.92
MS.327         	7.335          	7.952
MS.328         	7.32           	7.902
MS.329         	7.305          	7.841
MS.330         	7.293          	7.962
MS.331         	7.277          	7.885
MS.332         	7.262          	7.777
MS.333         	7.247          	7.952
MS.334         	7.233          	7.879
MS.335         	7.22           	7.936
MS.336         	7.205          	7.976
MS.337         	7.19           	7.9
MS.338         	7.175          	7.877
MS.339         	7.162          	7.887
MS.340         	7.148          	7.835
MS.341         	7.132          	7.942
MS.342         	7.117          	7.833
MS.343         	7.105          	7.887
MS.344         	7.09           	7.851
MS.345         	7.075          	7.932
MS.346         	7.062          	7.887
MS.347         	7.047          	7.934
MS.348         	7.032          	7.883
MS.349         	7.02           	7.863
MS.350         	7.005          	7.871
MS.351         	6.992          	7.869
MS.352         	6.977          	7.877
MS.353         	6.962          	7.875
MS.354         	6.95           	7.811
MS.355         	6.935          	7.865
MS.356         	6.922          	7.801
MS.357         	6.907          	7.819
MS.358         	6.895          	7.855
MS.359         	6.88           	7.849
MS.360         	6.867          	7.879
MS.361         	6.852          	7.881
MS.362         	6.84           	7.896
MS.363         	6.825          	7.835
MS.364         	6.812          	7.817
MS.365         	6.797          	7.841
MS.366         	6.785          	7.823
MS.367         	6.773          	7.718
MS.368         	6.757          	7.66
MS.369         	6.745          	7.827
MS.370         	6.73           	7.678
MS.371         	6.717          	7.517
MS.372         	6.705          	7.539
MS.373         	6.69           	7.706
MS.374         	6.677          	7.716
MS.375         	6.665          	7.551
MS.376         	6.65           	7.624
MS.377         	6.637          	7.243
MS.378         	6.625          	7.344
MS.379         	6.61           	7.823
MS.380         	6.597          	7.303
MS.381         	6.585          	7.086
MS.382         	6.57           	7.39
MS.383         	6.557          	7.164
MS.384         	6.545          	6.731
MS.385         	6.532          	7.573
MS.386         	6.52           	6.965
MS.387         	6.505          	6.435
MS.388         	6.492          	7.082
MS.389         	6.48           	6.691
MS.390         	6.467          	6.651
MS.391         	6.455          	6.453
MS.392         	6.44           	6.127
MS.393         	6.427          	6.407
MS.394         	6.415          	6.854
MS.395         	6.402          	6.393
MS.396         	6.39           	6.433
MS.397         	6.378          	6.185
MS.398         	6.365          	6.063
MS.399         	6.352          	6.449
MS.400         	6.34           	6.377
MS.401         	6.325          	6.288
MS.402         	6.312          	6.224
MS.403         	6.3            	6.254
MS.404         	6.287          	6.135
MS.405         	6.275          	5.988
MS.406         	6.262          	6.093
MS.407         	6.25           	6.228
MS.408         	6.237          	5.851
MS.409         	6.225          	5.668
MS.410         	6.213          	6.042
MS.411         	6.2            	5.93
MS.412         	6.188          	5.912
MS.413         	6.175          	5.817
MS.414         	6.165          	5.714
MS.415         	6.152          	5.899
MS.416         	6.14           	5.767
MS.417         	6.128          	5.589
MS.418         	6.115          	5.634
MS.419         	6.102          	5.477
MS.420         	6.09           	5.726
MS.421         	6.077          	5.253
MS.422         	6.065          	5.458
MS.423         	6.055          	5.156
MS.424         	6.043          	5.509
MS.425         	6.03           	5.213
MS.426         	6.017          	5.468
MS.427         	6.005          	5.273
MS.428         	5.992          	5.378
MS.429         	5.983          	5.702
MS.430         	5.97           	5.146
MS.431         	5.957          	5.323
MS.432         	5.945          	5.126
MS.433         	5.935          	5.124
MS.434         	5.922          	5.211
MS.435         	5.91           	5.146
MS.436         	5.898          	5.072
MS.437         	5.887          	5.174
MS.438         	5.875          	5.17
MS.439         	5.862          	4.957
MS.440         	5.852          	5.076
MS.441         	5.84           	5.072
MS.442         	5.827          	4.931
MS.443         	5.817          	4.892
MS.444         	5.805          	4.89
MS.445         	5.793          	4.947
MS.446         	5.782          	4.82
MS.447         	5.77           	4.911
MS.448         	5.757          	4.518
MS.449         	5.747          	4.713
MS.450         	5.735          	4.437
MS.451         	5.725          	4.937
MS.452         	5.713          	4.429
MS.453         	5.702          	4.562
MS.454         	5.69           	4.641
MS.455         	5.677          	4.111
MS.456         	5.668          	4.298
MS.457         	5.655          	4.181
MS.458         	5.645          	5.277
MS.459         	5.632          	4.502
MS.460         	5.622          	4.522
MS.461         	5.61           	4.475
MS.462         	5.6            	4.345
MS.463         	5.588          	4.351
MS.464         	5.577          	4.536
MS.465         	5.565          	4.185
MS.466         	5.555          	4.391
MS.467         	5.545          	3.992
MS.468         	5.532          	3.773
MS.469         	5.523          	4.016
MS.470         	5.51           	3.76
MS.471         	5.5            	3.857
MS.472         	5.487          	3.909
MS.473         	5.477          	3.543
MS.474         	5.467          	3.172
MS.475         	5.455          	3.811
MS.476         	5.445          	3.029
MS.477         	5.435          	3.398
MS.478         	5.422          	3.341
MS.479         	5.412          	3.233
MS.480         	5.402          	2.939
MS.481         	5.39           	2.759
MS.482         	5.38           	2.991
MS.483         	5.37           	2.989
MS.484         	5.358          	2.874
MS.485         	5.347          	3.138
MS.486         	5.338          	2.763
MS.487         	5.327          	2.701
MS.488         	5.315          	2.475
MS.489         	5.305          	2.741
MS.490         	5.295          	2.522
MS.491         	5.285          	2.487
MS.492         	5.273          	2.904
MS.493         	5.262          	2.473
MS.494         	5.253          	2.586
MS.495         	5.242          	2.602
MS.496         	5.233          	2.355
MS.497         	5.22           	2.318
MS.498         	5.21           	2.441
MS.499         	5.2            	2.173
MS.500         	5.19           	2.077
