File:              	C:\Qtrac\Data\Daniel M Sørensen\MScan multicentre study\Data from centres\Oslo\Processed data\SZC00608C.QZD
Name:              	NO.OSL.NC.14.2
Protocol:          	MSCAN-R2
Date:              	8/6/20
Start time:        	16:27:33
Age:               	28
Sex:               	F
Temperature:       	30.4
S/R sites:         	ADM
NC/disease:        	NC14
Operator:          	SZ
Comments:          	Test2
M-SCAN DATA (7.3-1.7m)
Scanpts: 11, 22, 505, 523
Stim. (mA)     	Amp. (mV)
MS.1           	18.5           	9.247
MS.2           	18.5           	9.245
MS.3           	18.5           	9.239
MS.4           	18.5           	9.245
MS.5           	18.5           	9.237
MS.6           	18.5           	9.241
MS.7           	18.5           	9.233
MS.8           	18.5           	9.213
MS.9           	18.5           	9.227
MS.10          	18.5           	9.199
MS.11          	18.5           	9.181
MS.12          	18.5           	9.203
MS.13          	18.5           	9.189
MS.14          	18.5           	9.203
MS.15          	18.5           	9.213
MS.16          	18.5           	9.187
MS.17          	18.5           	9.191
MS.18          	18.5           	9.195
MS.19          	18.5           	9.162
MS.20          	18.5           	9.179
MS.21          	18.5           	9.187
MS.22          	18.5           	9.183
MS.23          	18.5           	9.199
MS.24          	18.425         	9.126
MS.25          	18.39          	9.16
MS.26          	18.352         	9.172
MS.27          	18.315         	9.158
MS.28          	18.28          	9.187
MS.29          	18.243         	9.05
MS.30          	18.208         	9.172
MS.31          	18.17          	9.183
MS.32          	18.132         	9.177
MS.33          	18.097         	9.185
MS.34          	18.06          	9.193
MS.35          	18.025         	9.05
MS.36          	17.99          	8.961
MS.37          	17.952         	9.108
MS.38          	17.917         	9.1
MS.39          	17.882         	9.158
MS.40          	17.845         	8.947
MS.41          	17.81          	9.048
MS.42          	17.775         	8.947
MS.43          	17.74          	8.921
MS.44          	17.702         	8.981
MS.45          	17.667         	8.949
MS.46          	17.632         	8.917
MS.47          	17.597         	8.955
MS.48          	17.562         	8.911
MS.49          	17.528         	8.878
MS.50          	17.493         	8.895
MS.51          	17.458         	8.929
MS.52          	17.422         	8.945
MS.53          	17.387         	8.893
MS.54          	17.352         	8.975
MS.55          	17.317         	8.955
MS.56          	17.285         	8.907
MS.57          	17.25          	8.901
MS.58          	17.215         	8.971
MS.59          	17.18          	8.901
MS.60          	17.145         	8.957
MS.61          	17.112         	8.911
MS.62          	17.077         	8.897
MS.63          	17.042         	8.891
MS.64          	17.01          	8.907
MS.65          	16.975         	8.85
MS.66          	16.942         	8.828
MS.67          	16.907         	8.822
MS.68          	16.875         	8.897
MS.69          	16.84          	8.844
MS.70          	16.807         	8.955
MS.71          	16.772         	8.844
MS.72          	16.74          	8.84
MS.73          	16.705         	8.868
MS.74          	16.672         	8.907
MS.75          	16.64          	8.886
MS.76          	16.605         	8.832
MS.77          	16.573         	8.808
MS.78          	16.54          	8.886
MS.79          	16.507         	8.844
MS.80          	16.472         	8.903
MS.81          	16.44          	8.832
MS.82          	16.407         	8.884
MS.83          	16.375         	8.939
MS.84          	16.342         	8.901
MS.85          	16.31          	8.856
MS.86          	16.278         	8.806
MS.87          	16.245         	8.79
MS.88          	16.212         	8.929
MS.89          	16.18          	8.8
MS.90          	16.147         	8.84
MS.91          	16.115         	8.842
MS.92          	16.083         	8.852
MS.93          	16.05          	8.689
MS.94          	16.02          	8.476
MS.95          	15.987         	8.671
MS.96          	15.955         	8.675
MS.97          	15.922         	8.79
MS.98          	15.89          	8.78
MS.99          	15.86          	8.707
MS.100         	15.827         	8.596
MS.101         	15.795         	8.6
MS.102         	15.765         	8.222
MS.103         	15.733         	8.683
MS.104         	15.702         	8.667
MS.105         	15.67          	8.371
MS.106         	15.64          	8.268
MS.107         	15.608         	8.318
MS.108         	15.577         	8.339
MS.109         	15.545         	8.242
MS.110         	15.515         	8.23
MS.111         	15.483         	8.067
MS.112         	15.452         	7.934
MS.113         	15.422         	8.087
MS.114         	15.39          	8.445
MS.115         	15.36          	8.127
MS.116         	15.33          	7.94
MS.117         	15.297         	7.962
MS.118         	15.267         	7.942
MS.119         	15.237         	7.914
MS.120         	15.207         	7.946
MS.121         	15.177         	7.956
MS.122         	15.148         	7.873
MS.123         	15.115         	7.954
MS.124         	15.085         	7.99
MS.125         	15.055         	7.849
MS.126         	15.025         	7.889
MS.127         	14.995         	7.869
MS.128         	14.965         	7.773
MS.129         	14.935         	7.92
MS.130         	14.905         	7.841
MS.131         	14.877         	7.789
MS.132         	14.847         	7.74
MS.133         	14.818         	7.696
MS.134         	14.787         	7.708
MS.135         	14.757         	7.74
MS.136         	14.727         	7.732
MS.137         	14.7           	7.545
MS.138         	14.67          	7.726
MS.139         	14.64          	7.682
MS.140         	14.61          	7.718
MS.141         	14.582         	7.537
MS.142         	14.552         	7.698
MS.143         	14.523         	7.65
MS.144         	14.495         	7.559
MS.145         	14.465         	7.285
MS.146         	14.438         	7.368
MS.147         	14.407         	7.35
MS.148         	14.38          	7.483
MS.149         	14.35          	7.001
MS.150         	14.322         	7.253
MS.151         	14.292         	7.406
MS.152         	14.265         	6.711
MS.153         	14.235         	7.43
MS.154         	14.207         	7.448
MS.155         	14.18          	6.804
MS.156         	14.15          	6.776
MS.157         	14.122         	6.528
MS.158         	14.095         	6.598
MS.159         	14.065         	6.602
MS.160         	14.037         	6.786
MS.161         	14.01          	6.629
MS.162         	13.983         	7.096
MS.163         	13.955         	6.566
MS.164         	13.925         	6.459
MS.165         	13.898         	6.856
MS.166         	13.87          	6.707
MS.167         	13.842         	6.502
MS.168         	13.815         	6.596
MS.169         	13.787         	6.711
MS.170         	13.76          	6.619
MS.171         	13.733         	6.514
MS.172         	13.705         	6.57
MS.173         	13.677         	6.387
MS.174         	13.65          	6.476
MS.175         	13.622         	6.558
MS.176         	13.595         	6.536
MS.177         	13.568         	6.486
MS.178         	13.542         	6.524
MS.179         	13.515         	6.691
MS.180         	13.487         	6.471
MS.181         	13.46          	6.413
MS.182         	13.432         	6.637
MS.183         	13.407         	6.661
MS.184         	13.38          	6.49
MS.185         	13.352         	6.608
MS.186         	13.327         	6.669
MS.187         	13.3           	6.558
MS.188         	13.273         	6.401
MS.189         	13.247         	6.379
MS.190         	13.22          	6.484
MS.191         	13.195         	6.437
MS.192         	13.167         	6.56
MS.193         	13.142         	6.457
MS.194         	13.115         	6.377
MS.195         	13.09          	6.272
MS.196         	13.062         	6.538
MS.197         	13.037         	6.337
MS.198         	13.01          	6.5
MS.199         	12.985         	6.248
MS.200         	12.957         	6.101
MS.201         	12.932         	6.308
MS.202         	12.907         	6.049
MS.203         	12.88          	6.169
MS.204         	12.855         	6.022
MS.205         	12.83          	6.115
MS.206         	12.805         	6.105
MS.207         	12.778         	6.244
MS.208         	12.752         	6.284
MS.209         	12.727         	6.044
MS.210         	12.702         	6.119
MS.211         	12.677         	6.218
MS.212         	12.653         	5.857
MS.213         	12.625         	6.047
MS.214         	12.6           	5.853
MS.215         	12.575         	5.696
MS.216         	12.55          	5.622
MS.217         	12.525         	5.756
MS.218         	12.5           	6.067
MS.219         	12.475         	5.758
MS.220         	12.45          	5.404
MS.221         	12.425         	5.505
MS.222         	12.4           	5.477
MS.223         	12.375         	5.424
MS.224         	12.352         	5.934
MS.225         	12.327         	5.599
MS.226         	12.302         	5.783
MS.227         	12.278         	5.62
MS.228         	12.252         	5.686
MS.229         	12.227         	5.559
MS.230         	12.205         	5.331
MS.231         	12.18          	5.36
MS.232         	12.155         	5.543
MS.233         	12.13          	5.253
MS.234         	12.108         	5.364
MS.235         	12.082         	5.358
MS.236         	12.057         	5.287
MS.237         	12.035         	5.313
MS.238         	12.01          	5.221
MS.239         	11.988         	5.34
MS.240         	11.962         	4.985
MS.241         	11.938         	5.231
MS.242         	11.915         	5.031
MS.243         	11.89          	5.134
MS.244         	11.867         	5.144
MS.245         	11.842         	5.271
MS.246         	11.82          	4.806
MS.247         	11.795         	5.037
MS.248         	11.773         	5.047
MS.249         	11.75          	5.084
MS.250         	11.725         	4.814
MS.251         	11.702         	4.77
MS.252         	11.677         	5.003
MS.253         	11.655         	4.693
MS.254         	11.632         	4.904
MS.255         	11.61          	4.641
MS.256         	11.585         	4.796
MS.257         	11.562         	4.717
MS.258         	11.54          	4.675
MS.259         	11.517         	4.637
MS.260         	11.492         	4.645
MS.261         	11.47          	4.701
MS.262         	11.447         	4.639
MS.263         	11.425         	4.671
MS.264         	11.403         	4.463
MS.265         	11.38          	4.554
MS.266         	11.355         	4.486
MS.267         	11.332         	4.411
MS.268         	11.31          	4.598
MS.269         	11.287         	4.588
MS.270         	11.265         	4.169
MS.271         	11.242         	4.298
MS.272         	11.22          	4.151
MS.273         	11.197         	4.113
MS.274         	11.175         	4.171
MS.275         	11.153         	4.224
MS.276         	11.132         	4.246
MS.277         	11.11          	4.218
MS.278         	11.087         	4.099
MS.279         	11.065         	4.181
MS.280         	11.042         	3.986
MS.281         	11.02          	4.089
MS.282         	10.997         	3.891
MS.283         	10.977         	4.171
MS.284         	10.955         	3.994
MS.285         	10.932         	3.893
MS.286         	10.91          	3.748
MS.287         	10.89          	4.103
MS.288         	10.867         	3.742
MS.289         	10.845         	3.988
MS.290         	10.825         	3.797
MS.291         	10.802         	4.119
MS.292         	10.78          	3.944
MS.293         	10.76          	3.831
MS.294         	10.738         	3.748
MS.295         	10.717         	3.781
MS.296         	10.695         	3.877
MS.297         	10.672         	3.984
MS.298         	10.653         	3.75
MS.299         	10.63          	3.634
MS.300         	10.61          	3.621
MS.301         	10.587         	3.376
MS.302         	10.568         	3.686
MS.303         	10.545         	3.704
MS.304         	10.525         	3.472
MS.305         	10.505         	3.724
MS.306         	10.483         	3.529
MS.307         	10.462         	3.46
MS.308         	10.443         	3.607
MS.309         	10.42          	3.535
MS.310         	10.4           	3.372
MS.311         	10.38          	3.646
MS.312         	10.358         	3.35
MS.313         	10.337         	3.15
MS.314         	10.318         	3.18
MS.315         	10.295         	3.42
MS.316         	10.275         	3.364
MS.317         	10.255         	3.325
MS.318         	10.235         	3.366
MS.319         	10.215         	3.102
MS.320         	10.193         	3.291
MS.321         	10.172         	3.021
MS.322         	10.153         	3.422
MS.323         	10.132         	3.255
MS.324         	10.113         	3.066
MS.325         	10.092         	2.79
MS.326         	10.073         	3.062
MS.327         	10.052         	3.047
MS.328         	10.032         	2.82
MS.329         	10.012         	2.635
MS.330         	9.992          	2.836
MS.331         	9.972          	2.643
MS.332         	9.952          	2.58
MS.333         	9.932          	2.792
MS.334         	9.912          	2.483
MS.335         	9.892          	2.628
MS.336         	9.872          	2.542
MS.337         	9.852          	2.6
MS.338         	9.832          	2.759
MS.339         	9.812          	2.463
MS.340         	9.795          	2.542
MS.341         	9.775          	2.522
MS.342         	9.755          	2.506
MS.343         	9.735          	2.433
MS.344         	9.715          	2.506
MS.345         	9.698          	2.151
MS.346         	9.677          	2.506
MS.347         	9.657          	2.195
MS.348         	9.637          	2.399
MS.349         	9.62           	2.369
MS.350         	9.6            	2.306
MS.351         	9.58           	2.189
MS.352         	9.562          	2.421
MS.353         	9.542          	2.208
MS.354         	9.523          	1.976
MS.355         	9.505          	2.077
MS.356         	9.485          	1.93
MS.357         	9.467          	1.996
MS.358         	9.448          	1.976
MS.359         	9.43           	2.208
MS.360         	9.41           	2.199
MS.361         	9.39           	2.258
MS.362         	9.372          	1.942
MS.363         	9.352          	1.976
MS.364         	9.335          	1.942
MS.365         	9.318          	1.803
MS.366         	9.297          	1.849
MS.367         	9.28           	1.335
MS.368         	9.26           	1.625
MS.369         	9.242          	1.867
MS.370         	9.222          	1.744
MS.371         	9.205          	1.523
MS.372         	9.188          	1.579
MS.373         	9.167          	1.676
MS.374         	9.15           	1.39
MS.375         	9.132          	1.468
MS.376         	9.113          	1.48
MS.377         	9.095          	1.217
MS.378         	9.077          	1.537
MS.379         	9.06           	1.486
MS.380         	9.04           	0.922
MS.381         	9.023          	0.796
MS.382         	9.005          	0.826
MS.383         	8.988          	0.88
MS.384         	8.97           	1.025
MS.385         	8.95           	1.08
MS.386         	8.932          	0.832
MS.387         	8.915          	0.745
MS.388         	8.898          	0.888
MS.389         	8.88           	0.755
MS.390         	8.863          	0.769
MS.391         	8.845          	0.804
MS.392         	8.827          	0.775
MS.393         	8.81           	0.497
MS.394         	8.792          	0.673
MS.395         	8.775          	0.471
MS.396         	8.755          	0.568
MS.397         	8.74           	0.536
MS.398         	8.722          	0.57
MS.399         	8.705          	0.423
MS.400         	8.688          	0.421
MS.401         	8.67           	0.687
MS.402         	8.653          	0.477
MS.403         	8.635          	0.437
MS.404         	8.617          	0.485
MS.405         	8.6            	0.401
MS.406         	8.582          	0.435
MS.407         	8.565          	0.413
MS.408         	8.547          	0.391
MS.409         	8.533          	0.431
MS.410         	8.515          	0.387
MS.411         	8.497          	0.346
MS.412         	8.48           	0.433
MS.413         	8.462          	0.433
MS.414         	8.448          	0.377
MS.415         	8.43           	0.34
MS.416         	8.412          	0.32
MS.417         	8.395          	0.322
MS.418         	8.38           	0.288
MS.419         	8.363          	0.326
MS.420         	8.345          	0.248
MS.421         	8.33           	0.338
MS.422         	8.312          	0.344
MS.423         	8.295          	0.308
MS.424         	8.28           	0.34
MS.425         	8.262          	0.326
MS.426         	8.247          	0.266
MS.427         	8.23           	0.244
MS.428         	8.212          	0.32
MS.429         	8.198          	0.326
MS.430         	8.18           	0.308
MS.431         	8.165          	0.248
MS.432         	8.148          	0.224
MS.433         	8.132          	0.302
MS.434         	8.115          	0.316
MS.435         	8.1            	0.218
MS.436         	8.082          	0.246
MS.437         	8.068          	0.23
MS.438         	8.05           	0.222
MS.439         	8.035          	0.32
MS.440         	8.017          	0.22
MS.441         	8.002          	0.211
MS.442         	7.987          	0.211
MS.443         	7.97           	0.224
MS.444         	7.955          	0.218
MS.445         	7.94           	0.228
MS.446         	7.922          	0.216
MS.447         	7.907          	0.218
MS.448         	7.892          	0.218
MS.449         	7.875          	0.151
MS.450         	7.86           	0.159
MS.451         	7.845          	0.214
MS.452         	7.827          	0.214
MS.453         	7.812          	0.214
MS.454         	7.797          	0.216
MS.455         	7.782          	0.211
MS.456         	7.765          	0.214
MS.457         	7.75           	0.216
MS.458         	7.735          	0.216
MS.459         	7.72           	0.214
MS.460         	7.705          	0.216
MS.461         	7.69           	0.218
MS.462         	7.672          	0.214
MS.463         	7.657          	0.209
MS.464         	7.642          	0.214
MS.465         	7.628          	0.216
MS.466         	7.612          	0.214
MS.467         	7.597          	0.211
MS.468         	7.582          	0.214
MS.469         	7.567          	0.209
MS.470         	7.552          	0.211
MS.471         	7.537          	0.211
MS.472         	7.523          	0.214
MS.473         	7.507          	0.211
MS.474         	7.492          	0.151
MS.475         	7.477          	0.209
MS.476         	7.462          	0.214
MS.477         	7.447          	0.211
MS.478         	7.432          	0.151
MS.479         	7.418          	0.207
MS.480         	7.402          	0.214
MS.481         	7.387          	0.211
MS.482         	7.372          	0.211
MS.483         	7.357          	0.214
MS.484         	7.342          	0.207
MS.485         	7.327          	0.214
MS.486         	7.315          	0.149
MS.487         	7.3            	0.153
MS.488         	7.285          	0.211
MS.489         	7.27           	0.153
MS.490         	7.255          	0.155
MS.491         	7.24           	0.149
MS.492         	7.227          	0.153
MS.493         	7.212          	0.153
MS.494         	7.197          	0.214
MS.495         	7.182          	0.145
MS.496         	7.17           	0.145
MS.497         	7.155          	0.145
MS.498         	7.14           	0.147
MS.499         	7.125          	0.151
MS.500         	7.112          	0.157
MS.501         	7.097          	0.147
