File:              	C:\Qtrac\Data\Daniel M Sørensen\MScan multicentre study\Data from centres\Bucharest\TDLC00127B.QZD
Name:              	RO.BU.NC.1.1
Protocol:          	MSCAN-R2
Date:              	27/1/20
Start time:        	15:10:49
Age:               	30
Sex:               	M
Temperature:       	36.1
S/R sites:         	ADM
NC/disease:        	RONC1.1
Operator:          	TL
Comments:
M-SCAN DATA (9.3-1.3m)
Scanpts: 32, 37, 574, 596
Stim. (mA)     	Amp. (mV)
MS.1           	25             	9.128
MS.2           	25             	9.114
MS.3           	25             	9.114
MS.4           	25             	9.11
MS.5           	25             	9.118
MS.6           	25             	9.116
MS.7           	25             	9.128
MS.8           	25             	9.136
MS.9           	25             	9.16
MS.10          	25             	9.187
MS.11          	25             	9.168
MS.12          	25             	9.11
MS.13          	25             	9.154
MS.14          	25             	9.148
MS.15          	25             	9.158
MS.16          	25             	9.14
MS.17          	25             	9.154
MS.18          	25             	9.144
MS.19          	25             	9.124
MS.20          	25             	9.14
MS.21          	25             	9.148
MS.22          	25             	9.16
MS.23          	25             	9.14
MS.24          	24.9           	9.134
MS.25          	24.85          	9.14
MS.26          	24.8           	9.15
MS.27          	24.75          	9.164
MS.28          	24.702         	9.154
MS.29          	24.653         	9.152
MS.30          	24.602         	9.154
MS.31          	24.555         	9.148
MS.32          	24.505         	9.138
MS.33          	24.455         	9.154
MS.34          	24.407         	9.148
MS.35          	24.358         	9.148
MS.36          	24.31          	9.164
MS.37          	24.26          	9.156
MS.38          	24.212         	9.154
MS.39          	24.165         	9.15
MS.40          	24.115         	9.146
MS.41          	24.067         	9.132
MS.42          	24.02          	9.14
MS.43          	23.972         	9.168
MS.44          	23.925         	9.15
MS.45          	23.875         	9.172
MS.46          	23.827         	9.158
MS.47          	23.78          	9.148
MS.48          	23.733         	9.118
MS.49          	23.685         	9.126
MS.50          	23.637         	9.1
MS.51          	23.59          	9.112
MS.52          	23.545         	9.1
MS.53          	23.497         	9.132
MS.54          	23.45          	9.136
MS.55          	23.403         	9.14
MS.56          	23.358         	9.144
MS.57          	23.31          	9.144
MS.58          	23.262         	9.126
MS.59          	23.217         	9.152
MS.60          	23.17          	9.108
MS.61          	23.125         	9.15
MS.62          	23.077         	9.136
MS.63          	23.032         	9.11
MS.64          	22.985         	9.118
MS.65          	22.94          	9.126
MS.66          	22.895         	9.13
MS.67          	22.847         	9.13
MS.68          	22.802         	9.09
MS.69          	22.757         	9.166
MS.70          	22.712         	9.128
MS.71          	22.665         	9.098
MS.72          	22.62          	9.14
MS.73          	22.575         	9.132
MS.74          	22.53          	9.128
MS.75          	22.485         	9.116
MS.76          	22.44          	9.1
MS.77          	22.395         	9.11
MS.78          	22.35          	9.134
MS.79          	22.307         	9.104
MS.80          	22.262         	9.128
MS.81          	22.217         	9.122
MS.82          	22.172         	9.132
MS.83          	22.127         	9.11
MS.84          	22.085         	9.118
MS.85          	22.04          	9.082
MS.86          	21.995         	9.07
MS.87          	21.952         	9.068
MS.88          	21.907         	9.009
MS.89          	21.865         	9.011
MS.90          	21.82          	9.074
MS.91          	21.778         	9.036
MS.92          	21.735         	9.011
MS.93          	21.69          	9.023
MS.94          	21.647         	8.979
MS.95          	21.605         	8.989
MS.96          	21.56          	8.943
MS.97          	21.517         	9.038
MS.98          	21.475         	8.768
MS.99          	21.432         	9.013
MS.100         	21.39          	8.947
MS.101         	21.345         	8.784
MS.102         	21.302         	8.649
MS.103         	21.26          	8.697
MS.104         	21.217         	8.78
MS.105         	21.175         	8.884
MS.106         	21.135         	8.637
MS.107         	21.092         	8.943
MS.108         	21.05          	8.858
MS.109         	21.007         	8.615
MS.110         	20.965         	8.588
MS.111         	20.922         	8.725
MS.112         	20.882         	8.625
MS.113         	20.84          	8.568
MS.114         	20.797         	8.715
MS.115         	20.757         	8.602
MS.116         	20.715         	8.6
MS.117         	20.675         	8.574
MS.118         	20.632         	8.653
MS.119         	20.592         	8.536
MS.120         	20.55          	8.516
MS.121         	20.51          	8.474
MS.122         	20.467         	8.528
MS.123         	20.427         	8.451
MS.124         	20.387         	8.327
MS.125         	20.345         	8.367
MS.126         	20.305         	8.363
MS.127         	20.265         	8.244
MS.128         	20.225         	8.288
MS.129         	20.182         	8.441
MS.130         	20.142         	8.302
MS.131         	20.102         	8.266
MS.132         	20.062         	8.079
MS.133         	20.022         	8.441
MS.134         	19.983         	8.242
MS.135         	19.942         	8.149
MS.136         	19.903         	8.091
MS.137         	19.862         	8.024
MS.138         	19.823         	8.153
MS.139         	19.785         	8.026
MS.140         	19.745         	8.008
MS.141         	19.705         	8.151
MS.142         	19.665         	8.117
MS.143         	19.627         	7.986
MS.144         	19.587         	7.982
MS.145         	19.547         	8.059
MS.146         	19.51          	8.065
MS.147         	19.47          	7.968
MS.148         	19.43          	7.954
MS.149         	19.392         	7.98
MS.150         	19.352         	8.026
MS.151         	19.315         	8.016
MS.152         	19.275         	7.982
MS.153         	19.237         	7.853
MS.154         	19.2           	8.127
MS.155         	19.16          	7.96
MS.156         	19.122         	7.837
MS.157         	19.085         	7.986
MS.158         	19.047         	7.881
MS.159         	19.007         	7.734
MS.160         	18.97          	7.763
MS.161         	18.932         	7.946
MS.162         	18.895         	7.628
MS.163         	18.858         	7.706
MS.164         	18.82          	7.678
MS.165         	18.782         	7.44
MS.166         	18.745         	7.394
MS.167         	18.708         	7.545
MS.168         	18.67          	7.287
MS.169         	18.632         	7.344
MS.170         	18.595         	7.418
MS.171         	18.557         	7.452
MS.172         	18.52          	7.42
MS.173         	18.483         	7.11
MS.174         	18.448         	7.164
MS.175         	18.41          	7.122
MS.176         	18.372         	7.182
MS.177         	18.335         	7.134
MS.178         	18.3           	7.285
MS.179         	18.262         	7.317
MS.180         	18.227         	7.114
MS.181         	18.19          	7.013
MS.182         	18.153         	7.239
MS.183         	18.118         	7.048
MS.184         	18.08          	6.967
MS.185         	18.045         	7.023
MS.186         	18.01          	7.096
MS.187         	17.972         	6.854
MS.188         	17.938         	6.907
MS.189         	17.903         	6.822
MS.190         	17.865         	6.808
MS.191         	17.83          	6.876
MS.192         	17.795         	6.786
MS.193         	17.757         	6.892
MS.194         	17.722         	6.886
MS.195         	17.688         	6.655
MS.196         	17.653         	6.884
MS.197         	17.618         	6.743
MS.198         	17.583         	6.784
MS.199         	17.547         	6.621
MS.200         	17.512         	6.544
MS.201         	17.477         	6.469
MS.202         	17.442         	6.439
MS.203         	17.407         	6.357
MS.204         	17.372         	6.232
MS.205         	17.337         	6.373
MS.206         	17.302         	6.318
MS.207         	17.267         	6.123
MS.208         	17.235         	6.192
MS.209         	17.2           	6.286
MS.210         	17.165         	6.339
MS.211         	17.13          	6.135
MS.212         	17.097         	6.183
MS.213         	17.062         	6.258
MS.214         	17.028         	5.918
MS.215         	16.995         	6.103
MS.216         	16.96          	6.061
MS.217         	16.927         	6.028
MS.218         	16.892         	5.871
MS.219         	16.86          	5.742
MS.220         	16.825         	5.942
MS.221         	16.792         	5.835
MS.222         	16.757         	5.797
MS.223         	16.725         	5.769
MS.224         	16.69          	5.769
MS.225         	16.657         	5.595
MS.226         	16.625         	5.819
MS.227         	16.59          	5.769
MS.228         	16.557         	5.74
MS.229         	16.525         	5.613
MS.230         	16.493         	5.708
MS.231         	16.46          	5.756
MS.232         	16.425         	5.696
MS.233         	16.392         	5.567
MS.234         	16.36          	5.628
MS.235         	16.327         	5.533
MS.236         	16.295         	5.485
MS.237         	16.262         	5.472
MS.238         	16.23          	5.555
MS.239         	16.198         	5.275
MS.240         	16.165         	5.348
MS.241         	16.132         	5.247
MS.242         	16.1           	5.497
MS.243         	16.067         	5.323
MS.244         	16.038         	5.356
MS.245         	16.005         	5.46
MS.246         	15.972         	5.344
MS.247         	15.94          	5.285
MS.248         	15.91          	5.45
MS.249         	15.877         	5.178
MS.250         	15.845         	5.265
MS.251         	15.812         	5.219
MS.252         	15.782         	5.271
MS.253         	15.75          	5.09
MS.254         	15.72          	5.182
MS.255         	15.688         	5.088
MS.256         	15.657         	5.217
MS.257         	15.625         	5.221
MS.258         	15.595         	4.961
MS.259         	15.562         	5.15
MS.260         	15.532         	5.166
MS.261         	15.5           	4.941
MS.262         	15.47          	5.1
MS.263         	15.438         	5.058
MS.264         	15.407         	5.025
MS.265         	15.377         	5.154
MS.266         	15.347         	4.949
MS.267         	15.315         	4.953
MS.268         	15.285         	4.878
MS.269         	15.255         	5.054
MS.270         	15.225         	4.876
MS.271         	15.193         	4.675
MS.272         	15.162         	4.463
MS.273         	15.132         	4.484
MS.274         	15.102         	4.608
MS.275         	15.072         	4.586
MS.276         	15.042         	4.878
MS.277         	15.012         	4.306
MS.278         	14.983         	4.729
MS.279         	14.952         	4.371
MS.280         	14.922         	4.574
MS.281         	14.892         	4.431
MS.282         	14.862         	4.341
MS.283         	14.832         	4.334
MS.284         	14.802         	4.359
MS.285         	14.775         	4.339
MS.286         	14.745         	4.314
MS.287         	14.715         	4.2
MS.288         	14.685         	4.26
MS.289         	14.657         	4.633
MS.290         	14.627         	4.282
MS.291         	14.597         	4.316
MS.292         	14.568         	3.883
MS.293         	14.54          	4.236
MS.294         	14.51          	4.204
MS.295         	14.483         	4.32
MS.296         	14.452         	4.038
MS.297         	14.422         	4.3
MS.298         	14.395         	4.216
MS.299         	14.365         	4.097
MS.300         	14.337         	4.121
MS.301         	14.31          	4.101
MS.302         	14.28          	4.059
MS.303         	14.252         	4
MS.304         	14.222         	4.141
MS.305         	14.195         	4.063
MS.306         	14.167         	3.928
MS.307         	14.137         	4.149
MS.308         	14.11          	3.879
MS.309         	14.082         	3.944
MS.310         	14.052         	4.181
MS.311         	14.025         	4.061
MS.312         	13.997         	3.96
MS.313         	13.97          	3.515
MS.314         	13.943         	3.901
MS.315         	13.912         	3.883
MS.316         	13.885         	3.672
MS.317         	13.858         	3.768
MS.318         	13.83          	3.964
MS.319         	13.802         	3.756
MS.320         	13.775         	3.807
MS.321         	13.747         	3.813
MS.322         	13.72          	3.402
MS.323         	13.693         	3.523
MS.324         	13.665         	3.712
MS.325         	13.637         	3.499
MS.326         	13.61          	3.335
MS.327         	13.582         	3.329
MS.328         	13.557         	3.71
MS.329         	13.53          	3.309
MS.330         	13.502         	3.126
MS.331         	13.475         	3.287
MS.332         	13.447         	3.124
MS.333         	13.422         	3.15
MS.334         	13.395         	3.096
MS.335         	13.367         	3.551
MS.336         	13.342         	2.878
MS.337         	13.315         	2.856
MS.338         	13.287         	2.844
MS.339         	13.262         	3.037
MS.340         	13.235         	2.874
MS.341         	13.207         	2.602
MS.342         	13.182         	2.645
MS.343         	13.155         	3.033
MS.344         	13.13          	2.709
MS.345         	13.102         	2.735
MS.346         	13.077         	2.643
MS.347         	13.05          	2.58
MS.348         	13.025         	2.494
MS.349         	13             	2.751
MS.350         	12.972         	2.747
MS.351         	12.947         	2.373
MS.352         	12.92          	2.461
MS.353         	12.895         	2.435
MS.354         	12.87          	2.604
MS.355         	12.845         	2.576
MS.356         	12.818         	2.403
MS.357         	12.792         	2.443
MS.358         	12.767         	2.28
MS.359         	12.742         	2.445
MS.360         	12.715         	2.353
MS.361         	12.69          	2.21
MS.362         	12.665         	2.183
MS.363         	12.64          	2.328
MS.364         	12.615         	2.195
MS.365         	12.59          	2.123
MS.366         	12.565         	2.427
MS.367         	12.54          	2.145
MS.368         	12.515         	2.042
MS.369         	12.49          	1.619
MS.370         	12.465         	1.962
MS.371         	12.44          	1.895
MS.372         	12.415         	1.714
MS.373         	12.39          	1.851
MS.374         	12.365         	1.913
MS.375         	12.34          	2.167
MS.376         	12.315         	1.966
MS.377         	12.29          	1.926
MS.378         	12.267         	1.94
MS.379         	12.242         	1.924
MS.380         	12.217         	1.678
MS.381         	12.193         	1.728
MS.382         	12.17          	1.617
MS.383         	12.145         	1.418
MS.384         	12.12          	1.543
MS.385         	12.095         	1.726
MS.386         	12.072         	1.692
MS.387         	12.047         	1.589
MS.388         	12.023         	1.686
MS.389         	12             	1.597
MS.390         	11.975         	1.585
MS.391         	11.952         	1.831
MS.392         	11.927         	1.225
MS.393         	11.905         	1.392
MS.394         	11.88          	1.428
MS.395         	11.858         	1.303
MS.396         	11.832         	1.251
MS.397         	11.81          	1.382
MS.398         	11.785         	0.967
MS.399         	11.762         	1.172
MS.400         	11.738         	1.029
MS.401         	11.715         	0.854
MS.402         	11.693         	1.386
MS.403         	11.667         	1.186
MS.404         	11.645         	1.128
MS.405         	11.622         	0.906
MS.406         	11.597         	0.812
MS.407         	11.575         	1.287
MS.408         	11.552         	1.021
MS.409         	11.53          	1.152
MS.410         	11.505         	0.959
MS.411         	11.483         	0.745
MS.412         	11.46          	0.681
MS.413         	11.438         	0.997
MS.414         	11.415         	0.447
MS.415         	11.392         	0.659
MS.416         	11.37          	0.568
MS.417         	11.345         	0.433
MS.418         	11.322         	0.79
MS.419         	11.3           	0.582
MS.420         	11.278         	0.497
MS.421         	11.255         	0.506
MS.422         	11.233         	0.433
MS.423         	11.21          	0.975
MS.424         	11.188         	0.467
MS.425         	11.165         	0.469
MS.426         	11.142         	0.403
MS.427         	11.122         	0.433
MS.428         	11.1           	0.373
MS.429         	11.077         	0.31
MS.430         	11.055         	0.33
MS.431         	11.032         	0.236
MS.432         	11.01          	0.467
MS.433         	10.988         	0.282
MS.434         	10.967         	0.238
MS.435         	10.945         	0.296
MS.436         	10.922         	0.274
MS.437         	10.9           	0.232
MS.438         	10.88          	0.236
MS.439         	10.858         	0.209
MS.440         	10.835         	0.199
MS.441         	10.815         	0.236
MS.442         	10.792         	0.181
MS.443         	10.77          	0.187
MS.444         	10.75          	0.195
MS.445         	10.727         	0.139
MS.446         	10.707         	0.195
MS.447         	10.685         	0.185
MS.448         	10.665         	0.113
MS.449         	10.642         	0.183
MS.450         	10.622         	0.123
MS.451         	10.6           	0.139
MS.452         	10.58          	0.149
MS.453         	10.557         	0.109
MS.454         	10.537         	0.127
MS.455         	10.515         	0.121
MS.456         	10.495         	0.127
MS.457         	10.472         	0.103
MS.458         	10.452         	0.087
MS.459         	10.432         	0.077
MS.460         	10.41          	0.099
MS.461         	10.39          	0.101
MS.462         	10.37          	0.083
MS.463         	10.35          	0.079
MS.464         	10.327         	0.085
MS.465         	10.307         	0.064
MS.466         	10.287         	0.058
MS.467         	10.267         	0.056
MS.468         	10.245         	0.068
MS.469         	10.225         	0.066
MS.470         	10.205         	0.032
MS.471         	10.185         	0.125
MS.472         	10.165         	0.062
MS.473         	10.145         	0.056
MS.474         	10.122         	0.046
MS.475         	10.102         	0.117
MS.476         	10.082         	0.103
MS.477         	10.062         	0.06
MS.478         	10.042         	0.054
MS.479         	10.023         	0.075
MS.480         	10.002         	0.077
MS.481         	9.983          	0.04
MS.482         	9.962          	0.058
MS.483         	9.943          	0.062
MS.484         	9.922          	0.058
MS.485         	9.903          	0.042
MS.486         	9.882          	0.034
MS.487         	9.865          	0.081
MS.488         	9.845          	0.062
MS.489         	9.825          	0.064
MS.490         	9.805          	0.042
MS.491         	9.785          	0.06
MS.492         	9.765          	0.046
MS.493         	9.745          	0.06
MS.494         	9.727          	0.07
MS.495         	9.707          	0.044
MS.496         	9.688          	0.034
MS.497         	9.667          	0.066
MS.498         	9.65           	0.04
MS.499         	9.63           	0.042
MS.500         	9.61           	0.044
MS.501         	9.592          	0.044
MS.502         	9.573          	0.052
