File:              	C:\Qtrac\Data\Daniel M Sørensen\MScan multicentre study\Data from centres\Bucharest\Processed data\TDLC00828E.QZD
Name:              	RO.BU.NC.6.1
Protocol:          	MSCAN-R2
Date:              	28/8/20
Start time:        	13:46:29
Age:               	48
Sex:               	F
Temperature:       	36.3
S/R sites:         	ADM
NC/disease:        	NC
Operator:          	TL
Comments:          	RONC6.1.
M-SCAN DATA (8.5-1.8m)
Scanpts: 204, 210, 686, 707
Stim. (mA)     	Amp. (mV)
MS.1           	23.5           	7.259
MS.2           	23.5           	7.233
MS.3           	23.5           	7.215
MS.4           	23.5           	7.209
MS.5           	23.5           	7.219
MS.6           	23.5           	7.176
MS.7           	23.5           	7.178
MS.8           	23.5           	7.201
MS.9           	23.5           	7.18
MS.10          	23.5           	7.17
MS.11          	23.5           	7.144
MS.12          	23.5           	7.138
MS.13          	23.5           	7.136
MS.14          	23.5           	7.138
MS.15          	23.5           	7.166
MS.16          	23.5           	7.154
MS.17          	23.5           	7.174
MS.18          	23.5           	7.16
MS.19          	23.5           	7.16
MS.20          	23.5           	7.17
MS.21          	23.5           	7.201
MS.22          	23.5           	7.174
MS.23          	23.5           	7.191
MS.24          	23.405         	7.199
MS.25          	23.36          	7.245
MS.26          	23.312         	7.217
MS.27          	23.265         	7.164
MS.28          	23.22          	7.211
MS.29          	23.172         	7.168
MS.30          	23.127         	7.223
MS.31          	23.08          	7.205
MS.32          	23.035         	7.199
MS.33          	22.987         	7.182
MS.34          	22.942         	7.201
MS.35          	22.897         	7.201
MS.36          	22.85          	7.215
MS.37          	22.805         	7.221
MS.38          	22.76          	7.249
MS.39          	22.715         	7.253
MS.40          	22.67          	7.255
MS.41          	22.622         	7.285
MS.42          	22.577         	7.277
MS.43          	22.532         	7.249
MS.44          	22.487         	7.287
MS.45          	22.442         	7.321
MS.46          	22.397         	7.297
MS.47          	22.355         	7.291
MS.48          	22.31          	7.275
MS.49          	22.265         	7.319
MS.50          	22.22          	7.332
MS.51          	22.175         	7.326
MS.52          	22.132         	7.356
MS.53          	22.087         	7.332
MS.54          	22.042         	7.358
MS.55          	22             	7.293
MS.56          	21.955         	7.328
MS.57          	21.91          	7.303
MS.58          	21.868         	7.309
MS.59          	21.823         	7.271
MS.60          	21.78          	7.328
MS.61          	21.737         	7.354
MS.62          	21.692         	7.293
MS.63          	21.65          	7.313
MS.64          	21.608         	7.281
MS.65          	21.562         	7.269
MS.66          	21.52          	7.317
MS.67          	21.477         	7.279
MS.68          	21.435         	7.311
MS.69          	21.392         	7.301
MS.70          	21.35          	7.297
MS.71          	21.305         	7.277
MS.72          	21.262         	7.261
MS.73          	21.22          	7.273
MS.74          	21.177         	7.277
MS.75          	21.137         	7.267
MS.76          	21.095         	7.323
MS.77          	21.052         	7.309
MS.78          	21.01          	7.34
MS.79          	20.967         	7.35
MS.80          	20.925         	7.338
MS.81          	20.885         	7.33
MS.82          	20.842         	7.328
MS.83          	20.8           	7.354
MS.84          	20.76          	7.364
MS.85          	20.717         	7.39
MS.86          	20.677         	7.332
MS.87          	20.635         	7.356
MS.88          	20.595         	7.37
MS.89          	20.552         	7.39
MS.90          	20.512         	7.34
MS.91          	20.47          	7.36
MS.92          	20.43          	7.35
MS.93          	20.39          	7.344
MS.94          	20.347         	7.289
MS.95          	20.307         	7.326
MS.96          	20.267         	7.358
MS.97          	20.227         	7.336
MS.98          	20.185         	7.334
MS.99          	20.145         	7.362
MS.100         	20.105         	7.326
MS.101         	20.065         	7.323
MS.102         	20.025         	7.364
MS.103         	19.985         	7.376
MS.104         	19.945         	7.406
MS.105         	19.905         	7.408
MS.106         	19.865         	7.334
MS.107         	19.825         	7.366
MS.108         	19.788         	7.404
MS.109         	19.747         	7.434
MS.110         	19.708         	7.436
MS.111         	19.667         	7.416
MS.112         	19.63          	7.448
MS.113         	19.59          	7.436
MS.114         	19.55          	7.42
MS.115         	19.512         	7.424
MS.116         	19.472         	7.485
MS.117         	19.432         	7.583
MS.118         	19.395         	7.523
MS.119         	19.355         	7.591
MS.120         	19.317         	7.448
MS.121         	19.278         	7.553
MS.122         	19.24          	7.601
MS.123         	19.202         	7.547
MS.124         	19.163         	7.549
MS.125         	19.125         	7.515
MS.126         	19.087         	7.404
MS.127         	19.047         	7.44
MS.128         	19.01          	7.432
MS.129         	18.972         	7.396
MS.130         	18.935         	7.402
MS.131         	18.897         	7.428
MS.132         	18.86          	7.4
MS.133         	18.823         	7.41
MS.134         	18.785         	7.414
MS.135         	18.747         	7.43
MS.136         	18.71          	7.491
MS.137         	18.672         	7.408
MS.138         	18.635         	7.475
MS.139         	18.597         	7.43
MS.140         	18.56          	7.41
MS.141         	18.522         	7.438
MS.142         	18.485         	7.513
MS.143         	18.448         	7.374
MS.144         	18.413         	7.487
MS.145         	18.375         	7.527
MS.146         	18.337         	7.505
MS.147         	18.302         	7.517
MS.148         	18.265         	7.519
MS.149         	18.227         	7.521
MS.150         	18.192         	7.561
MS.151         	18.155         	7.485
MS.152         	18.12          	7.471
MS.153         	18.083         	7.521
MS.154         	18.047         	7.483
MS.155         	18.01          	7.571
MS.156         	17.975         	7.579
MS.157         	17.94          	7.541
MS.158         	17.903         	7.626
MS.159         	17.868         	7.648
MS.160         	17.833         	7.656
MS.161         	17.797         	7.646
MS.162         	17.76          	7.672
MS.163         	17.725         	7.704
MS.164         	17.69          	7.658
MS.165         	17.655         	7.622
MS.166         	17.62          	7.618
MS.167         	17.585         	7.7
MS.168         	17.55          	7.63
MS.169         	17.515         	7.624
MS.170         	17.48          	7.616
MS.171         	17.445         	7.609
MS.172         	17.41          	7.652
MS.173         	17.375         	7.605
MS.174         	17.34          	7.511
MS.175         	17.305         	7.587
MS.176         	17.27          	7.567
MS.177         	17.235         	7.555
MS.178         	17.202         	7.559
MS.179         	17.167         	7.591
MS.180         	17.132         	7.569
MS.181         	17.097         	7.636
MS.182         	17.065         	7.638
MS.183         	17.03          	7.662
MS.184         	16.997         	7.666
MS.185         	16.962         	7.507
MS.186         	16.927         	7.672
MS.187         	16.895         	7.642
MS.188         	16.86          	7.599
MS.189         	16.827         	7.567
MS.190         	16.792         	7.628
MS.191         	16.76          	7.581
MS.192         	16.727         	7.579
MS.193         	16.692         	7.626
MS.194         	16.66          	7.519
MS.195         	16.628         	7.537
MS.196         	16.592         	7.589
MS.197         	16.56          	7.676
MS.198         	16.528         	7.573
MS.199         	16.495         	7.491
MS.200         	16.46          	7.628
MS.201         	16.427         	7.708
MS.202         	16.395         	7.573
MS.203         	16.362         	7.674
MS.204         	16.33          	7.601
MS.205         	16.297         	7.603
MS.206         	16.265         	7.614
MS.207         	16.233         	7.605
MS.208         	16.2           	7.563
MS.209         	16.167         	7.543
MS.210         	16.135         	7.599
MS.211         	16.102         	7.563
MS.212         	16.07          	7.616
MS.213         	16.038         	7.652
MS.214         	16.007         	7.571
MS.215         	15.975         	7.68
MS.216         	15.943         	7.603
MS.217         	15.91          	7.549
MS.218         	15.88          	7.557
MS.219         	15.847         	7.517
MS.220         	15.815         	7.593
MS.221         	15.785         	7.614
MS.222         	15.752         	7.591
MS.223         	15.72          	7.583
MS.224         	15.69          	7.571
MS.225         	15.657         	7.595
MS.226         	15.627         	7.555
MS.227         	15.595         	7.585
MS.228         	15.565         	7.559
MS.229         	15.532         	7.503
MS.230         	15.502         	7.577
MS.231         	15.472         	7.642
MS.232         	15.44          	7.616
MS.233         	15.41          	7.718
MS.234         	15.38          	7.388
MS.235         	15.347         	7.434
MS.236         	15.318         	7.422
MS.237         	15.287         	7.581
MS.238         	15.257         	7.545
MS.239         	15.225         	7.215
MS.240         	15.195         	7.581
MS.241         	15.165         	7.42
MS.242         	15.135         	7.547
MS.243         	15.105         	7.41
MS.244         	15.075         	7.577
MS.245         	15.045         	7.326
MS.246         	15.015         	7.376
MS.247         	14.985         	7.287
MS.248         	14.955         	7.277
MS.249         	14.925         	7.233
MS.250         	14.895         	7.251
MS.251         	14.865         	7.344
MS.252         	14.835         	7.263
MS.253         	14.805         	7.176
MS.254         	14.775         	7.253
MS.255         	14.747         	7.176
MS.256         	14.717         	7.307
MS.257         	14.688         	7.229
MS.258         	14.657         	7.275
MS.259         	14.63          	7.493
MS.260         	14.6           	7.319
MS.261         	14.57          	7.227
MS.262         	14.542         	7.122
MS.263         	14.512         	7.237
MS.264         	14.483         	6.989
MS.265         	14.455         	6.884
MS.266         	14.425         	6.802
MS.267         	14.398         	6.937
MS.268         	14.367         	7.207
MS.269         	14.34          	6.945
MS.270         	14.31          	6.995
MS.271         	14.282         	7.09
MS.272         	14.252         	7.062
MS.273         	14.225         	7.168
MS.274         	14.197         	7.052
MS.275         	14.167         	7.13
MS.276         	14.14          	6.832
MS.277         	14.112         	6.687
MS.278         	14.082         	6.814
MS.279         	14.055         	6.776
MS.280         	14.028         	6.818
MS.281         	14             	6.959
MS.282         	13.97          	6.969
MS.283         	13.943         	6.673
MS.284         	13.915         	6.721
MS.285         	13.887         	6.522
MS.286         	13.86          	6.822
MS.287         	13.832         	6.864
MS.288         	13.805         	6.81
MS.289         	13.778         	6.707
MS.290         	13.75          	6.633
MS.291         	13.722         	6.576
MS.292         	13.695         	6.514
MS.293         	13.667         	6.673
MS.294         	13.64          	6.516
MS.295         	13.612         	6.55
MS.296         	13.585         	6.673
MS.297         	13.557         	6.564
MS.298         	13.53          	6.377
MS.299         	13.505         	6.377
MS.300         	13.477         	6.413
MS.301         	13.45          	6.546
MS.302         	13.422         	6.502
MS.303         	13.398         	6.351
MS.304         	13.37          	6.689
MS.305         	13.342         	6.296
MS.306         	13.318         	6.399
MS.307         	13.29          	6.341
MS.308         	13.262         	6.32
MS.309         	13.237         	6.322
MS.310         	13.21          	6.349
MS.311         	13.185         	6.298
MS.312         	13.157         	6.258
MS.313         	13.132         	6.312
MS.314         	13.105         	6.272
MS.315         	13.08          	6.288
MS.316         	13.052         	6.268
MS.317         	13.028         	6.308
MS.318         	13             	6.171
MS.319         	12.975         	6.129
MS.320         	12.947         	6.226
MS.321         	12.922         	6.177
MS.322         	12.898         	6.087
MS.323         	12.87          	6.216
MS.324         	12.845         	6.04
MS.325         	12.82          	5.785
MS.326         	12.795         	5.877
MS.327         	12.767         	5.801
MS.328         	12.742         	5.819
MS.329         	12.717         	5.895
MS.330         	12.693         	5.95
MS.331         	12.667         	5.555
MS.332         	12.642         	5.879
MS.333         	12.617         	5.474
MS.334         	12.59          	5.501
MS.335         	12.565         	5.555
MS.336         	12.54          	5.537
MS.337         	12.515         	5.626
MS.338         	12.49          	5.549
MS.339         	12.465         	5.271
MS.340         	12.44          	5.164
MS.341         	12.415         	5.561
MS.342         	12.392         	5.495
MS.343         	12.367         	5.297
MS.344         	12.342         	5.336
MS.345         	12.318         	5.356
MS.346         	12.292         	4.987
MS.347         	12.267         	5.297
MS.348         	12.242         	5.007
MS.349         	12.22          	5.14
MS.350         	12.195         	5.386
MS.351         	12.17          	5.096
MS.352         	12.145         	5.501
MS.353         	12.122         	5.152
MS.354         	12.097         	5.313
MS.355         	12.072         	4.721
MS.356         	12.05          	5.08
MS.357         	12.025         	4.991
MS.358         	12             	4.425
MS.359         	11.977         	4.53
MS.360         	11.952         	5.084
MS.361         	11.93          	4.482
MS.362         	11.905         	4.252
MS.363         	11.882         	4.308
MS.364         	11.858         	4.578
MS.365         	11.835         	4.153
MS.366         	11.81          	3.869
MS.367         	11.787         	3.954
MS.368         	11.762         	4.095
MS.369         	11.74          	3.813
MS.370         	11.717         	3.748
MS.371         	11.693         	3.527
MS.372         	11.67          	3.978
MS.373         	11.648         	3.785
MS.374         	11.622         	3.724
MS.375         	11.6           	3.472
MS.376         	11.577         	3.444
MS.377         	11.552         	3.625
MS.378         	11.53          	3.325
MS.379         	11.507         	3.702
MS.380         	11.485         	3.178
MS.381         	11.462         	3.374
MS.382         	11.438         	3.593
MS.383         	11.415         	3.39
MS.384         	11.392         	3.219
MS.385         	11.37          	3.414
MS.386         	11.347         	3.021
MS.387         	11.325         	2.989
MS.388         	11.302         	3.029
MS.389         	11.28          	2.914
MS.390         	11.257         	3.011
MS.391         	11.235         	2.804
MS.392         	11.212         	3.037
MS.393         	11.19          	3.11
MS.394         	11.167         	3.062
MS.395         	11.145         	2.989
MS.396         	11.122         	3.108
MS.397         	11.1           	2.725
MS.398         	11.077         	2.902
MS.399         	11.055         	2.81
MS.400         	11.035         	2.759
MS.401         	11.012         	2.673
MS.402         	10.99          	2.618
MS.403         	10.967         	2.6
MS.404         	10.945         	2.737
MS.405         	10.925         	2.532
MS.406         	10.903         	2.661
MS.407         	10.88          	2.622
MS.408         	10.86          	2.197
MS.409         	10.837         	2.342
MS.410         	10.815         	2.453
MS.411         	10.795         	2.334
MS.412         	10.773         	2.469
MS.413         	10.75          	2.502
MS.414         	10.73          	1.907
MS.415         	10.707         	2.242
MS.416         	10.688         	2.29
MS.417         	10.665         	2.079
MS.418         	10.645         	2.181
MS.419         	10.622         	2.02
MS.420         	10.602         	2.206
MS.421         	10.58          	1.813
MS.422         	10.56          	1.668
MS.423         	10.537         	1.907
MS.424         	10.517         	1.938
MS.425         	10.495         	2.095
MS.426         	10.475         	2.232
MS.427         	10.455         	1.859
MS.428         	10.432         	1.827
MS.429         	10.412         	1.47
MS.430         	10.392         	1.525
MS.431         	10.37          	1.75
MS.432         	10.35          	1.497
MS.433         	10.33          	1.466
MS.434         	10.31          	1.575
MS.435         	10.287         	1.134
MS.436         	10.267         	1.206
MS.437         	10.247         	1.231
MS.438         	10.227         	1.263
MS.439         	10.205         	1.37
MS.440         	10.185         	1.356
MS.441         	10.165         	0.941
MS.442         	10.145         	1.293
MS.443         	10.125         	1.263
MS.444         	10.105         	1.333
MS.445         	10.085         	1.178
MS.446         	10.065         	1.418
MS.447         	10.045         	0.912
MS.448         	10.025         	1.14
MS.449         	10.005         	0.935
MS.450         	9.985          	1.263
MS.451         	9.965          	1.164
MS.452         	9.945          	1.009
MS.453         	9.925          	0.912
MS.454         	9.905          	0.975
MS.455         	9.885          	0.814
MS.456         	9.865          	0.705
MS.457         	9.845          	0.584
MS.458         	9.825          	0.683
MS.459         	9.805          	0.753
MS.460         	9.787          	0.608
MS.461         	9.767          	0.518
MS.462         	9.747          	0.725
MS.463         	9.727          	0.584
MS.464         	9.707          	0.63
MS.465         	9.69           	0.516
MS.466         	9.67           	0.707
MS.467         	9.65           	0.463
MS.468         	9.63           	0.506
MS.469         	9.613          	0.34
MS.470         	9.592          	0.475
MS.471         	9.573          	0.55
MS.472         	9.555          	0.395
MS.473         	9.535          	0.354
MS.474         	9.515          	0.556
MS.475         	9.497          	0.391
MS.476         	9.477          	0.506
MS.477         	9.46           	0.439
MS.478         	9.44           	0.405
MS.479         	9.422          	0.26
MS.480         	9.403          	0.425
MS.481         	9.385          	0.256
MS.482         	9.365          	0.232
MS.483         	9.347          	0.385
MS.484         	9.327          	0.389
MS.485         	9.31           	0.409
MS.486         	9.29           	0.304
MS.487         	9.273          	0.282
MS.488         	9.252          	0.218
MS.489         	9.235          	0.242
MS.490         	9.217          	0.254
MS.491         	9.198          	0.24
MS.492         	9.18           	0.236
MS.493         	9.162          	0.222
MS.494         	9.142          	0.211
MS.495         	9.125          	0.248
MS.496         	9.108          	0.242
MS.497         	9.087          	0.183
MS.498         	9.07           	0.181
MS.499         	9.052          	0.25
MS.500         	9.035          	0.149
MS.501         	9.015          	0.246
