File:              	C:\Qtrac\Data\Daniel M Sørensen\MScan multicentre study\Data from centres\Bucharest\Processed data\TDLC10107B.QZD
Name:              	RO.BU.NC.9.2
Protocol:          	MSCAN-R2
Date:              	7/1/21
Start time:        	10:56:17
Age:               	35
Sex:               	F
Temperature:       	36.1
S/R sites:         	ADM
NC/disease:        	NC9
Operator:          	TL
Comments:          	RO.NC.9.2.
M-SCAN DATA (12.8-2.9m)
Scanpts: 106, 117, 704, 716
Stim. (mA)     	Amp. (mV)
MS.1           	19             	9.73
MS.2           	19             	9.89
MS.3           	19             	9.817
MS.4           	19             	9.704
MS.5           	19             	9.686
MS.6           	19             	9.712
MS.7           	19             	9.706
MS.8           	19             	9.726
MS.9           	19             	9.728
MS.10          	19             	9.747
MS.11          	19             	9.722
MS.12          	19             	9.708
MS.13          	19             	9.702
MS.14          	19             	9.767
MS.15          	19             	9.813
MS.16          	19             	9.805
MS.17          	19             	9.795
MS.18          	19             	9.801
MS.19          	19             	9.799
MS.20          	19             	9.817
MS.21          	19             	9.799
MS.22          	19             	9.793
MS.23          	19             	9.809
MS.24          	18.925         	9.809
MS.25          	18.887         	9.797
MS.26          	18.847         	9.819
MS.27          	18.81          	9.807
MS.28          	18.772         	9.809
MS.29          	18.735         	9.815
MS.30          	18.698         	9.811
MS.31          	18.66          	9.811
MS.32          	18.622         	9.815
MS.33          	18.587         	9.811
MS.34          	18.55          	9.829
MS.35          	18.512         	9.825
MS.36          	18.475         	9.823
MS.37          	18.438         	9.833
MS.38          	18.403         	9.821
MS.39          	18.365         	9.819
MS.40          	18.327         	9.839
MS.41          	18.292         	9.849
MS.42          	18.255         	9.837
MS.43          	18.217         	9.839
MS.44          	18.182         	9.831
MS.45          	18.145         	9.857
MS.46          	18.11          	9.837
MS.47          	18.073         	9.839
MS.48          	18.038         	9.833
MS.49          	18             	9.845
MS.50          	17.965         	9.835
MS.51          	17.93          	9.837
MS.52          	17.892         	9.841
MS.53          	17.858         	9.843
MS.54          	17.823         	9.823
MS.55          	17.788         	9.843
MS.56          	17.75          	9.853
MS.57          	17.715         	9.855
MS.58          	17.68          	9.845
MS.59          	17.645         	9.847
MS.60          	17.61          	9.857
MS.61          	17.575         	9.859
MS.62          	17.54          	9.845
MS.63          	17.505         	9.827
MS.64          	17.47          	9.855
MS.65          	17.435         	9.843
MS.66          	17.4           	9.857
MS.67          	17.365         	9.875
MS.68          	17.33          	9.833
MS.69          	17.295         	9.851
MS.70          	17.26          	9.847
MS.71          	17.227         	9.855
MS.72          	17.192         	9.867
MS.73          	17.157         	9.863
MS.74          	17.122         	9.863
MS.75          	17.09          	9.867
MS.76          	17.055         	9.859
MS.77          	17.02          	9.855
MS.78          	16.987         	9.827
MS.79          	16.952         	9.823
MS.80          	16.92          	9.849
MS.81          	16.885         	9.853
MS.82          	16.852         	9.859
MS.83          	16.817         	9.847
MS.84          	16.785         	9.853
MS.85          	16.75          	9.833
MS.86          	16.717         	9.811
MS.87          	16.682         	9.841
MS.88          	16.65          	9.833
MS.89          	16.618         	9.849
MS.90          	16.585         	9.879
MS.91          	16.55          	9.851
MS.92          	16.517         	9.835
MS.93          	16.485         	9.833
MS.94          	16.452         	9.819
MS.95          	16.42          	9.843
MS.96          	16.385         	9.807
MS.97          	16.352         	9.829
MS.98          	16.32          	9.837
MS.99          	16.288         	9.821
MS.100         	16.255         	9.823
MS.101         	16.222         	9.807
MS.102         	16.19          	9.807
MS.103         	16.157         	9.823
MS.104         	16.125         	9.797
MS.105         	16.095         	9.811
MS.106         	16.062         	9.823
MS.107         	16.03          	9.817
MS.108         	15.997         	9.821
MS.109         	15.965         	9.823
MS.110         	15.932         	9.821
MS.111         	15.902         	9.823
MS.112         	15.87          	9.805
MS.113         	15.837         	9.841
MS.114         	15.807         	9.811
MS.115         	15.775         	9.809
MS.116         	15.742         	9.825
MS.117         	15.712         	9.825
MS.118         	15.68          	9.809
MS.119         	15.65          	9.825
MS.120         	15.617         	9.827
MS.121         	15.587         	9.815
MS.122         	15.555         	9.811
MS.123         	15.525         	9.817
MS.124         	15.492         	9.817
MS.125         	15.462         	9.805
MS.126         	15.432         	9.799
MS.127         	15.4           	9.811
MS.128         	15.37          	9.817
MS.129         	15.34          	9.803
MS.130         	15.31          	9.807
MS.131         	15.277         	9.813
MS.132         	15.247         	9.823
MS.133         	15.217         	9.795
MS.134         	15.188         	9.813
MS.135         	15.157         	9.805
MS.136         	15.127         	9.803
MS.137         	15.095         	9.807
MS.138         	15.065         	9.811
MS.139         	15.035         	9.813
MS.140         	15.005         	9.805
MS.141         	14.975         	9.825
MS.142         	14.945         	9.809
MS.143         	14.915         	9.789
MS.144         	14.885         	9.803
MS.145         	14.858         	9.803
MS.146         	14.827         	9.823
MS.147         	14.797         	9.825
MS.148         	14.767         	9.763
MS.149         	14.737         	9.817
MS.150         	14.707         	9.851
MS.151         	14.68          	9.765
MS.152         	14.65          	9.833
MS.153         	14.62          	9.847
MS.154         	14.592         	9.747
MS.155         	14.562         	9.759
MS.156         	14.532         	9.771
MS.157         	14.505         	9.753
MS.158         	14.475         	9.749
MS.159         	14.447         	9.759
MS.160         	14.417         	9.73
MS.161         	14.387         	9.751
MS.162         	14.36          	9.73
MS.163         	14.33          	9.757
MS.164         	14.302         	9.745
MS.165         	14.275         	9.761
MS.166         	14.245         	9.757
MS.167         	14.217         	9.773
MS.168         	14.188         	9.736
MS.169         	14.16          	9.761
MS.170         	14.132         	9.759
MS.171         	14.102         	9.751
MS.172         	14.075         	9.747
MS.173         	14.047         	9.763
MS.174         	14.02          	9.771
MS.175         	13.992         	9.722
MS.176         	13.962         	9.745
MS.177         	13.935         	9.753
MS.178         	13.907         	9.714
MS.179         	13.88          	9.714
MS.180         	13.852         	9.759
MS.181         	13.825         	9.742
MS.182         	13.797         	9.712
MS.183         	13.77          	9.706
MS.184         	13.742         	9.722
MS.185         	13.715         	9.698
MS.186         	13.688         	9.686
MS.187         	13.66          	9.682
MS.188         	13.632         	9.718
MS.189         	13.605         	9.688
MS.190         	13.577         	9.672
MS.191         	13.55          	9.674
MS.192         	13.523         	9.68
MS.193         	13.497         	9.686
MS.194         	13.47          	9.674
MS.195         	13.443         	9.64
MS.196         	13.415         	9.658
MS.197         	13.39          	9.672
MS.198         	13.362         	9.563
MS.199         	13.335         	9.656
MS.200         	13.31          	9.618
MS.201         	13.282         	9.64
MS.202         	13.255         	9.61
MS.203         	13.23          	9.616
MS.204         	13.202         	9.579
MS.205         	13.177         	9.575
MS.206         	13.15          	9.505
MS.207         	13.125         	9.585
MS.208         	13.097         	9.495
MS.209         	13.072         	9.622
MS.210         	13.045         	9.519
MS.211         	13.02          	9.477
MS.212         	12.992         	9.471
MS.213         	12.967         	9.398
MS.214         	12.943         	9.394
MS.215         	12.915         	9.469
MS.216         	12.89          	9.479
MS.217         	12.865         	9.495
MS.218         	12.837         	9.45
MS.219         	12.812         	9.456
MS.220         	12.787         	9.346
MS.221         	12.762         	9.446
MS.222         	12.735         	9.432
MS.223         	12.71          	9.461
MS.224         	12.685         	9.432
MS.225         	12.66          	9.372
MS.226         	12.635         	9.233
MS.227         	12.61          	9.313
MS.228         	12.585         	9.281
MS.229         	12.56          	9.311
MS.230         	12.535         	9.181
MS.231         	12.51          	9.179
MS.232         	12.485         	9.207
MS.233         	12.46          	9.177
MS.234         	12.435         	9.277
MS.235         	12.41          	9.219
MS.236         	12.385         	9.092
MS.237         	12.36          	9.088
MS.238         	12.335         	9.164
MS.239         	12.31          	9.062
MS.240         	12.285         	9.078
MS.241         	12.26          	9.04
MS.242         	12.238         	9.042
MS.243         	12.212         	8.995
MS.244         	12.188         	9.07
MS.245         	12.162         	9.084
MS.246         	12.14          	8.969
MS.247         	12.115         	9.015
MS.248         	12.09          	8.977
MS.249         	12.068         	9.007
MS.250         	12.042         	8.979
MS.251         	12.017         	8.979
MS.252         	11.995         	8.899
MS.253         	11.97          	8.919
MS.254         	11.947         	8.917
MS.255         	11.922         	8.88
MS.256         	11.9           	8.868
MS.257         	11.875         	8.923
MS.258         	11.852         	8.923
MS.259         	11.827         	8.796
MS.260         	11.805         	8.858
MS.261         	11.78          	8.842
MS.262         	11.757         	8.717
MS.263         	11.733         	8.687
MS.264         	11.71          	8.822
MS.265         	11.688         	8.717
MS.266         	11.662         	8.717
MS.267         	11.64          	8.727
MS.268         	11.617         	8.673
MS.269         	11.592         	8.709
MS.270         	11.57          	8.737
MS.271         	11.547         	8.621
MS.272         	11.525         	8.637
MS.273         	11.5           	8.613
MS.274         	11.477         	8.592
MS.275         	11.455         	8.584
MS.276         	11.432         	8.594
MS.277         	11.41          	8.568
MS.278         	11.387         	8.592
MS.279         	11.365         	8.613
MS.280         	11.34          	8.607
MS.281         	11.318         	8.524
MS.282         	11.295         	8.554
MS.283         	11.273         	8.588
MS.284         	11.25          	8.542
MS.285         	11.227         	8.459
MS.286         	11.205         	8.387
MS.287         	11.182         	8.413
MS.288         	11.16          	8.429
MS.289         	11.14          	8.29
MS.290         	11.117         	8.413
MS.291         	11.095         	8.244
MS.292         	11.073         	8.437
MS.293         	11.05          	8.397
MS.294         	11.028         	8.292
MS.295         	11.005         	8.325
MS.296         	10.985         	8.131
MS.297         	10.962         	8.256
MS.298         	10.94          	8.294
MS.299         	10.917         	8.177
MS.300         	10.898         	8.163
MS.301         	10.875         	8.175
MS.302         	10.852         	8.204
MS.303         	10.83          	8.109
MS.304         	10.81          	7.992
MS.305         	10.787         	8.097
MS.306         	10.767         	8.022
MS.307         	10.745         	8.008
MS.308         	10.722         	7.952
MS.309         	10.702         	7.978
MS.310         	10.68          	7.994
MS.311         	10.66          	7.781
MS.312         	10.637         	7.896
MS.313         	10.617         	8.012
MS.314         	10.595         	7.988
MS.315         	10.575         	7.956
MS.316         	10.552         	7.906
MS.317         	10.532         	7.875
MS.318         	10.51          	7.958
MS.319         	10.49          	7.928
MS.320         	10.47          	7.863
MS.321         	10.448         	7.877
MS.322         	10.427         	7.781
MS.323         	10.407         	7.73
MS.324         	10.385         	7.817
MS.325         	10.365         	7.569
MS.326         	10.345         	7.702
MS.327         	10.323         	7.66
MS.328         	10.302         	7.565
MS.329         	10.282         	7.821
MS.330         	10.262         	7.404
MS.331         	10.242         	7.563
MS.332         	10.22          	7.547
MS.333         	10.2           	7.515
MS.334         	10.18          	7.46
MS.335         	10.16          	7.577
MS.336         	10.14          	7.36
MS.337         	10.12          	7.485
MS.338         	10.1           	7.483
MS.339         	10.08          	7.491
MS.340         	10.057         	7.448
MS.341         	10.037         	7.412
MS.342         	10.017         	7.481
MS.343         	9.997          	7.368
MS.344         	9.977          	7.334
MS.345         	9.957          	7.326
MS.346         	9.938          	7.285
MS.347         	9.92           	7.273
MS.348         	9.9            	7.356
MS.349         	9.88           	7.303
MS.350         	9.86           	7.271
MS.351         	9.84           	7.287
MS.352         	9.82           	7.199
MS.353         	9.8            	7.201
MS.354         	9.78           	7.235
MS.355         	9.762          	7.223
MS.356         	9.742          	7.201
MS.357         	9.722          	7.052
MS.358         	9.702          	7.164
MS.359         	9.682          	7.058
MS.360         	9.665          	7.056
MS.361         	9.645          	7.209
MS.362         	9.625          	7.039
MS.363         	9.608          	7.098
MS.364         	9.587          	7.029
MS.365         	9.568          	6.985
MS.366         	9.55           	6.973
MS.367         	9.53           	7.033
MS.368         	9.51           	6.991
MS.369         	9.492          	7.007
MS.370         	9.472          	7.031
MS.371         	9.455          	6.911
MS.372         	9.435          	6.876
MS.373         	9.415          	6.77
MS.374         	9.398          	6.836
MS.375         	9.377          	6.907
MS.376         	9.36           	6.77
MS.377         	9.34           	6.79
MS.378         	9.323          	6.798
MS.379         	9.305          	6.77
MS.380         	9.285          	6.768
MS.381         	9.267          	6.743
MS.382         	9.247          	6.572
MS.383         	9.23           	6.643
MS.384         	9.212          	6.615
MS.385         	9.193          	6.619
MS.386         	9.175          	6.691
MS.387         	9.155          	6.643
MS.388         	9.137          	6.59
MS.389         	9.12           	6.558
MS.390         	9.102          	6.562
MS.391         	9.082          	6.516
MS.392         	9.065          	6.526
MS.393         	9.047          	6.484
MS.394         	9.03           	6.359
MS.395         	9.01           	6.474
MS.396         	8.992          	6.467
MS.397         	8.975          	6.465
MS.398         	8.957          	6.429
MS.399         	8.94           	6.429
MS.400         	8.92           	6.32
MS.401         	8.903          	6.447
MS.402         	8.885          	6.171
MS.403         	8.867          	6.506
MS.404         	8.85           	6.234
MS.405         	8.832          	6.177
MS.406         	8.815          	6.085
MS.407         	8.797          	6.083
MS.408         	8.78           	6.026
MS.409         	8.762          	6.105
MS.410         	8.745          	5.992
MS.411         	8.727          	5.992
MS.412         	8.71           	5.879
MS.413         	8.693          	5.906
MS.414         	8.675          	5.831
MS.415         	8.658          	5.99
MS.416         	8.64           	5.732
MS.417         	8.622          	5.855
MS.418         	8.605          	5.712
MS.419         	8.587          	5.756
MS.420         	8.573          	5.646
MS.421         	8.555          	5.444
MS.422         	8.537          	5.706
MS.423         	8.52           	5.662
MS.424         	8.502          	5.527
MS.425         	8.485          	5.557
MS.426         	8.47           	5.569
MS.427         	8.452          	5.557
MS.428         	8.435          	5.501
MS.429         	8.417          	5.378
MS.430         	8.403          	5.052
MS.431         	8.385          	5.184
MS.432         	8.367          	4.872
MS.433         	8.352          	4.8
MS.434         	8.335          	5.025
MS.435         	8.318          	4.8
MS.436         	8.302          	4.78
MS.437         	8.285          	4.862
MS.438         	8.267          	4.784
MS.439         	8.252          	4.679
MS.440         	8.235          	4.705
MS.441         	8.22           	4.496
MS.442         	8.202          	4.691
MS.443         	8.185          	4.488
MS.444         	8.17           	4.256
MS.445         	8.153          	4.457
MS.446         	8.137          	4.334
MS.447         	8.12           	4.028
MS.448         	8.105          	4.159
MS.449         	8.087          	3.944
MS.450         	8.073          	3.968
MS.451         	8.055          	4.002
MS.452         	8.04           	4.095
MS.453         	8.025          	3.938
MS.454         	8.007          	3.859
MS.455         	7.992          	3.94
MS.456         	7.975          	3.617
MS.457         	7.96           	3.593
MS.458         	7.945          	3.422
MS.459         	7.927          	3.333
MS.460         	7.912          	3.356
MS.461         	7.898          	3.364
MS.462         	7.88           	3.279
MS.463         	7.865          	3.287
MS.464         	7.85           	3.13
MS.465         	7.832          	3.223
MS.466         	7.817          	3.066
MS.467         	7.802          	2.971
MS.468         	7.787          	2.9
MS.469         	7.773          	2.949
MS.470         	7.755          	2.933
MS.471         	7.74           	2.814
MS.472         	7.725          	2.792
MS.473         	7.71           	2.866
MS.474         	7.695          	2.639
MS.475         	7.677          	2.723
MS.476         	7.662          	2.633
MS.477         	7.648          	2.608
MS.478         	7.632          	2.437
MS.479         	7.617          	2.465
MS.480         	7.602          	2.459
MS.481         	7.587          	2.344
MS.482         	7.572          	2.278
MS.483         	7.557          	2.23
MS.484         	7.543          	2.159
MS.485         	7.527          	2.052
MS.486         	7.512          	2.167
MS.487         	7.497          	2.062
MS.488         	7.482          	2.155
MS.489         	7.467          	2.183
MS.490         	7.452          	2.038
MS.491         	7.438          	2.095
MS.492         	7.422          	2.026
MS.493         	7.407          	2.179
MS.494         	7.392          	1.901
MS.495         	7.378          	1.974
MS.496         	7.362          	1.946
MS.497         	7.347          	1.899
MS.498         	7.332          	1.817
MS.499         	7.317          	1.843
MS.500         	7.305          	1.67
