File:              	C:\Qtrac\Data\Daniel M Sørensen\MScan multicentre study\Data from centres\Bucharest\TDLC00206C.QZD
Name:              	RO.BU.NC.2.2
Protocol:          	MSCAN-R2
Date:              	6/2/20
Start time:        	14:35:55
Age:               	57
Sex:               	M
Temperature:       	36.6
S/R sites:         	ADM
NC/disease:        	RONC2.2b
Operator:          	TL
Comments:
M-SCAN DATA (6.6-1.4m)
Scanpts: 15, 20, 485, 490
Stim. (mA)     	Amp. (mV)
MS.1           	30             	6.482
MS.2           	30             	6.516
MS.3           	30             	6.455
MS.4           	30             	6.508
MS.5           	30             	6.482
MS.6           	30             	6.61
MS.7           	30             	6.518
MS.8           	30             	6.492
MS.9           	30             	6.482
MS.10          	30             	6.532
MS.11          	30             	6.463
MS.12          	30             	6.383
MS.13          	30             	6.494
MS.14          	30             	6.524
MS.15          	30             	6.564
MS.16          	30             	6.516
MS.17          	30             	6.562
MS.18          	30             	6.512
MS.19          	30             	6.584
MS.20          	30             	6.578
MS.21          	30             	6.471
MS.22          	30             	6.594
MS.23          	30             	6.516
MS.24          	29.88          	6.512
MS.25          	29.82          	6.451
MS.26          	29.76          	6.441
MS.27          	29.702         	6.512
MS.28          	29.642         	6.471
MS.29          	29.582         	6.512
MS.30          	29.522         	6.619
MS.31          	29.465         	6.431
MS.32          	29.405         	6.484
MS.33          	29.347         	6.423
MS.34          	29.287         	6.393
MS.35          	29.23          	6.433
MS.36          	29.172         	6.508
MS.37          	29.112         	6.435
MS.38          	29.055         	6.536
MS.39          	28.997         	6.407
MS.40          	28.94          	6.353
MS.41          	28.882         	6.478
MS.42          	28.823         	6.476
MS.43          	28.765         	6.449
MS.44          	28.707         	6.447
MS.45          	28.65          	6.49
MS.46          	28.595         	6.385
MS.47          	28.537         	6.425
MS.48          	28.48          	6.393
MS.49          	28.422         	6.411
MS.50          	28.365         	6.411
MS.51          	28.31          	6.425
MS.52          	28.252         	6.26
MS.53          	28.198         	6.391
MS.54          	28.14          	6.401
MS.55          	28.085         	6.445
MS.56          	28.028         	6.492
MS.57          	27.972         	6.496
MS.58          	27.915         	6.373
MS.59          	27.86          	6.482
MS.60          	27.805         	6.433
MS.61          	27.75          	6.427
MS.62          	27.692         	6.413
MS.63          	27.637         	6.335
MS.64          	27.582         	6.228
MS.65          	27.528         	6.502
MS.66          	27.472         	6.441
MS.67          	27.417         	6.188
MS.68          	27.362         	6.284
MS.69          	27.307         	6.314
MS.70          	27.255         	6.339
MS.71          	27.2           	6.141
MS.72          	27.145         	6.31
MS.73          	27.09          	6.208
MS.74          	27.037         	6.353
MS.75          	26.983         	6.29
MS.76          	26.927         	6.21
MS.77          	26.875         	6.339
MS.78          	26.82          	6.21
MS.79          	26.767         	6.077
MS.80          	26.715         	6.232
MS.81          	26.66          	6.131
MS.82          	26.608         	6.202
MS.83          	26.555         	6.198
MS.84          	26.502         	6.129
MS.85          	26.448         	6.135
MS.86          	26.395         	6.071
MS.87          	26.342         	5.93
MS.88          	26.29          	6.157
MS.89          	26.237         	5.918
MS.90          	26.185         	6.053
MS.91          	26.132         	5.746
MS.92          	26.08          	5.936
MS.93          	26.028         	5.807
MS.94          	25.977         	5.954
MS.95          	25.925         	5.95
MS.96          	25.872         	5.956
MS.97          	25.82          	5.899
MS.98          	25.77          	5.601
MS.99          	25.717         	5.948
MS.100         	25.667         	5.76
MS.101         	25.615         	5.881
MS.102         	25.565         	5.904
MS.103         	25.512         	5.718
MS.104         	25.462         	5.875
MS.105         	25.413         	5.71
MS.106         	25.36          	5.591
MS.107         	25.31          	5.686
MS.108         	25.26          	5.386
MS.109         	25.21          	5.529
MS.110         	25.157         	5.591
MS.111         	25.108         	5.613
MS.112         	25.057         	5.698
MS.113         	25.007         	5.503
MS.114         	24.957         	5.327
MS.115         	24.907         	5.597
MS.116         	24.858         	5.297
MS.117         	24.807         	5.372
MS.118         	24.76          	5.188
MS.119         	24.71          	5.541
MS.120         	24.66          	5.535
MS.121         	24.61          	5.15
MS.122         	24.562         	5.372
MS.123         	24.512         	5.128
MS.124         	24.465         	5.257
MS.125         	24.415         	5.138
MS.126         	24.365         	5.118
MS.127         	24.317         	5.134
MS.128         	24.27          	5.017
MS.129         	24.22          	4.842
MS.130         	24.172         	5.104
MS.131         	24.122         	5.023
MS.132         	24.075         	4.971
MS.133         	24.028         	5.12
MS.134         	23.98          	4.987
MS.135         	23.932         	4.904
MS.136         	23.882         	4.941
MS.137         	23.835         	4.882
MS.138         	23.788         	5.06
MS.139         	23.74          	5.076
MS.140         	23.692         	4.959
MS.141         	23.645         	4.848
MS.142         	23.597         	4.892
MS.143         	23.552         	4.927
MS.144         	23.505         	4.784
MS.145         	23.457         	4.892
MS.146         	23.41          	4.794
MS.147         	23.365         	4.763
MS.148         	23.317         	4.782
MS.149         	23.27          	4.749
MS.150         	23.225         	4.822
MS.151         	23.177         	4.671
MS.152         	23.132         	4.713
MS.153         	23.085         	4.564
MS.154         	23.04          	4.751
MS.155         	22.993         	4.677
MS.156         	22.948         	4.385
MS.157         	22.903         	4.647
MS.158         	22.855         	4.572
MS.159         	22.81          	4.649
MS.160         	22.765         	4.49
MS.161         	22.72          	4.469
MS.162         	22.672         	4.586
MS.163         	22.627         	4.413
MS.164         	22.582         	4.077
MS.165         	22.538         	4.367
MS.166         	22.493         	4.433
MS.167         	22.448         	4.077
MS.168         	22.403         	4.312
MS.169         	22.358         	3.95
MS.170         	22.312         	4.461
MS.171         	22.27          	4.258
MS.172         	22.225         	4.339
MS.173         	22.18          	4.137
MS.174         	22.135         	3.329
MS.175         	22.092         	4
MS.176         	22.047         	3.603
MS.177         	22.002         	4.264
MS.178         	21.96          	3.714
MS.179         	21.915         	3.303
MS.180         	21.872         	3.839
MS.181         	21.827         	3.567
MS.182         	21.785         	3.76
MS.183         	21.74          	3.764
MS.184         	21.698         	3.938
MS.185         	21.655         	3.63
MS.186         	21.61          	3.297
MS.187         	21.567         	3.565
MS.188         	21.525         	3.303
MS.189         	21.483         	3.666
MS.190         	21.438         	3.573
MS.191         	21.395         	3.577
MS.192         	21.352         	3.426
MS.193         	21.31          	2.894
MS.194         	21.267         	3.495
MS.195         	21.225         	3.011
MS.196         	21.182         	3.446
MS.197         	21.14          	3.045
MS.198         	21.097         	3.148
MS.199         	21.055         	3.229
MS.200         	21.015         	3.128
MS.201         	20.972         	3.299
MS.202         	20.93          	3.444
MS.203         	20.887         	3.164
MS.204         	20.847         	2.594
MS.205         	20.805         	3.283
MS.206         	20.762         	2.844
MS.207         	20.722         	2.57
MS.208         	20.68          	2.917
MS.209         	20.64          	2.518
MS.210         	20.597         	2.342
MS.211         	20.557         	2.737
MS.212         	20.515         	2.596
MS.213         	20.475         	2.719
MS.214         	20.435         	2.532
MS.215         	20.392         	2.139
MS.216         	20.352         	2.332
MS.217         	20.312         	2.31
MS.218         	20.27          	2.189
MS.219         	20.23          	2.643
MS.220         	20.19          	2.316
MS.221         	20.15          	2.401
MS.222         	20.11          	2.314
MS.223         	20.07          	1.99
MS.224         	20.03          	2.258
MS.225         	19.99          	2.175
MS.226         	19.95          	2.012
MS.227         	19.91          	2.127
MS.228         	19.87          	2.189
MS.229         	19.83          	1.893
MS.230         	19.79          	2.038
MS.231         	19.75          	1.895
MS.232         	19.712         	2.075
MS.233         	19.672         	2.034
MS.234         	19.632         	1.821
MS.235         	19.592         	1.98
MS.236         	19.555         	1.603
MS.237         	19.515         	1.521
MS.238         	19.475         	2.05
MS.239         	19.438         	1.609
MS.240         	19.397         	1.877
MS.241         	19.36          	1.426
MS.242         	19.32          	1.486
MS.243         	19.282         	1.642
MS.244         	19.245         	1.021
MS.245         	19.205         	1.539
MS.246         	19.167         	1.356
MS.247         	19.13          	1.627
MS.248         	19.09          	1.289
MS.249         	19.052         	1.458
MS.250         	19.015         	1.545
MS.251         	18.977         	1.078
MS.252         	18.938         	1.446
MS.253         	18.9           	0.924
MS.254         	18.862         	1.549
MS.255         	18.825         	1.349
MS.256         	18.788         	1.414
MS.257         	18.75          	1.263
MS.258         	18.712         	0.918
MS.259         	18.675         	1.263
MS.260         	18.637         	1.168
MS.261         	18.6           	1.217
MS.262         	18.562         	1.041
MS.263         	18.528         	0.935
MS.264         	18.49          	1.045
MS.265         	18.452         	1.122
MS.266         	18.415         	0.959
MS.267         	18.378         	0.991
MS.268         	18.342         	0.959
MS.269         	18.305         	1.156
MS.270         	18.27          	0.965
MS.271         	18.233         	1.106
MS.272         	18.195         	1.001
MS.273         	18.16          	0.916
MS.274         	18.122         	1.031
MS.275         	18.087         	0.983
MS.276         	18.05          	0.975
MS.277         	18.015         	0.999
MS.278         	17.98          	0.991
MS.279         	17.942         	0.933
MS.280         	17.907         	0.993
MS.281         	17.87          	0.965
MS.282         	17.835         	1.11
MS.283         	17.8           	0.975
MS.284         	17.765         	1.007
MS.285         	17.73          	0.983
MS.286         	17.692         	0.834
MS.287         	17.657         	1.005
MS.288         	17.622         	0.87
MS.289         	17.587         	1.031
MS.290         	17.552         	0.912
MS.291         	17.517         	0.661
MS.292         	17.483         	0.92
MS.293         	17.448         	0.733
MS.294         	17.413         	0.86
MS.295         	17.378         	0.828
MS.296         	17.342         	0.657
MS.297         	17.307         	0.804
MS.298         	17.275         	0.769
MS.299         	17.24          	0.868
MS.300         	17.205         	0.765
MS.301         	17.17          	0.912
MS.302         	17.135         	0.725
MS.303         	17.102         	0.556
MS.304         	17.067         	0.769
MS.305         	17.032         	0.673
MS.306         	17             	0.584
MS.307         	16.965         	0.445
MS.308         	16.932         	0.735
MS.309         	16.897         	0.558
MS.310         	16.865         	0.651
MS.311         	16.83          	0.506
MS.312         	16.797         	0.707
MS.313         	16.762         	0.493
MS.314         	16.73          	0.695
MS.315         	16.698         	0.467
MS.316         	16.663         	0.61
MS.317         	16.63          	0.63
MS.318         	16.597         	0.504
MS.319         	16.562         	0.483
MS.320         	16.53          	0.417
MS.321         	16.497         	0.638
MS.322         	16.465         	0.469
MS.323         	16.432         	0.56
MS.324         	16.397         	0.62
MS.325         	16.365         	0.552
MS.326         	16.333         	0.485
MS.327         	16.3           	0.348
MS.328         	16.267         	0.52
MS.329         	16.235         	0.445
MS.330         	16.202         	0.35
MS.331         	16.17          	0.485
MS.332         	16.137         	0.363
MS.333         	16.105         	0.266
MS.334         	16.075         	0.383
MS.335         	16.042         	0.399
MS.336         	16.01          	0.29
MS.337         	15.977         	0.397
MS.338         	15.945         	0.31
MS.339         	15.915         	0.391
MS.340         	15.882         	0.373
MS.341         	15.85          	0.29
MS.342         	15.818         	0.393
MS.343         	15.787         	0.278
MS.344         	15.755         	0.373
MS.345         	15.725         	0.27
MS.346         	15.693         	0.248
MS.347         	15.662         	0.338
MS.348         	15.63          	0.26
MS.349         	15.6           	0.334
MS.350         	15.568         	0.286
MS.351         	15.537         	0.232
MS.352         	15.505         	0.201
MS.353         	15.475         	0.203
MS.354         	15.443         	0.302
MS.355         	15.412         	0.244
MS.356         	15.382         	0.24
MS.357         	15.35          	0.199
MS.358         	15.32          	0.24
MS.359         	15.29          	0.234
MS.360         	15.26          	0.24
MS.361         	15.23          	0.29
MS.362         	15.197         	0.23
MS.363         	15.167         	0.151
MS.364         	15.137         	0.286
MS.365         	15.108         	0.244
MS.366         	15.077         	0.252
MS.367         	15.047         	0.236
MS.368         	15.017         	0.149
MS.369         	14.987         	0.211
MS.370         	14.957         	0.139
MS.371         	14.927         	0.203
MS.372         	14.898         	0.209
MS.373         	14.867         	0.209
MS.374         	14.837         	0.207
MS.375         	14.807         	0.175
MS.376         	14.78          	0.197
MS.377         	14.75          	0.161
MS.378         	14.72          	0.207
MS.379         	14.69          	0.183
MS.380         	14.66          	0.145
MS.381         	14.632         	0.169
MS.382         	14.602         	0.175
MS.383         	14.572         	0.203
MS.384         	14.545         	0.149
MS.385         	14.515         	0.165
MS.386         	14.485         	0.153
MS.387         	14.457         	0.155
MS.388         	14.427         	0.147
MS.389         	14.4           	0.109
MS.390         	14.37          	0.161
MS.391         	14.342         	0.135
MS.392         	14.312         	0.155
MS.393         	14.285         	0.143
MS.394         	14.255         	0.163
MS.395         	14.227         	0.155
MS.396         	14.2           	0.131
MS.397         	14.17          	0.157
MS.398         	14.142         	0.165
MS.399         	14.115         	0.139
MS.400         	14.085         	0.165
MS.401         	14.057         	0.089
MS.402         	14.03          	0.131
MS.403         	14.002         	0.105
MS.404         	13.975         	0.083
MS.405         	13.945         	0.141
MS.406         	13.917         	0.145
MS.407         	13.89          	0.151
MS.408         	13.862         	0.151
MS.409         	13.835         	0.139
MS.410         	13.807         	0.087
MS.411         	13.78          	0.109
MS.412         	13.752         	0.145
MS.413         	13.725         	0.097
MS.414         	13.697         	0.091
MS.415         	13.67          	0.117
MS.416         	13.642         	0.155
MS.417         	13.615         	0.103
MS.418         	13.587         	0.081
MS.419         	13.56          	0.07
MS.420         	13.535         	0.075
MS.421         	13.507         	0.131
MS.422         	13.48          	0.058
MS.423         	13.452         	0.101
MS.424         	13.425         	0.083
MS.425         	13.4           	0.062
MS.426         	13.372         	0.07
MS.427         	13.345         	0.073
MS.428         	13.32          	0.081
MS.429         	13.292         	0.075
MS.430         	13.265         	0.052
MS.431         	13.24          	0.054
MS.432         	13.212         	0.052
MS.433         	13.188         	0.079
MS.434         	13.16          	0.054
MS.435         	13.135         	0.075
MS.436         	13.108         	0.052
MS.437         	13.082         	0.054
MS.438         	13.055         	0.068
MS.439         	13.03          	0.046
MS.440         	13.002         	0.056
MS.441         	12.977         	0.05
MS.442         	12.952         	0.058
MS.443         	12.925         	0.048
MS.444         	12.9           	0.05
MS.445         	12.875         	0.044
MS.446         	12.847         	0.054
MS.447         	12.822         	0.064
MS.448         	12.797         	0.056
MS.449         	12.77          	0.046
MS.450         	12.745         	0.048
MS.451         	12.72          	0.048
MS.452         	12.695         	0.056
MS.453         	12.67          	0.062
MS.454         	12.645         	0.056
MS.455         	12.62          	0.048
MS.456         	12.592         	0.054
MS.457         	12.568         	0.05
MS.458         	12.542         	0.058
MS.459         	12.517         	0.046
MS.460         	12.492         	0.044
MS.461         	12.467         	0.048
MS.462         	12.443         	0.048
MS.463         	12.417         	0.046
MS.464         	12.395         	0.046
MS.465         	12.37          	0.046
MS.466         	12.345         	0.048
MS.467         	12.32          	0.046
MS.468         	12.295         	0.046
MS.469         	12.27          	0.046
MS.470         	12.245         	0.056
MS.471         	12.222         	0.044
MS.472         	12.197         	0.046
MS.473         	12.172         	0.046
MS.474         	12.148         	0.05
MS.475         	12.125         	0.044
MS.476         	12.1           	0.052
MS.477         	12.075         	0.042
MS.478         	12.052         	0.046
MS.479         	12.028         	0.056
MS.480         	12.002         	0.054
MS.481         	11.98          	0.054
MS.482         	11.955         	0.052
MS.483         	11.932         	0.054
MS.484         	11.907         	0.048
MS.485         	11.885         	0.048
MS.486         	11.86          	0.054
MS.487         	11.837         	0.05
MS.488         	11.812         	0.05
MS.489         	11.79          	0.048
MS.490         	11.765         	0.046
MS.491         	11.742         	0.058
MS.492         	11.72          	0.054
MS.493         	11.695         	0.052
MS.494         	11.672         	0.042
MS.495         	11.648         	0.052
MS.496         	11.625         	0.052
MS.497         	11.602         	0.054
MS.498         	11.58          	0.056
MS.499         	11.555         	0.052
MS.500         	11.532         	0.058
MS.501         	11.51          	0.06
