File:              	C:\Qtrac\Data\Daniel M Sørensen\MScan multicentre study\Data from centres\Odense\Processed data\TKC01123D.QZD
Name:              	DK.ODE.NC.9.2
Protocol:          	MSCAN-R2
Date:              	23/11/20
Start time:        	11:38:12
Age:               	69
Sex:               	M
Temperature:       	32.4
S/R sites:         	ADM
NC/disease:        	NC
Operator:          	TK
Comments:
M-SCAN DATA (6.5-1m)
Scanpts: 4, 9, 537, 547
Stim. (mA)     	Amp. (mV)
MS.1           	27.5           	8.868
MS.2           	27.5           	8.854
MS.3           	27.5           	8.848
MS.4           	27.5           	8.816
MS.5           	27.5           	8.854
MS.6           	27.5           	8.842
MS.7           	27.5           	8.834
MS.8           	27.5           	8.82
MS.9           	27.5           	8.852
MS.10          	27.5           	8.844
MS.11          	27.5           	8.842
MS.12          	27.5           	8.822
MS.13          	27.5           	8.814
MS.14          	27.5           	8.826
MS.15          	27.5           	8.874
MS.16          	27.5           	8.8
MS.17          	27.5           	8.792
MS.18          	27.5           	8.818
MS.19          	27.5           	8.8
MS.20          	27.5           	8.808
MS.21          	27.5           	8.83
MS.22          	27.5           	8.832
MS.23          	27.5           	8.84
MS.24          	27.39          	8.758
MS.25          	27.335         	8.77
MS.26          	27.28          	8.82
MS.27          	27.227         	8.818
MS.28          	27.172         	8.806
MS.29          	27.118         	8.772
MS.30          	27.062         	8.804
MS.31          	27.01          	8.808
MS.32          	26.955         	8.8
MS.33          	26.903         	8.784
MS.34          	26.847         	8.778
MS.35          	26.795         	8.75
MS.36          	26.74          	8.772
MS.37          	26.688         	8.776
MS.38          	26.635         	8.76
MS.39          	26.58          	8.79
MS.40          	26.528         	8.79
MS.41          	26.475         	8.81
MS.42          	26.422         	8.842
MS.43          	26.37          	8.778
MS.44          	26.315         	8.81
MS.45          	26.262         	8.808
MS.46          	26.21          	8.786
MS.47          	26.157         	8.79
MS.48          	26.108         	8.754
MS.49          	26.055         	8.778
MS.50          	26.002         	8.772
MS.51          	25.95          	8.756
MS.52          	25.897         	8.808
MS.53          	25.847         	8.75
MS.54          	25.795         	8.772
MS.55          	25.743         	8.735
MS.56          	25.692         	8.758
MS.57          	25.64          	8.782
MS.58          	25.59          	8.774
MS.59          	25.538         	8.737
MS.60          	25.487         	8.729
MS.61          	25.438         	8.719
MS.62          	25.385         	8.747
MS.63          	25.335         	8.752
MS.64          	25.285         	8.729
MS.65          	25.233         	8.731
MS.66          	25.182         	8.723
MS.67          	25.132         	8.723
MS.68          	25.082         	8.713
MS.69          	25.032         	8.689
MS.70          	24.983         	8.695
MS.71          	24.932         	8.681
MS.72          	24.882         	8.711
MS.73          	24.832         	8.733
MS.74          	24.782         	8.733
MS.75          	24.735         	8.707
MS.76          	24.685         	8.671
MS.77          	24.635         	8.663
MS.78          	24.585         	8.663
MS.79          	24.538         	8.665
MS.80          	24.487         	8.703
MS.81          	24.44          	8.629
MS.82          	24.39          	8.693
MS.83          	24.342         	8.641
MS.84          	24.292         	8.631
MS.85          	24.245         	8.665
MS.86          	24.195         	8.645
MS.87          	24.147         	8.631
MS.88          	24.1           	8.627
MS.89          	24.05          	8.627
MS.90          	24.002         	8.596
MS.91          	23.955         	8.663
MS.92          	23.907         	8.596
MS.93          	23.86          	8.611
MS.94          	23.812         	8.578
MS.95          	23.765         	8.562
MS.96          	23.717         	8.602
MS.97          	23.67          	8.582
MS.98          	23.622         	8.536
MS.99          	23.575         	8.542
MS.100         	23.528         	8.578
MS.101         	23.48          	8.586
MS.102         	23.435         	8.419
MS.103         	23.387         	8.522
MS.104         	23.34          	8.472
MS.105         	23.292         	8.403
MS.106         	23.247         	8.413
MS.107         	23.2           	8.395
MS.108         	23.155         	8.399
MS.109         	23.108         	8.367
MS.110         	23.062         	8.387
MS.111         	23.015         	8.441
MS.112         	22.97          	8.383
MS.113         	22.925         	8.373
MS.114         	22.877         	8.391
MS.115         	22.832         	8.381
MS.116         	22.788         	8.524
MS.117         	22.743         	8.345
MS.118         	22.695         	8.387
MS.119         	22.65          	8.403
MS.120         	22.605         	8.351
MS.121         	22.56          	8.329
MS.122         	22.515         	8.3
MS.123         	22.47          	8.333
MS.124         	22.425         	8.325
MS.125         	22.38          	8.325
MS.126         	22.335         	8.286
MS.127         	22.29          	8.284
MS.128         	22.247         	8.288
MS.129         	22.202         	8.304
MS.130         	22.157         	8.329
MS.131         	22.112         	8.254
MS.132         	22.07          	8.208
MS.133         	22.025         	8.173
MS.134         	21.98          	8.236
MS.135         	21.938         	8.224
MS.136         	21.892         	8.224
MS.137         	21.85          	8.23
MS.138         	21.805         	8.196
MS.139         	21.762         	8.177
MS.140         	21.72          	8.139
MS.141         	21.675         	8.061
MS.142         	21.632         	8.18
MS.143         	21.59          	8.095
MS.144         	21.545         	8.133
MS.145         	21.502         	7.998
MS.146         	21.46          	8.147
MS.147         	21.417         	8.047
MS.148         	21.375         	7.928
MS.149         	21.333         	7.968
MS.150         	21.29          	7.93
MS.151         	21.247         	7.855
MS.152         	21.205         	7.916
MS.153         	21.163         	7.863
MS.154         	21.12          	7.841
MS.155         	21.077         	7.771
MS.156         	21.035         	7.765
MS.157         	20.993         	7.704
MS.158         	20.95          	7.728
MS.159         	20.91          	7.775
MS.160         	20.868         	7.755
MS.161         	20.825         	7.773
MS.162         	20.785         	7.726
MS.163         	20.743         	7.68
MS.164         	20.7           	7.73
MS.165         	20.66          	7.664
MS.166         	20.618         	7.581
MS.167         	20.577         	7.517
MS.168         	20.535         	7.426
MS.169         	20.495         	7.487
MS.170         	20.455         	7.493
MS.171         	20.413         	7.513
MS.172         	20.372         	7.469
MS.173         	20.333         	7.418
MS.174         	20.29          	7.352
MS.175         	20.25          	7.424
MS.176         	20.21          	7.372
MS.177         	20.17          	7.406
MS.178         	20.13          	7.319
MS.179         	20.09          	7.154
MS.180         	20.05          	7.187
MS.181         	20.01          	7.162
MS.182         	19.97          	7.152
MS.183         	19.93          	7.142
MS.184         	19.89          	7.062
MS.185         	19.85          	7.025
MS.186         	19.81          	6.971
MS.187         	19.77          	6.923
MS.188         	19.73          	7.019
MS.189         	19.692         	6.901
MS.190         	19.653         	6.876
MS.191         	19.612         	6.782
MS.192         	19.573         	6.844
MS.193         	19.535         	6.832
MS.194         	19.495         	6.758
MS.195         	19.458         	6.792
MS.196         	19.417         	6.671
MS.197         	19.38          	6.649
MS.198         	19.34          	6.655
MS.199         	19.302         	6.687
MS.200         	19.262         	6.6
MS.201         	19.225         	6.631
MS.202         	19.185         	6.61
MS.203         	19.147         	6.53
MS.204         	19.11          	6.532
MS.205         	19.07          	6.514
MS.206         	19.032         	6.548
MS.207         	18.995         	6.474
MS.208         	18.958         	6.443
MS.209         	18.92          	6.447
MS.210         	18.882         	6.395
MS.211         	18.845         	6.391
MS.212         	18.805         	6.345
MS.213         	18.767         	6.266
MS.214         	18.73          	6.347
MS.215         	18.692         	6.357
MS.216         	18.657         	6.351
MS.217         	18.62          	6.373
MS.218         	18.583         	6.258
MS.219         	18.545         	6.264
MS.220         	18.507         	6.2
MS.221         	18.47          	6.224
MS.222         	18.432         	6.194
MS.223         	18.397         	6.149
MS.224         	18.36          	6.179
MS.225         	18.323         	6.21
MS.226         	18.288         	6.171
MS.227         	18.25          	6.079
MS.228         	18.215         	6.165
MS.229         	18.177         	6.053
MS.230         	18.14          	6.002
MS.231         	18.105         	6.069
MS.232         	18.067         	6.125
MS.233         	18.032         	5.994
MS.234         	17.997         	6.055
MS.235         	17.96          	5.942
MS.236         	17.925         	6.079
MS.237         	17.89          	6.119
MS.238         	17.852         	5.994
MS.239         	17.817         	6.069
MS.240         	17.782         	5.861
MS.241         	17.747         	6.141
MS.242         	17.71          	5.859
MS.243         	17.675         	5.845
MS.244         	17.64          	5.859
MS.245         	17.605         	5.871
MS.246         	17.57          	5.867
MS.247         	17.535         	5.783
MS.248         	17.5           	5.805
MS.249         	17.465         	5.904
MS.250         	17.43          	5.726
MS.251         	17.395         	5.779
MS.252         	17.36          	5.716
MS.253         	17.325         	5.738
MS.254         	17.29          	5.708
MS.255         	17.257         	5.692
MS.256         	17.222         	5.68
MS.257         	17.188         	5.678
MS.258         	17.153         	5.644
MS.259         	17.12          	5.63
MS.260         	17.085         	5.67
MS.261         	17.05          	5.539
MS.262         	17.017         	5.678
MS.263         	16.983         	5.577
MS.264         	16.948         	5.646
MS.265         	16.915         	5.682
MS.266         	16.88          	5.561
MS.267         	16.847         	5.591
MS.268         	16.812         	5.571
MS.269         	16.78          	5.587
MS.270         	16.747         	5.521
MS.271         	16.712         	5.509
MS.272         	16.68          	5.448
MS.273         	16.645         	5.575
MS.274         	16.612         	5.414
MS.275         	16.58          	5.46
MS.276         	16.547         	5.176
MS.277         	16.512         	5.406
MS.278         	16.48          	5.45
MS.279         	16.448         	5.39
MS.280         	16.415         	5.44
MS.281         	16.382         	5.4
MS.282         	16.35          	5.364
MS.283         	16.317         	5.348
MS.284         	16.285         	5.336
MS.285         	16.253         	4.973
MS.286         	16.22          	5.09
MS.287         	16.188         	4.947
MS.288         	16.155         	4.935
MS.289         	16.122         	5.269
MS.290         	16.09          	5.136
MS.291         	16.057         	4.923
MS.292         	16.025         	5.235
MS.293         	15.992         	4.931
MS.294         	15.962         	5.188
MS.295         	15.93          	4.87
MS.296         	15.898         	4.862
MS.297         	15.865         	4.844
MS.298         	15.835         	4.802
MS.299         	15.802         	4.707
MS.300         	15.77          	4.874
MS.301         	15.74          	4.725
MS.302         	15.707         	4.741
MS.303         	15.677         	4.824
MS.304         	15.645         	4.719
MS.305         	15.615         	4.653
MS.306         	15.582         	4.653
MS.307         	15.552         	4.659
MS.308         	15.52          	4.862
MS.309         	15.49          	4.683
MS.310         	15.46          	4.745
MS.311         	15.427         	4.629
MS.312         	15.398         	4.749
MS.313         	15.367         	4.618
MS.314         	15.335         	4.703
MS.315         	15.305         	4.681
MS.316         	15.275         	4.653
MS.317         	15.245         	4.685
MS.318         	15.212         	4.629
MS.319         	15.182         	4.753
MS.320         	15.152         	4.608
MS.321         	15.122         	4.612
MS.322         	15.092         	4.655
MS.323         	15.062         	4.673
MS.324         	15.032         	4.596
MS.325         	15.002         	4.58
MS.326         	14.972         	4.405
MS.327         	14.943         	4.328
MS.328         	14.912         	4.246
MS.329         	14.882         	4.496
MS.330         	14.852         	4.21
MS.331         	14.822         	4.427
MS.332         	14.792         	4.175
MS.333         	14.765         	4.181
MS.334         	14.735         	4.109
MS.335         	14.705         	4.185
MS.336         	14.675         	4.262
MS.337         	14.645         	4.115
MS.338         	14.617         	4.024
MS.339         	14.587         	4.105
MS.340         	14.557         	3.845
MS.341         	14.53          	4.02
MS.342         	14.5           	3.922
MS.343         	14.472         	3.777
MS.344         	14.443         	3.851
MS.345         	14.412         	4.01
MS.346         	14.385         	4.032
MS.347         	14.355         	3.909
MS.348         	14.327         	3.726
MS.349         	14.3           	4.032
MS.350         	14.27          	3.811
MS.351         	14.242         	3.567
MS.352         	14.212         	3.714
MS.353         	14.185         	3.698
MS.354         	14.157         	3.64
MS.355         	14.127         	3.795
MS.356         	14.1           	3.625
MS.357         	14.072         	3.66
MS.358         	14.045         	3.706
MS.359         	14.015         	3.694
MS.360         	13.987         	3.482
MS.361         	13.96          	3.634
MS.362         	13.932         	3.358
MS.363         	13.905         	3.269
MS.364         	13.877         	3.432
MS.365         	13.847         	3.078
MS.366         	13.82          	3.587
MS.367         	13.792         	3.559
MS.368         	13.765         	3.255
MS.369         	13.737         	3.066
MS.370         	13.71          	3.074
MS.371         	13.682         	3.094
MS.372         	13.655         	3.152
MS.373         	13.63          	3.194
MS.374         	13.602         	3.047
MS.375         	13.575         	3.041
MS.376         	13.547         	3.005
MS.377         	13.52          	3.249
MS.378         	13.492         	3.005
MS.379         	13.465         	2.969
MS.380         	13.44          	2.961
MS.381         	13.412         	3.029
MS.382         	13.385         	2.9
MS.383         	13.36          	3.005
MS.384         	13.332         	2.929
MS.385         	13.305         	2.921
MS.386         	13.28          	2.782
MS.387         	13.252         	2.739
MS.388         	13.225         	2.812
MS.389         	13.2           	2.564
MS.390         	13.172         	2.733
MS.391         	13.148         	2.502
MS.392         	13.12          	2.675
MS.393         	13.095         	2.647
MS.394         	13.068         	2.129
MS.395         	13.042         	2.558
MS.396         	13.015         	2.492
MS.397         	12.99          	1.97
MS.398         	12.965         	2.33
MS.399         	12.938         	1.638
MS.400         	12.912         	2
MS.401         	12.887         	1.644
MS.402         	12.86          	1.74
MS.403         	12.835         	1.855
MS.404         	12.81          	1.885
MS.405         	12.785         	1.712
MS.406         	12.757         	1.585
MS.407         	12.733         	1.507
MS.408         	12.707         	1.551
MS.409         	12.682         	1.426
MS.410         	12.657         	1.559
MS.411         	12.632         	1.501
MS.412         	12.605         	1.418
MS.413         	12.58          	1.4
MS.414         	12.555         	1.414
MS.415         	12.53          	1.509
MS.416         	12.505         	1.408
MS.417         	12.48          	1.466
MS.418         	12.455         	1.325
MS.419         	12.43          	1.349
MS.420         	12.405         	1.319
MS.421         	12.38          	1.333
MS.422         	12.358         	1.347
MS.423         	12.332         	1.271
MS.424         	12.307         	1.253
MS.425         	12.282         	1.253
MS.426         	12.257         	1.253
MS.427         	12.233         	1.202
MS.428         	12.21          	1.347
MS.429         	12.185         	1.263
MS.430         	12.16          	1.162
MS.431         	12.135         	1.158
MS.432         	12.113         	1.152
MS.433         	12.087         	1.18
MS.434         	12.062         	1.088
MS.435         	12.04          	1.184
MS.436         	12.015         	1.118
MS.437         	11.992         	0.908
MS.438         	11.967         	1.134
MS.439         	11.943         	1.007
MS.440         	11.92          	0.951
MS.441         	11.895         	0.916
MS.442         	11.872         	0.812
MS.443         	11.847         	0.681
MS.444         	11.825         	0.812
MS.445         	11.8           	0.959
MS.446         	11.778         	0.771
MS.447         	11.755         	0.814
MS.448         	11.73          	0.534
MS.449         	11.707         	1.057
MS.450         	11.682         	0.665
MS.451         	11.66          	0.689
MS.452         	11.637         	0.606
MS.453         	11.613         	0.612
MS.454         	11.59          	0.548
MS.455         	11.568         	0.574
MS.456         	11.545         	0.578
MS.457         	11.52          	0.614
MS.458         	11.497         	0.647
MS.459         	11.475         	0.453
MS.460         	11.452         	0.604
MS.461         	11.43          	0.485
MS.462         	11.407         	0.534
MS.463         	11.382         	0.441
MS.464         	11.36          	0.481
MS.465         	11.337         	0.359
MS.466         	11.315         	0.357
MS.467         	11.292         	0.431
MS.468         	11.27          	0.383
MS.469         	11.247         	0.425
MS.470         	11.225         	0.407
MS.471         	11.202         	0.346
MS.472         	11.18          	0.427
MS.473         	11.157         	0.334
MS.474         	11.135         	0.306
MS.475         	11.113         	0.214
MS.476         	11.092         	0.256
MS.477         	11.07          	0.209
MS.478         	11.047         	0.332
MS.479         	11.025         	0.22
MS.480         	11.002         	0.238
MS.481         	10.98          	0.316
MS.482         	10.96          	0.27
MS.483         	10.938         	0.242
MS.484         	10.915         	0.256
MS.485         	10.892         	0.326
MS.486         	10.872         	0.218
MS.487         	10.85          	0.224
MS.488         	10.827         	0.304
MS.489         	10.807         	0.189
MS.490         	10.785         	0.197
MS.491         	10.762         	0.228
MS.492         	10.742         	0.268
MS.493         	10.72          	0.252
MS.494         	10.7           	0.209
MS.495         	10.677         	0.218
MS.496         	10.657         	0.24
MS.497         	10.635         	0.125
MS.498         	10.615         	0.24
MS.499         	10.592         	0.149
MS.500         	10.573         	0.145
MS.501         	10.55          	0.185
MS.502         	10.53          	0.131
