File:              	C:\Qtrac\Data\Daniel M Sørensen\MScan multicentre study\Data from centres\Odense\Processed data\TKC01116B (2).QZD
Name:              	DK.ODE.NC.10.1
Protocol:          	MSCAN-R2
Date:              	16/11/20
Start time:        	12:16:28
Age:               	74
Sex:               	M
Temperature:       	32.4
S/R sites:         	ADM
NC/disease:        	NC
Operator:          	TK
Comments:
M-SCAN DATA (7.1-0.9m)
Scanpts: 17, 26, 325, 345
Stim. (mA)     	Amp. (mV)
MS.1           	34             	7.71
MS.2           	34             	7.698
MS.3           	34             	7.666
MS.4           	34             	7.68
MS.5           	34             	7.603
MS.6           	34             	7.656
MS.7           	34             	7.652
MS.8           	34             	7.718
MS.9           	34             	7.658
MS.10          	34             	7.706
MS.11          	34             	7.71
MS.12          	34             	7.748
MS.13          	34             	7.787
MS.14          	34             	7.712
MS.15          	34             	7.714
MS.16          	34             	7.787
MS.17          	34             	7.726
MS.18          	34             	7.73
MS.19          	34             	7.672
MS.20          	34             	7.676
MS.21          	34             	7.716
MS.22          	34             	7.73
MS.23          	33.865         	7.773
MS.24          	33.798         	7.736
MS.25          	33.73          	7.738
MS.26          	33.662         	7.757
MS.27          	33.595         	7.72
MS.28          	33.528         	7.827
MS.29          	33.46          	7.753
MS.30          	33.392         	7.783
MS.31          	33.327         	7.736
MS.32          	33.26          	7.861
MS.33          	33.193         	7.793
MS.34          	33.127         	7.755
MS.35          	33.06          	7.773
MS.36          	32.995         	7.73
MS.37          	32.93          	7.771
MS.38          	32.862         	7.807
MS.39          	32.798         	7.753
MS.40          	32.732         	7.734
MS.41          	32.667         	7.698
MS.42          	32.603         	7.66
MS.43          	32.537         	7.666
MS.44          	32.472         	7.65
MS.45          	32.407         	7.537
MS.46          	32.342         	7.632
MS.47          	32.278         	7.517
MS.48          	32.212         	7.517
MS.49          	32.147         	7.529
MS.50          	32.085         	7.527
MS.51          	32.02          	7.515
MS.52          	31.955         	7.475
MS.53          	31.892         	7.531
MS.54          	31.827         	7.519
MS.55          	31.765         	7.392
MS.56          	31.702         	7.43
MS.57          	31.637         	7.469
MS.58          	31.575         	7.43
MS.59          	31.512         	7.454
MS.60          	31.448         	7.499
MS.61          	31.385         	7.483
MS.62          	31.323         	7.408
MS.63          	31.26          	7.396
MS.64          	31.198         	7.422
MS.65          	31.135         	7.36
MS.66          	31.073         	7.43
MS.67          	31.012         	7.35
MS.68          	30.95          	7.328
MS.69          	30.887         	7.374
MS.70          	30.825         	7.328
MS.71          	30.765         	7.14
MS.72          	30.702         	7.195
MS.73          	30.642         	7.229
MS.74          	30.58          	6.975
MS.75          	30.52          	7.231
MS.76          	30.457         	7.283
MS.77          	30.397         	7.215
MS.78          	30.337         	7.16
MS.79          	30.275         	7.16
MS.80          	30.215         	7.044
MS.81          	30.155         	7.048
MS.82          	30.095         	7.126
MS.83          	30.035         	7.013
MS.84          	29.975         	6.872
MS.85          	29.915         	6.915
MS.86          	29.855         	6.76
MS.87          	29.795         	6.965
MS.88          	29.735         	6.856
MS.89          	29.677         	6.707
MS.90          	29.617         	6.854
MS.91          	29.557         	6.741
MS.92          	29.5           	6.792
MS.93          	29.44          	6.776
MS.94          	29.382         	6.812
MS.95          	29.323         	6.707
MS.96          	29.265         	6.747
MS.97          	29.205         	6.508
MS.98          	29.147         	6.596
MS.99          	29.09          	6.729
MS.100         	29.03          	6.542
MS.101         	28.972         	6.522
MS.102         	28.915         	6.56
MS.103         	28.858         	6.476
MS.104         	28.8           	6.429
MS.105         	28.743         	6.54
MS.106         	28.685         	6.32
MS.107         	28.627         	6.188
MS.108         	28.57          	6.375
MS.109         	28.512         	6.302
MS.110         	28.455         	6.208
MS.111         	28.4           	6.224
MS.112         	28.342         	6.22
MS.113         	28.285         	6.179
MS.114         	28.23          	6.246
MS.115         	28.172         	6.113
MS.116         	28.118         	6.044
MS.117         	28.06          	6.127
MS.118         	28.005         	6.026
MS.119         	27.948         	5.934
MS.120         	27.892         	5.827
MS.121         	27.837         	6.065
MS.122         	27.78          	5.831
MS.123         	27.725         	5.992
MS.124         	27.67          	5.664
MS.125         	27.615         	5.45
MS.126         	27.56          	5.497
MS.127         	27.505         	5.497
MS.128         	27.45          	5.714
MS.129         	27.395         	5.452
MS.130         	27.34          	5.257
MS.131         	27.285         	5.468
MS.132         	27.23          	5.495
MS.133         	27.177         	5.277
MS.134         	27.122         	5.444
MS.135         	27.067         	5.11
MS.136         	27.015         	5.376
MS.137         	26.96          	5.102
MS.138         	26.905         	5.251
MS.139         	26.852         	5.263
MS.140         	26.8           	5.263
MS.141         	26.745         	4.846
MS.142         	26.692         	5.043
MS.143         	26.637         	4.641
MS.144         	26.585         	4.719
MS.145         	26.532         	4.884
MS.146         	26.48          	4.774
MS.147         	26.425         	4.33
MS.148         	26.372         	4.52
MS.149         	26.32          	4.222
MS.150         	26.267         	4.334
MS.151         	26.215         	4.353
MS.152         	26.162         	4.187
MS.153         	26.11          	3.895
MS.154         	26.06          	4.206
MS.155         	26.007         	3.926
MS.156         	25.955         	3.996
MS.157         	25.903         	4.042
MS.158         	25.85          	4
MS.159         	25.8           	3.706
MS.160         	25.747         	3.865
MS.161         	25.698         	3.781
MS.162         	25.645         	3.688
MS.163         	25.595         	3.69
MS.164         	25.542         	3.948
MS.165         	25.493         	3.442
MS.166         	25.44          	3.557
MS.167         	25.39          	3.638
MS.168         	25.34          	3.319
MS.169         	25.288         	3.436
MS.170         	25.237         	3.364
MS.171         	25.188         	3.14
MS.172         	25.137         	2.957
MS.173         	25.087         	3.321
MS.174         	25.038         	3.267
MS.175         	24.987         	2.963
MS.176         	24.938         	3.17
MS.177         	24.887         	3.269
MS.178         	24.837         	2.955
MS.179         	24.788         	3.06
MS.180         	24.737         	3.043
MS.181         	24.69          	2.598
MS.182         	24.64          	2.532
MS.183         	24.59          	2.443
MS.184         	24.542         	2.397
MS.185         	24.493         	2.423
MS.186         	24.442         	2.443
MS.187         	24.395         	2.264
MS.188         	24.345         	2.248
MS.189         	24.297         	2.242
MS.190         	24.247         	2.24
MS.191         	24.2           	2.125
MS.192         	24.153         	1.98
MS.193         	24.102         	1.96
MS.194         	24.055         	2.091
MS.195         	24.007         	1.772
MS.196         	23.96          	1.982
MS.197         	23.913         	1.964
MS.198         	23.862         	1.905
MS.199         	23.815         	1.567
MS.200         	23.767         	1.758
MS.201         	23.72          	1.865
MS.202         	23.672         	1.559
MS.203         	23.625         	1.591
MS.204         	23.58          	1.396
MS.205         	23.532         	1.267
MS.206         	23.485         	1.384
MS.207         	23.438         	1.541
MS.208         	23.39          	1.414
MS.209         	23.345         	1.46
MS.210         	23.297         	1.358
MS.211         	23.25          	1.196
MS.212         	23.205         	1.18
MS.213         	23.157         	1.305
MS.214         	23.112         	1.084
MS.215         	23.065         	1.015
MS.216         	23.02          	1.128
MS.217         	22.975         	1.017
MS.218         	22.927         	1.003
MS.219         	22.882         	0.965
MS.220         	22.837         	0.894
MS.221         	22.79          	0.931
MS.222         	22.745         	0.868
MS.223         	22.7           	0.862
MS.224         	22.655         	0.87
MS.225         	22.61          	0.846
MS.226         	22.565         	0.735
MS.227         	22.52          	0.828
MS.228         	22.475         	0.691
MS.229         	22.43          	0.745
MS.230         	22.385         	0.717
MS.231         	22.34          	0.691
MS.232         	22.295         	0.649
MS.233         	22.25          	0.792
MS.234         	22.205         	0.741
MS.235         	22.163         	0.725
MS.236         	22.118         	0.622
MS.237         	22.073         	0.697
MS.238         	22.03          	0.598
MS.239         	21.985         	0.51
MS.240         	21.94          	0.687
MS.241         	21.897         	0.5
MS.242         	21.852         	0.526
MS.243         	21.81          	0.612
MS.244         	21.765         	0.562
MS.245         	21.722         	0.542
MS.246         	21.68          	0.433
MS.247         	21.635         	0.514
MS.248         	21.592         	0.582
MS.249         	21.55          	0.532
MS.250         	21.507         	0.431
MS.251         	21.462         	0.508
MS.252         	21.42          	0.489
MS.253         	21.377         	0.52
MS.254         	21.335         	0.379
MS.255         	21.292         	0.483
MS.256         	21.25          	0.459
MS.257         	21.208         	0.441
MS.258         	21.165         	0.487
MS.259         	21.122         	0.487
MS.260         	21.08          	0.371
MS.261         	21.038         	0.421
MS.262         	20.997         	0.328
MS.263         	20.955         	0.381
MS.264         	20.913         	0.316
MS.265         	20.87          	0.32
MS.266         	20.83          	0.427
MS.267         	20.788         	0.401
MS.268         	20.745         	0.383
MS.269         	20.705         	0.266
MS.270         	20.663         	0.35
MS.271         	20.622         	0.33
MS.272         	20.58          	0.256
MS.273         	20.54          	0.248
MS.274         	20.497         	0.286
MS.275         	20.458         	0.236
MS.276         	20.417         	0.228
MS.277         	20.375         	0.228
MS.278         	20.335         	0.228
MS.279         	20.295         	0.28
MS.280         	20.255         	0.244
MS.281         	20.212         	0.28
MS.282         	20.172         	0.262
MS.283         	20.132         	0.242
MS.284         	20.092         	0.179
MS.285         	20.052         	0.228
MS.286         	20.012         	0.214
MS.287         	19.972         	0.207
MS.288         	19.932         	0.211
MS.289         	19.892         	0.207
MS.290         	19.852         	0.111
MS.291         	19.812         	0.191
MS.292         	19.775         	0.179
MS.293         	19.735         	0.175
MS.294         	19.695         	0.087
MS.295         	19.655         	0.107
MS.296         	19.615         	0.177
MS.297         	19.577         	0.165
MS.298         	19.538         	0.095
MS.299         	19.5           	0.119
MS.300         	19.46          	0.155
MS.301         	19.42          	0.159
MS.302         	19.382         	0.123
MS.303         	19.342         	0.197
MS.304         	19.305         	0.151
MS.305         	19.267         	0.097
MS.306         	19.227         	0.123
MS.307         	19.19          	0.095
MS.308         	19.15          	0.131
MS.309         	19.112         	0.131
MS.310         	19.075         	0.087
MS.311         	19.038         	0.095
MS.312         	18.997         	0.109
MS.313         	18.96          	0.177
MS.314         	18.922         	0.099
MS.315         	18.885         	0.099
MS.316         	18.847         	0.109
MS.317         	18.81          	0.115
MS.318         	18.772         	0.119
MS.319         	18.735         	0.111
MS.320         	18.698         	0.131
MS.321         	18.66          	0.107
MS.322         	18.622         	0.137
MS.323         	18.585         	0.115
MS.324         	18.547         	0.111
MS.325         	18.51          	0.123
MS.326         	18.475         	0.089
MS.327         	18.438         	0.109
MS.328         	18.4           	0.101
MS.329         	18.362         	0.131
MS.330         	18.327         	0.107
MS.331         	18.29          	0.087
MS.332         	18.253         	0.131
MS.333         	18.217         	0.099
MS.334         	18.18          	0.115
MS.335         	18.145         	0.117
MS.336         	18.108         	0.123
MS.337         	18.073         	0.113
MS.338         	18.035         	0.109
MS.339         	18             	0.151
MS.340         	17.965         	0.119
MS.341         	17.927         	0.107
MS.342         	17.892         	0.131
MS.343         	17.858         	0.127
MS.344         	17.82          	0.109
MS.345         	17.785         	0.121
MS.346         	17.75          	0.099
MS.347         	17.715         	0.125
MS.348         	17.677         	0.105
MS.349         	17.642         	0.111
MS.350         	17.608         	0.137
MS.351         	17.573         	0.107
MS.352         	17.538         	0.127
MS.353         	17.503         	0.125
MS.354         	17.467         	0.101
MS.355         	17.432         	0.115
MS.356         	17.397         	0.105
MS.357         	17.362         	0.103
MS.358         	17.327         	0.125
MS.359         	17.295         	0.125
MS.360         	17.26          	0.095
MS.361         	17.225         	0.123
MS.362         	17.19          	0.121
MS.363         	17.155         	0.119
MS.364         	17.122         	0.101
MS.365         	17.087         	0.131
MS.366         	17.052         	0.119
MS.367         	17.02          	0.109
MS.368         	16.985         	0.117
MS.369         	16.952         	0.131
MS.370         	16.917         	0.129
MS.371         	16.885         	0.113
MS.372         	16.85          	0.115
MS.373         	16.817         	0.109
MS.374         	16.782         	0.111
MS.375         	16.75          	0.095
MS.376         	16.715         	0.125
MS.377         	16.682         	0.111
MS.378         	16.65          	0.085
MS.379         	16.615         	0.117
MS.380         	16.583         	0.107
MS.381         	16.55          	0.107
MS.382         	16.517         	0.115
MS.383         	16.483         	0.105
MS.384         	16.45          	0.105
MS.385         	16.417         	0.105
MS.386         	16.385         	0.105
MS.387         	16.352         	0.105
MS.388         	16.32          	0.099
MS.389         	16.288         	0.115
MS.390         	16.255         	0.143
MS.391         	16.222         	0.117
MS.392         	16.19          	0.115
MS.393         	16.157         	0.097
MS.394         	16.125         	0.115
MS.395         	16.092         	0.095
MS.396         	16.06          	0.121
MS.397         	16.028         	0.139
MS.398         	15.997         	0.101
MS.399         	15.965         	0.111
MS.400         	15.932         	0.109
MS.401         	15.9           	0.099
MS.402         	15.87          	0.145
MS.403         	15.837         	0.121
MS.404         	15.805         	0.111
MS.405         	15.775         	0.103
MS.406         	15.742         	0.129
MS.407         	15.71          	0.113
MS.408         	15.68          	0.113
MS.409         	15.648         	0.097
MS.410         	15.617         	0.105
MS.411         	15.585         	0.115
MS.412         	15.555         	0.123
MS.413         	15.523         	0.105
MS.414         	15.492         	0.137
MS.415         	15.462         	0.085
MS.416         	15.43          	0.107
MS.417         	15.4           	0.131
MS.418         	15.37          	0.087
MS.419         	15.337         	0.129
MS.420         	15.307         	0.103
MS.421         	15.277         	0.129
MS.422         	15.247         	0.125
MS.423         	15.215         	0.103
MS.424         	15.185         	0.121
MS.425         	15.155         	0.095
MS.426         	15.125         	0.111
MS.427         	15.095         	0.117
MS.428         	15.065         	0.117
MS.429         	15.035         	0.111
MS.430         	15.005         	0.101
MS.431         	14.975         	0.093
MS.432         	14.945         	0.125
MS.433         	14.915         	0.143
MS.434         	14.885         	0.119
MS.435         	14.855         	0.109
MS.436         	14.825         	0.103
MS.437         	14.795         	0.123
MS.438         	14.767         	0.111
MS.439         	14.737         	0.135
MS.440         	14.707         	0.115
MS.441         	14.677         	0.099
MS.442         	14.65          	0.127
MS.443         	14.62          	0.111
MS.444         	14.59          	0.117
MS.445         	14.56          	0.121
MS.446         	14.532         	0.105
MS.447         	14.502         	0.121
MS.448         	14.475         	0.139
MS.449         	14.445         	0.133
MS.450         	14.417         	0.145
MS.451         	14.387         	0.125
MS.452         	14.358         	0.113
MS.453         	14.33          	0.117
MS.454         	14.302         	0.123
MS.455         	14.273         	0.119
MS.456         	14.245         	0.119
MS.457         	14.215         	0.107
MS.458         	14.188         	0.123
MS.459         	14.16          	0.119
MS.460         	14.13          	0.147
MS.461         	14.102         	0.117
MS.462         	14.075         	0.105
MS.463         	14.047         	0.099
MS.464         	14.017         	0.113
MS.465         	13.99          	0.115
MS.466         	13.962         	0.129
MS.467         	13.935         	0.117
MS.468         	13.907         	0.117
MS.469         	13.877         	0.115
MS.470         	13.85          	0.113
MS.471         	13.822         	0.115
MS.472         	13.795         	0.147
MS.473         	13.767         	0.141
MS.474         	13.74          	0.121
MS.475         	13.712         	0.121
MS.476         	13.685         	0.121
MS.477         	13.657         	0.113
MS.478         	13.63          	0.111
MS.479         	13.605         	0.131
MS.480         	13.577         	0.117
MS.481         	13.55          	0.127
MS.482         	13.523         	0.105
MS.483         	13.495         	0.119
MS.484         	13.467         	0.115
MS.485         	13.443         	0.127
MS.486         	13.415         	0.125
MS.487         	13.387         	0.125
MS.488         	13.36          	0.107
MS.489         	13.335         	0.131
MS.490         	13.307         	0.147
MS.491         	13.282         	0.135
MS.492         	13.255         	0.155
MS.493         	13.227         	0.129
MS.494         	13.202         	0.147
MS.495         	13.175         	0.119
MS.496         	13.15          	0.137
MS.497         	13.122         	0.119
MS.498         	13.097         	0.105
MS.499         	13.07          	0.129
MS.500         	13.045         	0.129
MS.501         	13.017         	0.133
