File:              	C:\Qtrac\Data\Daniel M Sørensen\MScan multicentre study\Data from centres\Odense\Processed data\TKC01116C.QZD
Name:              	DK.ODE.NC.9.1
Protocol:          	MSCAN-R2
Date:              	16/11/20
Start time:        	10:32:40
Age:               	69
Sex:               	M
Temperature:       	31.4
S/R sites:         	ADM
NC/disease:        	NC
Operator:          	TK
Comments:
M-SCAN DATA (6.5-1m)
Scanpts: 9, 14, 552, 562
Stim. (mA)     	Amp. (mV)
MS.1           	29             	8.276
MS.2           	29             	8.306
MS.3           	29             	8.3
MS.4           	29             	8.218
MS.5           	29             	8.236
MS.6           	29             	8.256
MS.7           	29             	8.31
MS.8           	29             	8.256
MS.9           	29             	8.246
MS.10          	29             	8.258
MS.11          	29             	8.26
MS.12          	29             	8.246
MS.13          	29             	8.228
MS.14          	29             	8.216
MS.15          	29             	8.288
MS.16          	29             	8.204
MS.17          	29             	8.252
MS.18          	29             	8.224
MS.19          	29             	8.216
MS.20          	29             	8.202
MS.21          	29             	8.212
MS.22          	29             	8.149
MS.23          	29             	8.224
MS.24          	28.885         	8.188
MS.25          	28.827         	8.232
MS.26          	28.77          	8.19
MS.27          	28.712         	8.169
MS.28          	28.655         	8.173
MS.29          	28.597         	8.145
MS.30          	28.54          	8.22
MS.31          	28.483         	8.143
MS.32          	28.425         	8.111
MS.33          	28.37          	8.206
MS.34          	28.312         	8.139
MS.35          	28.255         	8.182
MS.36          	28.2           	8.153
MS.37          	28.142         	8.194
MS.38          	28.087         	8.171
MS.39          	28.03          	8.21
MS.40          	27.975         	8.234
MS.41          	27.917         	8.161
MS.42          	27.862         	8.23
MS.43          	27.807         	8.19
MS.44          	27.752         	8.222
MS.45          	27.695         	8.175
MS.46          	27.64          	8.18
MS.47          	27.585         	8.141
MS.48          	27.53          	8.216
MS.49          	27.475         	8.194
MS.50          	27.42          	8.133
MS.51          	27.365         	8.216
MS.52          	27.31          	8.254
MS.53          	27.257         	8.208
MS.54          	27.202         	8.194
MS.55          	27.147         	8.175
MS.56          	27.092         	8.204
MS.57          	27.04          	8.175
MS.58          	26.985         	8.135
MS.59          	26.932         	8.208
MS.60          	26.877         	8.175
MS.61          	26.825         	8.149
MS.62          	26.77          	8.151
MS.63          	26.717         	8.101
MS.64          	26.662         	8.153
MS.65          	26.61          	8.165
MS.66          	26.557         	8.182
MS.67          	26.505         	8.182
MS.68          	26.45          	8.115
MS.69          	26.397         	8.171
MS.70          	26.345         	8.184
MS.71          	26.292         	8.182
MS.72          	26.24          	8.139
MS.73          	26.188         	8.159
MS.74          	26.135         	8.143
MS.75          	26.082         	8.21
MS.76          	26.03          	8.21
MS.77          	25.98          	8.147
MS.78          	25.927         	8.145
MS.79          	25.875         	8.135
MS.80          	25.823         	8.153
MS.81          	25.772         	8.194
MS.82          	25.72          	8.153
MS.83          	25.67          	8.079
MS.84          	25.618         	8.119
MS.85          	25.567         	8.103
MS.86          	25.515         	8.125
MS.87          	25.465         	8.125
MS.88          	25.415         	8.099
MS.89          	25.362         	8.115
MS.90          	25.312         	8.105
MS.91          	25.262         	8.127
MS.92          	25.212         	8.177
MS.93          	25.16          	8.127
MS.94          	25.11          	8.137
MS.95          	25.06          	8.111
MS.96          	25.01          	8.105
MS.97          	24.96          	8.137
MS.98          	24.91          	8.121
MS.99          	24.86          	8.087
MS.100         	24.81          	8.097
MS.101         	24.762         	8.107
MS.102         	24.712         	8.065
MS.103         	24.663         	8.095
MS.104         	24.612         	8.095
MS.105         	24.565         	8.093
MS.106         	24.515         	8.034
MS.107         	24.465         	8.073
MS.108         	24.417         	8.135
MS.109         	24.368         	8.125
MS.110         	24.32          	8.053
MS.111         	24.27          	8.057
MS.112         	24.222         	8.039
MS.113         	24.175         	8.018
MS.114         	24.125         	7.968
MS.115         	24.077         	7.992
MS.116         	24.03          	7.912
MS.117         	23.983         	7.96
MS.118         	23.935         	8.002
MS.119         	23.885         	8.065
MS.120         	23.837         	8.129
MS.121         	23.79          	8.077
MS.122         	23.743         	8.006
MS.123         	23.695         	7.898
MS.124         	23.647         	7.94
MS.125         	23.6           	7.942
MS.126         	23.555         	7.954
MS.127         	23.507         	7.962
MS.128         	23.46          	7.962
MS.129         	23.413         	7.94
MS.130         	23.365         	7.94
MS.131         	23.32          	7.998
MS.132         	23.272         	7.968
MS.133         	23.227         	7.863
MS.134         	23.18          	7.863
MS.135         	23.132         	7.855
MS.136         	23.087         	7.883
MS.137         	23.042         	7.904
MS.138         	22.995         	7.843
MS.139         	22.95          	7.863
MS.140         	22.903         	7.877
MS.141         	22.858         	7.883
MS.142         	22.812         	7.924
MS.143         	22.767         	7.9
MS.144         	22.72          	7.948
MS.145         	22.675         	7.916
MS.146         	22.63          	7.902
MS.147         	22.585         	7.924
MS.148         	22.54          	7.96
MS.149         	22.495         	7.887
MS.150         	22.45          	7.841
MS.151         	22.405         	7.863
MS.152         	22.36          	7.829
MS.153         	22.315         	7.835
MS.154         	22.27          	7.849
MS.155         	22.227         	7.819
MS.156         	22.182         	7.811
MS.157         	22.137         	7.817
MS.158         	22.092         	7.841
MS.159         	22.05          	7.875
MS.160         	22.005         	7.863
MS.161         	21.962         	7.857
MS.162         	21.917         	7.93
MS.163         	21.875         	7.811
MS.164         	21.83          	7.837
MS.165         	21.788         	7.851
MS.166         	21.743         	7.819
MS.167         	21.7           	7.883
MS.168         	21.655         	7.839
MS.169         	21.612         	7.803
MS.170         	21.57          	7.765
MS.171         	21.528         	7.829
MS.172         	21.483         	7.851
MS.173         	21.44          	7.791
MS.174         	21.397         	7.783
MS.175         	21.355         	7.879
MS.176         	21.312         	7.71
MS.177         	21.27          	7.803
MS.178         	21.227         	7.809
MS.179         	21.185         	7.694
MS.180         	21.142         	7.755
MS.181         	21.1           	7.765
MS.182         	21.057         	7.839
MS.183         	21.015         	7.744
MS.184         	20.975         	7.708
MS.185         	20.932         	7.769
MS.186         	20.89          	7.757
MS.187         	20.847         	7.726
MS.188         	20.807         	7.714
MS.189         	20.765         	7.7
MS.190         	20.725         	7.748
MS.191         	20.682         	7.67
MS.192         	20.642         	7.746
MS.193         	20.6           	7.811
MS.194         	20.56          	7.652
MS.195         	20.517         	7.722
MS.196         	20.477         	7.757
MS.197         	20.435         	7.698
MS.198         	20.395         	7.712
MS.199         	20.355         	7.652
MS.200         	20.312         	7.682
MS.201         	20.272         	7.716
MS.202         	20.233         	7.722
MS.203         	20.192         	7.706
MS.204         	20.153         	7.664
MS.205         	20.112         	7.658
MS.206         	20.073         	7.738
MS.207         	20.03          	7.708
MS.208         	19.99          	7.718
MS.209         	19.952         	7.746
MS.210         	19.913         	7.662
MS.211         	19.872         	7.726
MS.212         	19.833         	7.682
MS.213         	19.792         	7.72
MS.214         	19.752         	7.545
MS.215         	19.712         	7.585
MS.216         	19.675         	7.702
MS.217         	19.635         	7.652
MS.218         	19.595         	7.638
MS.219         	19.555         	7.513
MS.220         	19.517         	7.531
MS.221         	19.477         	7.553
MS.222         	19.44          	7.527
MS.223         	19.4           	7.495
MS.224         	19.362         	7.473
MS.225         	19.323         	7.462
MS.226         	19.285         	7.573
MS.227         	19.245         	7.424
MS.228         	19.208         	7.607
MS.229         	19.17          	7.426
MS.230         	19.13          	7.432
MS.231         	19.092         	7.392
MS.232         	19.055         	7.398
MS.233         	19.015         	7.386
MS.234         	18.977         	7.309
MS.235         	18.94          	7.38
MS.236         	18.903         	7.392
MS.237         	18.865         	7.384
MS.238         	18.827         	7.346
MS.239         	18.79          	7.394
MS.240         	18.753         	7.253
MS.241         	18.715         	7.257
MS.242         	18.677         	7.271
MS.243         	18.64          	7.217
MS.244         	18.602         	7.368
MS.245         	18.565         	7.211
MS.246         	18.528         	7.15
MS.247         	18.49          	7.249
MS.248         	18.455         	7.217
MS.249         	18.417         	7.17
MS.250         	18.38          	7.164
MS.251         	18.345         	7.16
MS.252         	18.307         	7.092
MS.253         	18.27          	7.144
MS.254         	18.235         	7.166
MS.255         	18.198         	7.15
MS.256         	18.163         	6.973
MS.257         	18.125         	7.09
MS.258         	18.09          	7.13
MS.259         	18.052         	7.025
MS.260         	18.017         	6.987
MS.261         	17.98          	7.001
MS.262         	17.945         	6.981
MS.263         	17.91          	7.019
MS.264         	17.872         	7.015
MS.265         	17.837         	7.064
MS.266         	17.802         	7.021
MS.267         	17.765         	6.935
MS.268         	17.73          	6.876
MS.269         	17.695         	6.894
MS.270         	17.66          	6.808
MS.271         	17.625         	6.737
MS.272         	17.59          	6.755
MS.273         	17.555         	6.77
MS.274         	17.52          	6.733
MS.275         	17.485         	6.755
MS.276         	17.45          	6.739
MS.277         	17.415         	6.733
MS.278         	17.38          	6.741
MS.279         	17.345         	6.727
MS.280         	17.31          	6.753
MS.281         	17.275         	6.538
MS.282         	17.24          	6.58
MS.283         	17.208         	6.615
MS.284         	17.172         	6.506
MS.285         	17.137         	6.403
MS.286         	17.102         	6.474
MS.287         	17.07          	6.445
MS.288         	17.035         	6.365
MS.289         	17.003         	6.387
MS.290         	16.967         	6.349
MS.291         	16.932         	6.262
MS.292         	16.9           	6.256
MS.293         	16.865         	6.153
MS.294         	16.833         	6.212
MS.295         	16.797         	6.256
MS.296         	16.765         	5.946
MS.297         	16.733         	6.067
MS.298         	16.698         	6.051
MS.299         	16.665         	5.819
MS.300         	16.632         	5.716
MS.301         	16.597         	5.817
MS.302         	16.565         	5.817
MS.303         	16.532         	5.466
MS.304         	16.5           	5.483
MS.305         	16.465         	5.672
MS.306         	16.432         	5.704
MS.307         	16.4           	5.686
MS.308         	16.368         	5.354
MS.309         	16.335         	5.269
MS.310         	16.302         	5.195
MS.311         	16.27          	5.243
MS.312         	16.237         	5.112
MS.313         	16.205         	5.42
MS.314         	16.172         	5.156
MS.315         	16.14          	4.884
MS.316         	16.108         	5.17
MS.317         	16.075         	4.778
MS.318         	16.042         	5.106
MS.319         	16.012         	4.721
MS.320         	15.98          	4.677
MS.321         	15.947         	4.705
MS.322         	15.915         	4.677
MS.323         	15.882         	4.633
MS.324         	15.852         	4.84
MS.325         	15.82          	4.518
MS.326         	15.787         	4.445
MS.327         	15.757         	4.711
MS.328         	15.725         	4.401
MS.329         	15.695         	4.431
MS.330         	15.662         	4.405
MS.331         	15.632         	4.326
MS.332         	15.6           	4.447
MS.333         	15.57          	4.637
MS.334         	15.537         	4.25
MS.335         	15.507         	4.566
MS.336         	15.475         	4.226
MS.337         	15.445         	4.268
MS.338         	15.415         	4.121
MS.339         	15.382         	4.143
MS.340         	15.352         	4.238
MS.341         	15.322         	4.083
MS.342         	15.292         	4.081
MS.343         	15.26          	4.05
MS.344         	15.23          	3.996
MS.345         	15.2           	3.899
MS.346         	15.17          	3.972
MS.347         	15.14          	3.861
MS.348         	15.11          	3.795
MS.349         	15.08          	3.823
MS.350         	15.047         	3.785
MS.351         	15.017         	3.648
MS.352         	14.987         	3.605
MS.353         	14.957         	3.438
MS.354         	14.93          	3.585
MS.355         	14.9           	3.656
MS.356         	14.87          	3.714
MS.357         	14.84          	3.593
MS.358         	14.81          	3.513
MS.359         	14.78          	3.44
MS.360         	14.75          	3.317
MS.361         	14.722         	3.597
MS.362         	14.693         	3.551
MS.363         	14.662         	3.335
MS.364         	14.632         	3.406
MS.365         	14.605         	3.086
MS.366         	14.575         	3.331
MS.367         	14.545         	3.374
MS.368         	14.517         	3.128
MS.369         	14.487         	3.114
MS.370         	14.457         	3.18
MS.371         	14.43          	3.211
MS.372         	14.4           	2.929
MS.373         	14.372         	2.987
MS.374         	14.342         	2.963
MS.375         	14.315         	3.015
MS.376         	14.285         	2.945
MS.377         	14.257         	2.723
MS.378         	14.23          	3.066
MS.379         	14.2           	2.874
MS.380         	14.172         	2.624
MS.381         	14.145         	2.761
MS.382         	14.115         	2.584
MS.383         	14.087         	2.409
MS.384         	14.06          	2.572
MS.385         	14.032         	2.431
MS.386         	14.002         	2.465
MS.387         	13.975         	2.506
MS.388         	13.947         	2.314
MS.389         	13.92          	2.244
MS.390         	13.892         	2.292
MS.391         	13.865         	2.232
MS.392         	13.837         	2.27
MS.393         	13.807         	2.377
MS.394         	13.78          	2.139
MS.395         	13.752         	2.242
MS.396         	13.725         	2.177
MS.397         	13.697         	2.125
MS.398         	13.67          	2.119
MS.399         	13.645         	2.218
MS.400         	13.617         	2.113
MS.401         	13.59          	2.067
MS.402         	13.562         	2.103
MS.403         	13.535         	2.189
MS.404         	13.507         	2.022
MS.405         	13.48          	2.101
MS.406         	13.455         	1.992
MS.407         	13.427         	2.022
MS.408         	13.4           	1.946
MS.409         	13.372         	1.986
MS.410         	13.347         	1.994
MS.411         	13.32          	1.889
MS.412         	13.292         	2.034
MS.413         	13.267         	1.99
MS.414         	13.24          	1.869
MS.415         	13.215         	1.93
MS.416         	13.188         	1.909
MS.417         	13.162         	1.903
MS.418         	13.135         	1.907
MS.419         	13.11          	1.793
MS.420         	13.082         	1.907
MS.421         	13.057         	1.883
MS.422         	13.03          	1.833
MS.423         	13.005         	1.851
MS.424         	12.977         	1.873
MS.425         	12.952         	1.841
MS.426         	12.927         	1.779
MS.427         	12.9           	1.77
MS.428         	12.875         	1.756
MS.429         	12.85          	1.7
MS.430         	12.822         	1.744
MS.431         	12.797         	1.593
MS.432         	12.773         	1.482
MS.433         	12.747         	1.615
MS.434         	12.722         	1.362
MS.435         	12.695         	1.356
MS.436         	12.67          	1.684
MS.437         	12.645         	1.408
MS.438         	12.62          	1.468
MS.439         	12.595         	1.42
MS.440         	12.57          	1.414
MS.441         	12.545         	1.362
MS.442         	12.52          	1.325
MS.443         	12.495         	1.267
MS.444         	12.47          	1.289
MS.445         	12.445         	1.19
MS.446         	12.42          	1.356
MS.447         	12.395         	1.372
MS.448         	12.37          	1.319
MS.449         	12.345         	1.335
MS.450         	12.32          	1.251
MS.451         	12.295         	1.148
MS.452         	12.273         	1.281
MS.453         	12.247         	1.16
MS.454         	12.222         	1.061
MS.455         	12.197         	1.18
MS.456         	12.175         	1.11
MS.457         	12.15          	1.172
MS.458         	12.125         	1.136
MS.459         	12.1           	1.174
MS.460         	12.077         	1.108
MS.461         	12.052         	1.047
MS.462         	12.028         	1.021
MS.463         	12.005         	1.16
MS.464         	11.98          	0.844
MS.465         	11.957         	0.949
MS.466         	11.932         	0.826
MS.467         	11.91          	0.906
MS.468         	11.885         	0.931
MS.469         	11.863         	0.755
MS.470         	11.837         	0.542
MS.471         	11.815         	0.669
MS.472         	11.79          	0.596
MS.473         	11.767         	0.713
MS.474         	11.742         	0.526
MS.475         	11.72          	0.59
MS.476         	11.697         	0.562
MS.477         	11.672         	0.522
MS.478         	11.65          	0.475
MS.479         	11.627         	0.483
MS.480         	11.602         	0.469
MS.481         	11.58          	0.445
MS.482         	11.557         	0.397
MS.483         	11.535         	0.443
MS.484         	11.51          	0.459
MS.485         	11.488         	0.475
MS.486         	11.465         	0.375
MS.487         	11.443         	0.5
MS.488         	11.42          	0.497
MS.489         	11.398         	0.417
MS.490         	11.372         	0.465
MS.491         	11.35          	0.429
MS.492         	11.327         	0.457
MS.493         	11.305         	0.423
MS.494         	11.282         	0.34
MS.495         	11.26          	0.399
MS.496         	11.238         	0.522
MS.497         	11.215         	0.445
MS.498         	11.193         	0.393
MS.499         	11.17          	0.342
MS.500         	11.148         	0.423
MS.501         	11.125         	0.379
