File:              	C:\Qtrac\Data\Daniel M Sørensen\MScan multicentre study\Data from centres\Odense\Processed data\TKC01028A.QZD
Name:              	DK.ODE.NC.7.1
Protocol:          	MSCAN-R2
Date:              	28/10/20
Start time:        	10:12:08
Age:               	41
Sex:               	F
Temperature:       	31.4
S/R sites:         	ADM
NC/disease:        	NC
Operator:          	TK
Comments:
M-SCAN DATA (9.9-1m)
Scanpts: 22, 32, 909, 930
Stim. (mA)     	Amp. (mV)
MS.1           	21             	10.361
MS.2           	21             	10.321
MS.3           	21             	10.397
MS.4           	21             	10.331
MS.5           	21             	10.347
MS.6           	21             	10.345
MS.7           	21             	10.333
MS.8           	21             	10.359
MS.9           	21             	10.302
MS.10          	21             	10.363
MS.11          	21             	10.351
MS.12          	21             	10.385
MS.13          	21             	10.427
MS.14          	21             	10.383
MS.15          	21             	10.417
MS.16          	21             	10.371
MS.17          	21             	10.419
MS.18          	21             	10.449
MS.19          	21             	10.423
MS.20          	21             	10.399
MS.21          	21             	10.427
MS.22          	21             	10.391
MS.23          	21             	10.431
MS.24          	20.915         	10.419
MS.25          	20.875         	10.417
MS.26          	20.833         	10.421
MS.27          	20.79          	10.383
MS.28          	20.75          	10.415
MS.29          	20.708         	10.405
MS.30          	20.667         	10.453
MS.31          	20.625         	10.437
MS.32          	20.585         	10.431
MS.33          	20.542         	10.413
MS.34          	20.502         	10.351
MS.35          	20.46          	10.373
MS.36          	20.42          	10.369
MS.37          	20.38          	10.456
MS.38          	20.337         	10.363
MS.39          	20.297         	10.389
MS.40          	20.257         	10.381
MS.41          	20.217         	10.399
MS.42          	20.177         	10.492
MS.43          	20.135         	10.401
MS.44          	20.095         	10.397
MS.45          	20.055         	10.391
MS.46          	20.015         	10.443
MS.47          	19.975         	10.327
MS.48          	19.935         	10.355
MS.49          	19.895         	10.379
MS.50          	19.855         	10.377
MS.51          	19.817         	10.359
MS.52          	19.778         	10.445
MS.53          	19.737         	10.411
MS.54          	19.698         	10.409
MS.55          	19.657         	10.451
MS.56          	19.62          	10.445
MS.57          	19.58          	10.419
MS.58          	19.54          	10.405
MS.59          	19.502         	10.403
MS.60          	19.462         	10.399
MS.61          	19.425         	10.383
MS.62          	19.385         	10.363
MS.63          	19.347         	10.377
MS.64          	19.307         	10.347
MS.65          	19.27          	10.353
MS.66          	19.23          	10.377
MS.67          	19.192         	10.343
MS.68          	19.155         	10.335
MS.69          	19.115         	10.337
MS.70          	19.077         	10.343
MS.71          	19.04          	10.323
MS.72          	19.002         	10.331
MS.73          	18.962         	10.381
MS.74          	18.925         	10.349
MS.75          	18.887         	10.393
MS.76          	18.85          	10.379
MS.77          	18.812         	10.317
MS.78          	18.775         	10.317
MS.79          	18.737         	10.381
MS.80          	18.7           	10.343
MS.81          	18.663         	10.349
MS.82          	18.625         	10.381
MS.83          	18.587         	10.385
MS.84          	18.55          	10.335
MS.85          	18.515         	10.312
MS.86          	18.477         	10.308
MS.87          	18.44          	10.327
MS.88          	18.403         	10.387
MS.89          	18.368         	10.266
MS.90          	18.33          	10.327
MS.91          	18.292         	10.325
MS.92          	18.257         	10.312
MS.93          	18.22          	10.27
MS.94          	18.182         	10.3
MS.95          	18.147         	10.248
MS.96          	18.11          	10.264
MS.97          	18.075         	10.266
MS.98          	18.038         	10.276
MS.99          	18.003         	10.276
MS.100         	17.967         	10.264
MS.101         	17.93          	10.256
MS.102         	17.895         	10.23
MS.103         	17.86          	10.288
MS.104         	17.823         	10.274
MS.105         	17.788         	10.28
MS.106         	17.753         	10.27
MS.107         	17.717         	10.3
MS.108         	17.682         	10.234
MS.109         	17.645         	10.272
MS.110         	17.61          	10.28
MS.111         	17.575         	10.262
MS.112         	17.54          	10.278
MS.113         	17.505         	10.254
MS.114         	17.47          	10.258
MS.115         	17.435         	10.248
MS.116         	17.4           	10.238
MS.117         	17.365         	10.244
MS.118         	17.333         	10.206
MS.119         	17.297         	10.248
MS.120         	17.262         	10.256
MS.121         	17.227         	10.226
MS.122         	17.192         	10.186
MS.123         	17.16          	10.23
MS.124         	17.125         	10.248
MS.125         	17.09          	10.254
MS.126         	17.057         	10.276
MS.127         	17.022         	10.204
MS.128         	16.987         	10.26
MS.129         	16.955         	10.264
MS.130         	16.92          	10.192
MS.131         	16.887         	10.242
MS.132         	16.852         	10.214
MS.133         	16.82          	10.244
MS.134         	16.785         	10.2
MS.135         	16.753         	10.258
MS.136         	16.717         	10.188
MS.137         	16.685         	10.172
MS.138         	16.653         	10.147
MS.139         	16.618         	10.178
MS.140         	16.585         	10.19
MS.141         	16.552         	10.198
MS.142         	16.52          	10.238
MS.143         	16.485         	10.167
MS.144         	16.452         	10.196
MS.145         	16.42          	10.178
MS.146         	16.387         	10.167
MS.147         	16.355         	10.182
MS.148         	16.323         	10.192
MS.149         	16.29          	10.141
MS.150         	16.257         	10.087
MS.151         	16.225         	10.147
MS.152         	16.192         	10.153
MS.153         	16.16          	10.172
MS.154         	16.128         	10.117
MS.155         	16.095         	10.135
MS.156         	16.062         	10.131
MS.157         	16.03          	10.18
MS.158         	16             	10.157
MS.159         	15.967         	10.167
MS.160         	15.935         	10.145
MS.161         	15.902         	10.099
MS.162         	15.872         	10.202
MS.163         	15.84          	10.014
MS.164         	15.807         	10.143
MS.165         	15.777         	9.938
MS.166         	15.745         	9.912
MS.167         	15.712         	9.994
MS.168         	15.682         	10.075
MS.169         	15.65          	10.075
MS.170         	15.62          	10.127
MS.171         	15.587         	10.123
MS.172         	15.557         	9.918
MS.173         	15.525         	9.881
MS.174         	15.495         	9.851
MS.175         	15.465         	9.954
MS.176         	15.432         	9.839
MS.177         	15.402         	9.869
MS.178         	15.372         	9.93
MS.179         	15.34          	9.855
MS.180         	15.31          	9.859
MS.181         	15.28          	9.97
MS.182         	15.25          	9.883
MS.183         	15.217         	9.867
MS.184         	15.188         	9.89
MS.185         	15.157         	9.839
MS.186         	15.127         	9.896
MS.187         	15.097         	9.851
MS.188         	15.068         	9.853
MS.189         	15.037         	9.809
MS.190         	15.007         	9.865
MS.191         	14.977         	9.801
MS.192         	14.947         	9.791
MS.193         	14.917         	9.839
MS.194         	14.887         	9.827
MS.195         	14.858         	9.879
MS.196         	14.827         	9.807
MS.197         	14.797         	9.9
MS.198         	14.77          	9.843
MS.199         	14.74          	9.738
MS.200         	14.71          	9.791
MS.201         	14.68          	9.817
MS.202         	14.65          	9.797
MS.203         	14.622         	9.829
MS.204         	14.592         	9.801
MS.205         	14.562         	9.817
MS.206         	14.535         	9.831
MS.207         	14.505         	9.773
MS.208         	14.477         	9.684
MS.209         	14.447         	9.799
MS.210         	14.417         	9.682
MS.211         	14.39          	9.747
MS.212         	14.36          	9.676
MS.213         	14.332         	9.674
MS.214         	14.302         	9.827
MS.215         	14.275         	9.664
MS.216         	14.247         	9.706
MS.217         	14.217         	9.688
MS.218         	14.19          	9.757
MS.219         	14.162         	9.692
MS.220         	14.132         	9.507
MS.221         	14.105         	9.686
MS.222         	14.077         	9.664
MS.223         	14.047         	9.517
MS.224         	14.02          	9.678
MS.225         	13.992         	9.461
MS.226         	13.965         	9.396
MS.227         	13.938         	9.559
MS.228         	13.91          	9.285
MS.229         	13.88          	9.553
MS.230         	13.852         	9.39
MS.231         	13.825         	9.364
MS.232         	13.797         	9.458
MS.233         	13.77          	9.408
MS.234         	13.742         	9.493
MS.235         	13.715         	9.338
MS.236         	13.688         	9.426
MS.237         	13.66          	9.37
MS.238         	13.632         	9.275
MS.239         	13.605         	9.273
MS.240         	13.58          	9.265
MS.241         	13.552         	9.239
MS.242         	13.525         	9.346
MS.243         	13.497         	9.237
MS.244         	13.47          	9.275
MS.245         	13.445         	9.233
MS.246         	13.417         	9.277
MS.247         	13.39          	9.342
MS.248         	13.362         	9.249
MS.249         	13.337         	9.297
MS.250         	13.31          	9.283
MS.251         	13.282         	9.211
MS.252         	13.257         	9.124
MS.253         	13.23          	9.162
MS.254         	13.205         	9.068
MS.255         	13.177         	8.973
MS.256         	13.153         	9.078
MS.257         	13.125         	8.715
MS.258         	13.1           	9.009
MS.259         	13.072         	8.792
MS.260         	13.047         	8.909
MS.261         	13.02          	8.619
MS.262         	12.995         	8.667
MS.263         	12.967         	8.81
MS.264         	12.943         	8.671
MS.265         	12.917         	8.609
MS.266         	12.89          	8.621
MS.267         	12.865         	8.691
MS.268         	12.84          	8.431
MS.269         	12.812         	8.23
MS.270         	12.787         	8.232
MS.271         	12.762         	8.236
MS.272         	12.738         	8.409
MS.273         	12.712         	8.375
MS.274         	12.685         	8.238
MS.275         	12.66          	8.353
MS.276         	12.635         	8.177
MS.277         	12.61          	8.109
MS.278         	12.585         	8.141
MS.279         	12.56          	8.123
MS.280         	12.535         	7.97
MS.281         	12.51          	8
MS.282         	12.485         	7.904
MS.283         	12.46          	7.938
MS.284         	12.435         	7.875
MS.285         	12.41          	7.869
MS.286         	12.385         	7.664
MS.287         	12.36          	7.781
MS.288         	12.335         	7.708
MS.289         	12.312         	7.716
MS.290         	12.287         	7.648
MS.291         	12.262         	7.652
MS.292         	12.238         	7.469
MS.293         	12.212         	7.519
MS.294         	12.19          	7.414
MS.295         	12.165         	7.487
MS.296         	12.14          	7.466
MS.297         	12.115         	7.466
MS.298         	12.092         	7.295
MS.299         	12.068         	7.34
MS.300         	12.042         	7.239
MS.301         	12.02          	7.209
MS.302         	11.995         	7.146
MS.303         	11.972         	7.219
MS.304         	11.947         	7.14
MS.305         	11.922         	7.211
MS.306         	11.9           	6.892
MS.307         	11.875         	6.876
MS.308         	11.852         	6.967
MS.309         	11.827         	6.967
MS.310         	11.805         	6.858
MS.311         	11.782         	6.711
MS.312         	11.757         	6.637
MS.313         	11.735         	6.685
MS.314         	11.71          	6.625
MS.315         	11.688         	6.743
MS.316         	11.665         	6.546
MS.317         	11.64          	6.542
MS.318         	11.617         	6.214
MS.319         	11.595         	6.423
MS.320         	11.57          	6.216
MS.321         	11.547         	5.875
MS.322         	11.525         	6.421
MS.323         	11.502         	6.107
MS.324         	11.48          	6.397
MS.325         	11.455         	6.242
MS.326         	11.432         	6.471
MS.327         	11.41          	6.018
MS.328         	11.387         	6.002
MS.329         	11.365         	5.875
MS.330         	11.342         	5.863
MS.331         	11.32          	5.938
MS.332         	11.297         	5.479
MS.333         	11.275         	5.46
MS.334         	11.252         	5.303
MS.335         	11.23          	5.483
MS.336         	11.207         	5.368
MS.337         	11.185         	5.783
MS.338         	11.162         	5.376
MS.339         	11.14          	5.253
MS.340         	11.117         	5.352
MS.341         	11.095         	5.265
MS.342         	11.073         	5.15
MS.343         	11.05          	5.283
MS.344         	11.03          	5.188
MS.345         	11.007         	4.911
MS.346         	10.985         	4.852
MS.347         	10.962         	4.953
MS.348         	10.94          	4.975
MS.349         	10.92          	4.81
MS.350         	10.898         	4.443
MS.351         	10.875         	4.643
MS.352         	10.855         	4.294
MS.353         	10.832         	4.492
MS.354         	10.81          	4.391
MS.355         	10.79          	4.506
MS.356         	10.767         	4.59
MS.357         	10.745         	4.326
MS.358         	10.725         	4.238
MS.359         	10.702         	4.32
MS.360         	10.682         	4.099
MS.361         	10.66          	3.911
MS.362         	10.64          	4.163
MS.363         	10.617         	4.069
MS.364         	10.597         	4.012
MS.365         	10.575         	3.698
MS.366         	10.555         	4.02
MS.367         	10.532         	3.855
MS.368         	10.512         	3.644
MS.369         	10.49          	3.454
MS.370         	10.47          	3.668
MS.371         	10.45          	3.327
MS.372         	10.427         	3.243
MS.373         	10.407         	2.999
MS.374         	10.387         	3.027
MS.375         	10.365         	3.198
MS.376         	10.345         	3.182
MS.377         	10.325         	3.092
MS.378         	10.305         	3.045
MS.379         	10.282         	2.824
MS.380         	10.262         	2.769
MS.381         	10.242         	2.651
MS.382         	10.222         	2.487
MS.383         	10.202         	2.645
MS.384         	10.18          	2.518
MS.385         	10.16          	2.633
MS.386         	10.14          	2.56
MS.387         	10.12          	2.504
MS.388         	10.1           	2.449
MS.389         	10.08          	2.403
MS.390         	10.06          	2.401
MS.391         	10.04          	2.248
MS.392         	10.02          	2.197
MS.393         	10             	2.075
MS.394         	9.98           	2.308
MS.395         	9.96           	2.099
MS.396         	9.94           	2.038
MS.397         	9.92           	1.984
MS.398         	9.9            	1.972
MS.399         	9.88           	2.008
MS.400         	9.86           	1.982
MS.401         	9.84           	1.962
MS.402         	9.82           	1.756
MS.403         	9.802          	1.867
MS.404         	9.782          	1.692
MS.405         	9.762          	1.678
MS.406         	9.742          	1.468
MS.407         	9.722          	1.597
MS.408         	9.705          	1.724
MS.409         	9.685          	1.521
MS.410         	9.665          	1.617
MS.411         	9.645          	1.505
MS.412         	9.627          	1.47
MS.413         	9.608          	1.398
MS.414         	9.587          	1.412
MS.415         	9.57           	1.305
MS.416         	9.55           	1.356
MS.417         	9.53           	1.331
MS.418         	9.512          	1.382
MS.419         	9.492          	1.347
MS.420         	9.472          	1.337
MS.421         	9.455          	1.257
MS.422         	9.435          	1.368
MS.423         	9.417          	1.235
MS.424         	9.398          	1.277
MS.425         	9.38           	1.237
MS.426         	9.36           	1.202
MS.427         	9.342          	1.162
MS.428         	9.323          	1.104
MS.429         	9.305          	1.194
MS.430         	9.285          	1.215
MS.431         	9.267          	1.1
MS.432         	9.25           	1.063
MS.433         	9.23           	1.013
MS.434         	9.212          	1.08
MS.435         	9.193          	1.082
MS.436         	9.175          	0.955
MS.437         	9.158          	0.979
MS.438         	9.137          	1.055
MS.439         	9.12           	1.019
MS.440         	9.102          	0.935
MS.441         	9.085          	1.031
MS.442         	9.065          	0.953
MS.443         	9.047          	0.961
MS.444         	9.03           	0.876
MS.445         	9.012          	0.858
MS.446         	8.992          	0.868
MS.447         	8.975          	0.882
MS.448         	8.957          	0.826
MS.449         	8.94           	0.929
MS.450         	8.922          	0.792
MS.451         	8.905          	0.852
MS.452         	8.887          	0.832
MS.453         	8.867          	0.852
MS.454         	8.85           	0.769
MS.455         	8.832          	0.794
MS.456         	8.815          	0.786
MS.457         	8.797          	0.788
MS.458         	8.78           	0.802
MS.459         	8.762          	0.737
MS.460         	8.745          	0.792
MS.461         	8.727          	0.79
MS.462         	8.71           	0.808
MS.463         	8.693          	0.814
MS.464         	8.675          	0.818
MS.465         	8.658          	0.822
MS.466         	8.64           	0.802
MS.467         	8.622          	0.802
MS.468         	8.608          	0.771
MS.469         	8.59           	0.806
MS.470         	8.573          	0.824
MS.471         	8.555          	0.775
MS.472         	8.537          	0.792
MS.473         	8.52           	0.798
MS.474         	8.505          	0.749
MS.475         	8.488          	0.735
MS.476         	8.47           	0.775
MS.477         	8.452          	0.777
MS.478         	8.435          	0.808
MS.479         	8.42           	0.798
MS.480         	8.403          	0.755
MS.481         	8.385          	0.761
MS.482         	8.37           	0.745
MS.483         	8.352          	0.79
MS.484         	8.335          	0.788
MS.485         	8.32           	0.759
MS.486         	8.302          	0.747
MS.487         	8.285          	0.773
MS.488         	8.27           	0.765
MS.489         	8.252          	0.796
MS.490         	8.235          	0.771
MS.491         	8.22           	0.777
MS.492         	8.202          	0.725
MS.493         	8.188          	0.759
MS.494         	8.17           	0.737
MS.495         	8.155          	0.761
MS.496         	8.137          	0.788
MS.497         	8.122          	0.757
