File:              	C:\Qtrac\Data\Daniel M Sørensen\MScan multicentre study\Data from centres\Antalya\Processed data\TR.NC.ANT.5.1- NCC00609B.QZD
Name:              	TR.NC.ANT.5.1
Protocol:          	MSCAN-R2
Date:              	9/6/20
Start time:        	14:13:05
Age:               	63
Sex:               	m
Temperature:       	33.4
S/R sites:         	ADM
NC/disease:        	NC
Operator:          	ab
Comments:
M-SCAN DATA (7.1-0.7m)
Scanpts: 36, 43, 672, 694
Stim. (mA)     	Amp. (mV)
MS.1           	18             	10.413
MS.2           	18             	10.401
MS.3           	18             	10.409
MS.4           	18             	10.389
MS.5           	18             	10.383
MS.6           	18             	10.31
MS.7           	18             	10.325
MS.8           	18             	10.377
MS.9           	18             	10.375
MS.10          	18             	10.308
MS.11          	18             	10.357
MS.12          	18             	10.345
MS.13          	18             	10.395
MS.14          	18             	10.401
MS.15          	18             	10.391
MS.16          	18             	10.423
MS.17          	18             	10.403
MS.18          	18             	10.397
MS.19          	18             	10.333
MS.20          	18             	10.3
MS.21          	18             	10.337
MS.22          	18             	10.355
MS.23          	18             	10.381
MS.24          	17.927         	10.327
MS.25          	17.892         	10.302
MS.26          	17.858         	10.347
MS.27          	17.82          	10.349
MS.28          	17.785         	10.359
MS.29          	17.75          	10.375
MS.30          	17.715         	10.375
MS.31          	17.68          	10.363
MS.32          	17.642         	10.335
MS.33          	17.608         	10.343
MS.34          	17.573         	10.323
MS.35          	17.538         	10.327
MS.36          	17.503         	10.319
MS.37          	17.467         	10.323
MS.38          	17.432         	10.361
MS.39          	17.397         	10.337
MS.40          	17.362         	10.343
MS.41          	17.33          	10.327
MS.42          	17.295         	10.349
MS.43          	17.26          	10.373
MS.44          	17.225         	10.333
MS.45          	17.19          	10.319
MS.46          	17.157         	10.321
MS.47          	17.122         	10.3
MS.48          	17.087         	10.339
MS.49          	17.052         	10.331
MS.50          	17.02          	10.315
MS.51          	16.985         	10.375
MS.52          	16.952         	10.375
MS.53          	16.917         	10.365
MS.54          	16.885         	10.349
MS.55          	16.85          	10.387
MS.56          	16.817         	10.359
MS.57          	16.782         	10.419
MS.58          	16.75          	10.367
MS.59          	16.715         	10.355
MS.60          	16.682         	10.347
MS.61          	16.65          	10.272
MS.62          	16.615         	10.343
MS.63          	16.583         	10.365
MS.64          	16.55          	10.256
MS.65          	16.517         	10.363
MS.66          	16.483         	10.387
MS.67          	16.45          	10.286
MS.68          	16.417         	10.28
MS.69          	16.385         	10.363
MS.70          	16.352         	10.385
MS.71          	16.32          	10.306
MS.72          	16.288         	10.258
MS.73          	16.255         	10.246
MS.74          	16.222         	10.274
MS.75          	16.19          	10.276
MS.76          	16.157         	10.278
MS.77          	16.125         	10.278
MS.78          	16.092         	10.238
MS.79          	16.06          	10.276
MS.80          	16.028         	10.244
MS.81          	15.997         	10.236
MS.82          	15.965         	10.24
MS.83          	15.932         	10.212
MS.84          	15.9           	10.23
MS.85          	15.87          	10.238
MS.86          	15.837         	10.349
MS.87          	15.805         	10.224
MS.88          	15.775         	10.228
MS.89          	15.742         	10.192
MS.90          	15.71          	10.194
MS.91          	15.68          	10.208
MS.92          	15.648         	10.252
MS.93          	15.617         	10.169
MS.94          	15.585         	10.202
MS.95          	15.555         	10.218
MS.96          	15.523         	10.194
MS.97          	15.492         	10.151
MS.98          	15.462         	10.178
MS.99          	15.43          	10.147
MS.100         	15.4           	10.085
MS.101         	15.37          	10.167
MS.102         	15.337         	10.167
MS.103         	15.307         	10.155
MS.104         	15.277         	9.94
MS.105         	15.247         	10.101
MS.106         	15.217         	10.176
MS.107         	15.185         	10.089
MS.108         	15.155         	9.94
MS.109         	15.125         	9.966
MS.110         	15.095         	9.98
MS.111         	15.065         	9.988
MS.112         	15.035         	9.904
MS.113         	15.005         	9.97
MS.114         	14.975         	9.934
MS.115         	14.945         	9.946
MS.116         	14.915         	9.906
MS.117         	14.885         	9.849
MS.118         	14.855         	9.853
MS.119         	14.825         	9.984
MS.120         	14.795         	9.871
MS.121         	14.767         	9.873
MS.122         	14.737         	9.898
MS.123         	14.707         	9.91
MS.124         	14.677         	9.922
MS.125         	14.65          	9.918
MS.126         	14.62          	9.885
MS.127         	14.59          	9.938
MS.128         	14.562         	9.946
MS.129         	14.532         	9.922
MS.130         	14.502         	9.93
MS.131         	14.475         	9.825
MS.132         	14.445         	9.936
MS.133         	14.417         	9.946
MS.134         	14.387         	9.888
MS.135         	14.36          	9.841
MS.136         	14.33          	9.908
MS.137         	14.302         	9.793
MS.138         	14.273         	9.89
MS.139         	14.245         	9.74
MS.140         	14.215         	9.813
MS.141         	14.188         	9.952
MS.142         	14.16          	9.708
MS.143         	14.13          	9.829
MS.144         	14.102         	9.928
MS.145         	14.075         	9.823
MS.146         	14.047         	9.769
MS.147         	14.017         	9.682
MS.148         	13.99          	9.761
MS.149         	13.962         	9.583
MS.150         	13.935         	9.688
MS.151         	13.907         	9.644
MS.152         	13.88          	9.797
MS.153         	13.85          	9.614
MS.154         	13.822         	9.648
MS.155         	13.795         	9.867
MS.156         	13.767         	9.38
MS.157         	13.74          	9.761
MS.158         	13.712         	9.497
MS.159         	13.685         	9.692
MS.160         	13.657         	9.658
MS.161         	13.632         	9.712
MS.162         	13.605         	9.473
MS.163         	13.577         	9.219
MS.164         	13.55          	9.531
MS.165         	13.523         	9.34
MS.166         	13.495         	9.094
MS.167         	13.467         	9.394
MS.168         	13.443         	9.291
MS.169         	13.415         	9.124
MS.170         	13.387         	9.378
MS.171         	13.362         	9.191
MS.172         	13.335         	9.142
MS.173         	13.307         	9.398
MS.174         	13.282         	9.406
MS.175         	13.255         	8.76
MS.176         	13.227         	8.824
MS.177         	13.202         	9.074
MS.178         	13.175         	9.052
MS.179         	13.15          	8.641
MS.180         	13.122         	8.488
MS.181         	13.097         	8.901
MS.182         	13.07          	8.816
MS.183         	13.045         	8.635
MS.184         	13.017         	8.482
MS.185         	12.992         	8.876
MS.186         	12.967         	8.745
MS.187         	12.94          	8.445
MS.188         	12.915         	8.792
MS.189         	12.89          	8.556
MS.190         	12.862         	8.47
MS.191         	12.837         	8.629
MS.192         	12.812         	8.655
MS.193         	12.785         	8.506
MS.194         	12.76          	8.2
MS.195         	12.735         	8.435
MS.196         	12.71          	8.572
MS.197         	12.685         	8.461
MS.198         	12.66          	8.24
MS.199         	12.632         	8.604
MS.200         	12.608         	8.598
MS.201         	12.582         	8.431
MS.202         	12.557         	8.212
MS.203         	12.532         	8.351
MS.204         	12.507         	8.133
MS.205         	12.483         	8.184
MS.206         	12.457         	8.482
MS.207         	12.432         	8.353
MS.208         	12.407         	8.113
MS.209         	12.382         	8.111
MS.210         	12.36          	8.409
MS.211         	12.335         	8.083
MS.212         	12.31          	8.184
MS.213         	12.285         	8.137
MS.214         	12.26          	8.349
MS.215         	12.235         	8.125
MS.216         	12.212         	8.069
MS.217         	12.188         	8.055
MS.218         	12.162         	7.92
MS.219         	12.137         	8.061
MS.220         	12.115         	8.147
MS.221         	12.09          	7.914
MS.222         	12.065         	8.208
MS.223         	12.042         	7.7
MS.224         	12.017         	8
MS.225         	11.992         	7.996
MS.226         	11.97          	8
MS.227         	11.945         	7.829
MS.228         	11.922         	7.93
MS.229         	11.898         	8.059
MS.230         	11.875         	7.914
MS.231         	11.85          	7.891
MS.232         	11.827         	7.956
MS.233         	11.802         	7.831
MS.234         	11.78          	7.738
MS.235         	11.755         	7.823
MS.236         	11.733         	7.914
MS.237         	11.71          	7.823
MS.238         	11.685         	7.678
MS.239         	11.662         	7.843
MS.240         	11.64          	7.573
MS.241         	11.615         	7.589
MS.242         	11.592         	7.475
MS.243         	11.57          	7.652
MS.244         	11.547         	7.517
MS.245         	11.523         	7.372
MS.246         	11.5           	7.416
MS.247         	11.477         	7.487
MS.248         	11.455         	7.541
MS.249         	11.432         	7.356
MS.250         	11.407         	7.45
MS.251         	11.385         	7.452
MS.252         	11.363         	7.404
MS.253         	11.34          	7.366
MS.254         	11.318         	7.378
MS.255         	11.295         	7.386
MS.256         	11.273         	7.372
MS.257         	11.25          	7.35
MS.258         	11.227         	7.336
MS.259         	11.205         	7.251
MS.260         	11.182         	7.205
MS.261         	11.16          	7.275
MS.262         	11.137         	7.301
MS.263         	11.115         	7.203
MS.264         	11.092         	7.035
MS.265         	11.073         	7.253
MS.266         	11.05          	7.096
MS.267         	11.028         	7.09
MS.268         	11.005         	6.937
MS.269         	10.983         	7.064
MS.270         	10.962         	7.102
MS.271         	10.94          	7.044
MS.272         	10.917         	6.888
MS.273         	10.895         	6.989
MS.274         	10.875         	6.965
MS.275         	10.852         	6.804
MS.276         	10.83          	7.09
MS.277         	10.81          	6.898
MS.278         	10.787         	6.693
MS.279         	10.765         	6.657
MS.280         	10.745         	6.935
MS.281         	10.722         	6.82
MS.282         	10.702         	6.631
MS.283         	10.68          	6.86
MS.284         	10.657         	6.937
MS.285         	10.637         	6.612
MS.286         	10.615         	6.596
MS.287         	10.595         	6.894
MS.288         	10.573         	6.651
MS.289         	10.552         	6.564
MS.290         	10.532         	6.592
MS.291         	10.51          	6.542
MS.292         	10.49          	6.621
MS.293         	10.467         	6.28
MS.294         	10.448         	6.741
MS.295         	10.427         	6.596
MS.296         	10.405         	6.49
MS.297         	10.385         	6.447
MS.298         	10.365         	6.397
MS.299         	10.342         	6.308
MS.300         	10.323         	6.415
MS.301         	10.302         	6.298
MS.302         	10.282         	6.455
MS.303         	10.26          	6.28
MS.304         	10.24          	6.266
MS.305         	10.22          	6.32
MS.306         	10.2           	6.411
MS.307         	10.18          	6.081
MS.308         	10.16          	6.194
MS.309         	10.14          	6.236
MS.310         	10.117         	5.877
MS.311         	10.097         	5.91
MS.312         	10.077         	6.206
MS.313         	10.057         	6.244
MS.314         	10.037         	6.006
MS.315         	10.017         	5.771
MS.316         	9.997          	5.799
MS.317         	9.977          	5.891
MS.318         	9.957          	5.827
MS.319         	9.938          	5.767
MS.320         	9.917          	5.865
MS.321         	9.898          	5.825
MS.322         	9.877          	5.69
MS.323         	9.86           	5.988
MS.324         	9.84           	5.634
MS.325         	9.82           	5.611
MS.326         	9.8            	5.924
MS.327         	9.78           	5.829
MS.328         	9.76           	6.083
MS.329         	9.74           	5.833
MS.330         	9.722          	5.68
MS.331         	9.702          	5.781
MS.332         	9.682          	5.954
MS.333         	9.662          	6
MS.334         	9.645          	5.835
MS.335         	9.625          	5.597
MS.336         	9.605          	5.652
MS.337         	9.587          	5.853
MS.338         	9.568          	5.211
MS.339         	9.547          	5.535
MS.340         	9.53           	5.336
MS.341         	9.51           	5.519
MS.342         	9.49           	5.382
MS.343         	9.472          	5.523
MS.344         	9.452          	5.305
MS.345         	9.435          	5.317
MS.346         	9.415          	5.354
MS.347         	9.398          	5.275
MS.348         	9.377          	5.199
MS.349         	9.36           	5.265
MS.350         	9.34           	5.251
MS.351         	9.323          	5.34
MS.352         	9.302          	5.257
MS.353         	9.285          	5.247
MS.354         	9.265          	5.174
MS.355         	9.247          	5.271
MS.356         	9.23           	4.84
MS.357         	9.21           	5.154
MS.358         	9.193          	5.291
MS.359         	9.175          	5.319
MS.360         	9.155          	5.102
MS.361         	9.137          	5.231
MS.362         	9.12           	4.997
MS.363         	9.1            	5.14
MS.364         	9.082          	5.184
MS.365         	9.065          	5.164
MS.366         	9.047          	5.188
MS.367         	9.028          	4.937
MS.368         	9.01           	5.122
MS.369         	8.992          	5.045
MS.370         	8.975          	5.017
MS.371         	8.957          	4.995
MS.372         	8.938          	4.933
MS.373         	8.92           	4.687
MS.374         	8.903          	5.027
MS.375         	8.885          	4.858
MS.376         	8.867          	4.921
MS.377         	8.85           	4.522
MS.378         	8.832          	4.872
MS.379         	8.815          	4.826
MS.380         	8.797          	4.5
MS.381         	8.78           	4.187
MS.382         	8.762          	4.506
MS.383         	8.745          	4.357
MS.384         	8.727          	4.137
MS.385         	8.71           	4.191
MS.386         	8.693          	4.367
MS.387         	8.675          	4.336
MS.388         	8.658          	3.948
MS.389         	8.64           	4.341
MS.390         	8.622          	3.829
MS.391         	8.605          	3.601
MS.392         	8.587          	4.459
MS.393         	8.57           	3.819
MS.394         	8.552          	3.781
MS.395         	8.537          	3.432
MS.396         	8.52           	3.851
MS.397         	8.502          	3.607
MS.398         	8.485          	3.462
MS.399         	8.467          	3.583
MS.400         	8.452          	3.339
MS.401         	8.435          	3.094
MS.402         	8.417          	3.128
MS.403         	8.4            	3.573
MS.404         	8.385          	2.969
MS.405         	8.367          	2.925
MS.406         	8.35           	3.14
MS.407         	8.335          	3.257
MS.408         	8.318          	2.945
MS.409         	8.3            	3.114
MS.410         	8.285          	3.245
MS.411         	8.267          	3.154
MS.412         	8.252          	2.822
MS.413         	8.235          	2.83
MS.414         	8.217          	3.013
MS.415         	8.202          	2.826
MS.416         	8.185          	2.85
MS.417         	8.17           	2.727
MS.418         	8.153          	2.856
MS.419         	8.137          	2.81
MS.420         	8.12           	2.649
MS.421         	8.105          	2.778
MS.422         	8.087          	2.9
MS.423         	8.073          	2.54
MS.424         	8.055          	2.326
MS.425         	8.04           	2.81
MS.426         	8.023          	2.606
MS.427         	8.007          	2.556
MS.428         	7.992          	2.417
MS.429         	7.975          	2.572
MS.430         	7.96           	2.429
MS.431         	7.942          	2.342
MS.432         	7.927          	2.169
MS.433         	7.912          	2.5
MS.434         	7.895          	2.31
MS.435         	7.88           	2.371
MS.436         	7.865          	2.556
MS.437         	7.85           	2.131
MS.438         	7.832          	2.157
MS.439         	7.817          	1.909
MS.440         	7.802          	2.236
MS.441         	7.787          	2.151
MS.442         	7.77           	2.161
MS.443         	7.755          	2.024
MS.444         	7.74           	2.203
MS.445         	7.725          	2.081
MS.446         	7.71           	1.857
MS.447         	7.692          	1.774
MS.448         	7.677          	2.034
MS.449         	7.662          	2.101
MS.450         	7.648          	1.899
MS.451         	7.632          	1.652
MS.452         	7.617          	2.062
MS.453         	7.602          	1.819
MS.454         	7.587          	1.521
MS.455         	7.572          	1.766
MS.456         	7.555          	1.887
MS.457         	7.54           	1.595
MS.458         	7.525          	1.583
MS.459         	7.51           	1.922
MS.460         	7.495          	1.654
MS.461         	7.48           	1.472
MS.462         	7.465          	1.482
MS.463         	7.45           	1.66
MS.464         	7.438          	1.617
MS.465         	7.422          	1.589
MS.466         	7.407          	1.372
MS.467         	7.392          	1.339
MS.468         	7.378          	1.438
MS.469         	7.362          	1.247
MS.470         	7.347          	1.253
MS.471         	7.332          	1.462
MS.472         	7.317          	1.196
MS.473         	7.302          	1.289
MS.474         	7.29           	1.215
MS.475         	7.275          	1.289
MS.476         	7.26           	1.313
MS.477         	7.245          	0.989
MS.478         	7.23           	1.325
MS.479         	7.217          	1.17
MS.480         	7.202          	1.235
MS.481         	7.188          	0.888
MS.482         	7.172          	1.045
MS.483         	7.16           	1.106
MS.484         	7.145          	0.983
MS.485         	7.13           	0.894
MS.486         	7.115          	1.178
MS.487         	7.102          	1.047
MS.488         	7.087          	0.699
MS.489         	7.072          	1.15
MS.490         	7.06           	1.047
MS.491         	7.045          	0.679
MS.492         	7.032          	1.132
MS.493         	7.017          	0.993
MS.494         	7.003          	0.916
MS.495         	6.99           	0.719
MS.496         	6.975          	0.949
MS.497         	6.962          	0.852
MS.498         	6.947          	0.612
