File:              	C:\Qtrac\Data\Daniel M Sørensen\MScan multicentre study\Data from centres\Antalya\Processed data\TR.NC.ANT.10.2- NCC01209B.QZD
Name:              	TR:NC:ANT:10.2
Protocol:          	MSCAN-R2
Date:              	9/12/20
Start time:        	15:51:36
Age:               	52
Sex:               	m
Temperature:       	32.7
S/R sites:         	ADM
NC/disease:        	NC
Operator:          	ab
Comments:
M-SCAN DATA (Repeat 2/2, 10.4-3.3m)
Scanpts: 3, 9, 689, 697
Stim. (mA)     	Amp. (mV)
MS.1           	39             	6.939
MS.2           	39             	6.963
MS.3           	38.923         	7.011
MS.4           	38.845         	6.985
MS.5           	38.767         	6.951
MS.6           	38.69          	7.003
MS.7           	38.612         	6.961
MS.8           	38.535         	6.993
MS.9           	38.458         	6.957
MS.10          	38.38          	6.949
MS.11          	38.305         	6.866
MS.12          	38.228         	6.919
MS.13          	38.153         	6.931
MS.14          	38.075         	6.921
MS.15          	38             	6.913
MS.16          	37.923         	6.878
MS.17          	37.847         	6.901
MS.18          	37.772         	6.923
MS.19          	37.697         	6.923
MS.20          	37.62          	6.907
MS.21          	37.545         	6.901
MS.22          	37.47          	6.858
MS.23          	37.395         	6.872
MS.24          	37.32          	6.951
MS.25          	37.247         	6.876
MS.26          	37.173         	6.898
MS.27          	37.097         	6.927
MS.28          	37.025         	6.907
MS.29          	36.95          	6.945
MS.30          	36.875         	7.015
MS.31          	36.802         	6.919
MS.32          	36.73          	6.979
MS.33          	36.655         	6.927
MS.34          	36.583         	6.945
MS.35          	36.51          	6.947
MS.36          	36.435         	6.903
MS.37          	36.362         	6.943
MS.38          	36.29          	6.892
MS.39          	36.217         	6.88
MS.40          	36.145         	6.919
MS.41          	36.072         	6.894
MS.42          	36.002         	6.935
MS.43          	35.93          	6.915
MS.44          	35.857         	6.953
MS.45          	35.785         	6.955
MS.46          	35.715         	6.969
MS.47          	35.642         	6.898
MS.48          	35.572         	6.937
MS.49          	35.5           	6.915
MS.50          	35.43          	6.907
MS.51          	35.36          	6.842
MS.52          	35.287         	6.852
MS.53          	35.217         	6.806
MS.54          	35.147         	6.85
MS.55          	35.077         	6.834
MS.56          	35.007         	6.812
MS.57          	34.938         	6.822
MS.58          	34.868         	6.806
MS.59          	34.798         	6.85
MS.60          	34.728         	6.84
MS.61          	34.66          	6.838
MS.62          	34.59          	6.802
MS.63          	34.52          	6.814
MS.64          	34.452         	6.802
MS.65          	34.382         	6.792
MS.66          	34.315         	6.834
MS.67          	34.245         	6.788
MS.68          	34.177         	6.78
MS.69          	34.11          	6.798
MS.70          	34.04          	6.8
MS.71          	33.972         	6.737
MS.72          	33.905         	6.778
MS.73          	33.837         	6.733
MS.74          	33.77          	6.802
MS.75          	33.702         	6.776
MS.76          	33.635         	6.764
MS.77          	33.568         	6.802
MS.78          	33.5           	6.782
MS.79          	33.432         	6.747
MS.80          	33.368         	6.733
MS.81          	33.3           	6.768
MS.82          	33.232         	6.826
MS.83          	33.167         	6.808
MS.84          	33.1           	6.79
MS.85          	33.035         	6.77
MS.86          	32.97          	6.808
MS.87          	32.903         	6.81
MS.88          	32.837         	6.808
MS.89          	32.772         	6.804
MS.90          	32.705         	6.808
MS.91          	32.64          	6.776
MS.92          	32.575         	6.774
MS.93          	32.51          	6.838
MS.94          	32.445         	6.824
MS.95          	32.38          	6.808
MS.96          	32.315         	6.828
MS.97          	32.252         	6.794
MS.98          	32.188         	6.8
MS.99          	32.122         	6.745
MS.100         	32.057         	6.774
MS.101         	31.995         	6.778
MS.102         	31.93          	6.786
MS.103         	31.867         	6.764
MS.104         	31.802         	6.766
MS.105         	31.74          	6.806
MS.106         	31.675         	6.77
MS.107         	31.612         	6.802
MS.108         	31.55          	6.751
MS.109         	31.487         	6.78
MS.110         	31.422         	6.737
MS.111         	31.36          	6.721
MS.112         	31.297         	6.727
MS.113         	31.235         	6.739
MS.114         	31.172         	6.79
MS.115         	31.11          	6.751
MS.116         	31.05          	6.755
MS.117         	30.987         	6.745
MS.118         	30.925         	6.747
MS.119         	30.862         	6.733
MS.120         	30.802         	6.788
MS.121         	30.74          	6.743
MS.122         	30.677         	6.753
MS.123         	30.617         	6.751
MS.124         	30.555         	6.762
MS.125         	30.495         	6.733
MS.126         	30.435         	6.723
MS.127         	30.372         	6.719
MS.128         	30.312         	6.705
MS.129         	30.252         	6.711
MS.130         	30.192         	6.743
MS.131         	30.13          	6.739
MS.132         	30.07          	6.679
MS.133         	30.01          	6.693
MS.134         	29.95          	6.762
MS.135         	29.89          	6.699
MS.136         	29.832         	6.689
MS.137         	29.772         	6.735
MS.138         	29.712         	6.681
MS.139         	29.653         	6.755
MS.140         	29.592         	6.556
MS.141         	29.535         	6.705
MS.142         	29.475         	6.653
MS.143         	29.417         	6.653
MS.144         	29.358         	6.727
MS.145         	29.3           	6.556
MS.146         	29.24          	6.562
MS.147         	29.182         	6.681
MS.148         	29.125         	6.59
MS.149         	29.065         	6.467
MS.150         	29.007         	6.48
MS.151         	28.95          	6.59
MS.152         	28.892         	6.564
MS.153         	28.835         	6.49
MS.154         	28.778         	6.536
MS.155         	28.72          	6.504
MS.156         	28.662         	6.502
MS.157         	28.605         	6.492
MS.158         	28.547         	6.508
MS.159         	28.49          	6.56
MS.160         	28.432         	6.506
MS.161         	28.377         	6.538
MS.162         	28.32          	6.463
MS.163         	28.262         	6.514
MS.164         	28.207         	6.453
MS.165         	28.15          	6.516
MS.166         	28.095         	6.623
MS.167         	28.037         	6.596
MS.168         	27.983         	6.55
MS.169         	27.925         	6.494
MS.170         	27.87          	6.572
MS.171         	27.815         	6.478
MS.172         	27.76          	6.506
MS.173         	27.702         	6.492
MS.174         	27.647         	6.504
MS.175         	27.592         	6.486
MS.176         	27.537         	6.449
MS.177         	27.483         	6.482
MS.178         	27.427         	6.504
MS.179         	27.372         	6.383
MS.180         	27.317         	6.437
MS.181         	27.265         	6.401
MS.182         	27.21          	6.465
MS.183         	27.155         	6.437
MS.184         	27.1           	6.409
MS.185         	27.047         	6.469
MS.186         	26.993         	6.516
MS.187         	26.938         	6.482
MS.188         	26.885         	6.492
MS.189         	26.83          	6.52
MS.190         	26.778         	6.544
MS.191         	26.725         	6.492
MS.192         	26.67          	6.435
MS.193         	26.618         	6.518
MS.194         	26.565         	6.57
MS.195         	26.51          	6.486
MS.196         	26.457         	6.562
MS.197         	26.405         	6.463
MS.198         	26.352         	6.566
MS.199         	26.3           	6.554
MS.200         	26.247         	6.5
MS.201         	26.195         	6.496
MS.202         	26.142         	6.455
MS.203         	26.09          	6.56
MS.204         	26.037         	6.459
MS.205         	25.985         	6.478
MS.206         	25.935         	6.538
MS.207         	25.882         	6.423
MS.208         	25.83          	6.282
MS.209         	25.78          	6.427
MS.210         	25.727         	6.276
MS.211         	25.675         	6.391
MS.212         	25.625         	6.347
MS.213         	25.573         	6.339
MS.214         	25.522         	6.53
MS.215         	25.472         	6.349
MS.216         	25.42          	6.399
MS.217         	25.37          	6.387
MS.218         	25.32          	6.516
MS.219         	25.267         	6.232
MS.220         	25.217         	6.401
MS.221         	25.167         	6.284
MS.222         	25.118         	6.383
MS.223         	25.067         	6.355
MS.224         	25.017         	6.202
MS.225         	24.967         	6.194
MS.226         	24.917         	6.326
MS.227         	24.868         	6.26
MS.228         	24.817         	6.212
MS.229         	24.767         	6.24
MS.230         	24.717         	6.188
MS.231         	24.67          	6.161
MS.232         	24.62          	6.177
MS.233         	24.57          	6.284
MS.234         	24.522         	6.107
MS.235         	24.472         	6.159
MS.236         	24.425         	6.067
MS.237         	24.375         	6.173
MS.238         	24.327         	6.153
MS.239         	24.278         	6.19
MS.240         	24.23          	6.081
MS.241         	24.18          	6.077
MS.242         	24.132         	6.069
MS.243         	24.085         	6.081
MS.244         	24.035         	6.109
MS.245         	23.987         	6.188
MS.246         	23.94          	5.998
MS.247         	23.892         	5.996
MS.248         	23.845         	6.089
MS.249         	23.797         	6.042
MS.250         	23.75          	5.98
MS.251         	23.702         	5.968
MS.252         	23.655         	5.95
MS.253         	23.608         	5.944
MS.254         	23.56          	5.853
MS.255         	23.512         	5.883
MS.256         	23.465         	5.883
MS.257         	23.42          	5.819
MS.258         	23.372         	5.992
MS.259         	23.325         	5.906
MS.260         	23.28          	5.982
MS.261         	23.233         	5.914
MS.262         	23.188         	5.861
MS.263         	23.14          	5.881
MS.264         	23.092         	5.805
MS.265         	23.047         	5.974
MS.266         	23.002         	6.01
MS.267         	22.955         	5.936
MS.268         	22.91          	5.946
MS.269         	22.865         	5.92
MS.270         	22.817         	6.018
MS.271         	22.772         	6.002
MS.272         	22.727         	6.079
MS.273         	22.682         	6.024
MS.274         	22.637         	5.883
MS.275         	22.59          	5.97
MS.276         	22.545         	5.994
MS.277         	22.5           	6.047
MS.278         	22.455         	6.055
MS.279         	22.41          	5.823
MS.280         	22.368         	5.831
MS.281         	22.323         	6.055
MS.282         	22.278         	6.057
MS.283         	22.233         	6.087
MS.284         	22.188         	6.107
MS.285         	22.145         	6.159
MS.286         	22.1           	6.22
MS.287         	22.055         	6.175
MS.288         	22.012         	6.226
MS.289         	21.967         	6.224
MS.290         	21.922         	6.22
MS.291         	21.88          	6.147
MS.292         	21.835         	6.232
MS.293         	21.792         	6.22
MS.294         	21.75          	6.254
MS.295         	21.705         	6.226
MS.296         	21.663         	6.286
MS.297         	21.62          	6.135
MS.298         	21.575         	6.226
MS.299         	21.532         	6.151
MS.300         	21.49          	6.073
MS.301         	21.448         	6.228
MS.302         	21.403         	6.167
MS.303         	21.36          	6.131
MS.304         	21.317         	6.075
MS.305         	21.275         	6.27
MS.306         	21.233         	6.2
MS.307         	21.19          	6.216
MS.308         	21.147         	6.071
MS.309         	21.105         	6.151
MS.310         	21.065         	6.115
MS.311         	21.022         	6.101
MS.312         	20.98          	6.105
MS.313         	20.938         	6.101
MS.314         	20.895         	6.055
MS.315         	20.855         	6.103
MS.316         	20.812         	6.067
MS.317         	20.77          	6.212
MS.318         	20.73          	5.974
MS.319         	20.688         	6.067
MS.320         	20.647         	5.992
MS.321         	20.605         	6.089
MS.322         	20.565         	6.057
MS.323         	20.522         	6.044
MS.324         	20.483         	5.99
MS.325         	20.442         	5.996
MS.326         	20.4           	6.049
MS.327         	20.36          	6.069
MS.328         	20.32          	6
MS.329         	20.278         	6.047
MS.330         	20.237         	6.04
MS.331         	20.198         	6.065
MS.332         	20.157         	6.004
MS.333         	20.118         	6.051
MS.334         	20.077         	6.036
MS.335         	20.038         	6.01
MS.336         	19.997         	6.028
MS.337         	19.958         	5.928
MS.338         	19.917         	5.881
MS.339         	19.877         	5.851
MS.340         	19.837         	5.877
MS.341         	19.797         	5.821
MS.342         	19.757         	5.887
MS.343         	19.717         	5.908
MS.344         	19.68          	5.833
MS.345         	19.64          	5.889
MS.346         	19.6           	5.92
MS.347         	19.562         	5.869
MS.348         	19.522         	5.881
MS.349         	19.483         	5.807
MS.350         	19.445         	5.758
MS.351         	19.405         	5.777
MS.352         	19.368         	5.807
MS.353         	19.327         	5.785
MS.354         	19.29          	5.748
MS.355         	19.25          	5.779
MS.356         	19.212         	5.789
MS.357         	19.175         	5.843
MS.358         	19.135         	5.785
MS.359         	19.097         	5.803
MS.360         	19.06          	5.754
MS.361         	19.022         	5.787
MS.362         	18.983         	5.799
MS.363         	18.945         	5.773
MS.364         	18.907         	5.809
MS.365         	18.87          	5.763
MS.366         	18.833         	5.793
MS.367         	18.795         	5.714
MS.368         	18.757         	5.811
MS.369         	18.72          	5.756
MS.370         	18.682         	5.795
MS.371         	18.645         	5.758
MS.372         	18.608         	5.791
MS.373         	18.57          	5.742
MS.374         	18.532         	5.811
MS.375         	18.495         	5.801
MS.376         	18.46          	5.857
MS.377         	18.422         	5.791
MS.378         	18.385         	5.843
MS.379         	18.35          	5.718
MS.380         	18.312         	5.726
MS.381         	18.275         	5.756
MS.382         	18.24          	5.712
MS.383         	18.202         	5.795
MS.384         	18.165         	5.708
MS.385         	18.13          	5.72
MS.386         	18.092         	5.732
MS.387         	18.057         	5.686
MS.388         	18.022         	5.724
MS.389         	17.985         	5.617
MS.390         	17.95          	5.549
MS.391         	17.913         	5.646
MS.392         	17.878         	5.65
MS.393         	17.842         	5.515
MS.394         	17.807         	5.585
MS.395         	17.77          	5.706
MS.396         	17.735         	5.563
MS.397         	17.7           	5.543
MS.398         	17.665         	5.515
MS.399         	17.63          	5.493
MS.400         	17.595         	5.44
MS.401         	17.56          	5.428
MS.402         	17.525         	5.497
MS.403         	17.49          	5.497
MS.404         	17.455         	5.255
MS.405         	17.42          	5.186
MS.406         	17.385         	5.352
MS.407         	17.35          	5.485
MS.408         	17.315         	5.47
MS.409         	17.28          	5.444
MS.410         	17.245         	5.472
MS.411         	17.21          	5.513
MS.412         	17.177         	5.472
MS.413         	17.142         	5.462
MS.414         	17.108         	5.45
MS.415         	17.075         	5.565
MS.416         	17.04          	5.44
MS.417         	17.005         	5.561
MS.418         	16.972         	5.507
MS.419         	16.938         	5.47
MS.420         	16.905         	5.374
MS.421         	16.87          	5.466
MS.422         	16.837         	5.432
MS.423         	16.802         	5.523
MS.424         	16.77          	5.41
MS.425         	16.735         	5.333
MS.426         	16.702         	5.416
MS.427         	16.67          	5.309
MS.428         	16.635         	5.315
MS.429         	16.602         	5.174
MS.430         	16.57          	5.174
MS.431         	16.538         	5.15
MS.432         	16.503         	5.36
MS.433         	16.47          	5.15
MS.434         	16.438         	5.122
MS.435         	16.405         	5.13
MS.436         	16.372         	5.029
MS.437         	16.34          	4.792
MS.438         	16.307         	4.614
MS.439         	16.275         	4.838
MS.440         	16.243         	4.631
MS.441         	16.21          	4.103
MS.442         	16.177         	4.252
MS.443         	16.145         	4.308
MS.444         	16.112         	4.443
MS.445         	16.08          	4.065
MS.446         	16.047         	3.883
MS.447         	16.015         	3.954
MS.448         	15.983         	3.968
MS.449         	15.952         	3.587
MS.450         	15.92          	3.881
MS.451         	15.887         	3.611
MS.452         	15.855         	3.875
MS.453         	15.825         	3.194
MS.454         	15.792         	3.196
MS.455         	15.762         	3.299
MS.456         	15.73          	3.515
MS.457         	15.697         	3.35
MS.458         	15.667         	3.102
MS.459         	15.635         	3.229
MS.460         	15.605         	3.108
MS.461         	15.572         	2.79
MS.462         	15.542         	2.85
MS.463         	15.51          	2.852
MS.464         	15.48          	3.011
MS.465         	15.45          	3.005
MS.466         	15.417         	2.59
MS.467         	15.387         	2.737
MS.468         	15.358         	2.5
MS.469         	15.325         	2.691
MS.470         	15.295         	2.075
MS.471         	15.265         	2.131
MS.472         	15.235         	2.25
MS.473         	15.205         	2.397
MS.474         	15.172         	1.887
MS.475         	15.142         	2.018
MS.476         	15.112         	1.819
MS.477         	15.082         	2.256
MS.478         	15.052         	1.623
MS.479         	15.023         	1.738
MS.480         	14.992         	1.605
MS.481         	14.962         	1.68
MS.482         	14.932         	1.488
MS.483         	14.902         	1.823
MS.484         	14.872         	1.654
MS.485         	14.842         	1.646
MS.486         	14.815         	1.631
MS.487         	14.785         	1.787
MS.488         	14.755         	2.091
MS.489         	14.725         	1.756
MS.490         	14.695         	1.859
MS.491         	14.667         	2.038
MS.492         	14.637         	1.69
MS.493         	14.608         	1.96
MS.494         	14.577         	1.744
MS.495         	14.55          	1.998
MS.496         	14.52          	1.644
MS.497         	14.492         	1.692
MS.498         	14.462         	1.76
MS.499         	14.432         	1.833
MS.500         	14.405         	1.615
MS.501         	14.375         	1.64
