File:              	C:\Qtrac\Data\Daniel M Sørensen\MScan multicentre study\Data from centres\Antalya\Processed data\TR.NC.ANT.8.1- NCC01115B.QZD
Name:              	TR.NC.ANT.8.1
Protocol:          	MSCAN-R2
Date:              	15/11/20
Start time:        	14:42:37
Age:               	45
Sex:               	f
Temperature:       	33.6
S/R sites:         	ADM
NC/disease:        	NC
Operator:          	ab
Comments:
M-SCAN DATA (7.1-0.7m)
Scanpts: 105, 110, 551, 558
Stim. (mA)     	Amp. (mV)
MS.1           	25.5           	6.514
MS.2           	25.5           	6.534
MS.3           	25.5           	6.554
MS.4           	25.5           	6.526
MS.5           	25.5           	6.498
MS.6           	25.5           	6.49
MS.7           	25.5           	6.478
MS.8           	25.5           	6.474
MS.9           	25.5           	6.48
MS.10          	25.5           	6.455
MS.11          	25.5           	6.474
MS.12          	25.5           	6.453
MS.13          	25.5           	6.471
MS.14          	25.5           	6.498
MS.15          	25.5           	6.455
MS.16          	25.5           	6.471
MS.17          	25.5           	6.467
MS.18          	25.5           	6.476
MS.19          	25.5           	6.437
MS.20          	25.5           	6.457
MS.21          	25.5           	6.578
MS.22          	25.5           	6.629
MS.23          	25.5           	6.447
MS.24          	25.347         	6.715
MS.25          	25.297         	6.788
MS.26          	25.245         	6.753
MS.27          	25.195         	6.709
MS.28          	25.145         	6.665
MS.29          	25.095         	6.677
MS.30          	25.045         	6.679
MS.31          	24.995         	6.687
MS.32          	24.945         	6.745
MS.33          	24.895         	6.751
MS.34          	24.845         	6.766
MS.35          	24.795         	6.745
MS.36          	24.747         	6.768
MS.37          	24.698         	6.782
MS.38          	24.647         	6.743
MS.39          	24.597         	6.838
MS.40          	24.55          	6.961
MS.41          	24.5           	7.005
MS.42          	24.45          	6.981
MS.43          	24.403         	6.975
MS.44          	24.352         	6.896
MS.45          	24.305         	6.991
MS.46          	24.257         	6.979
MS.47          	24.207         	7.015
MS.48          	24.16          	6.973
MS.49          	24.11          	7.017
MS.50          	24.062         	6.991
MS.51          	24.015         	7.052
MS.52          	23.967         	7.052
MS.53          	23.92          	7.076
MS.54          	23.87          	7.031
MS.55          	23.823         	6.997
MS.56          	23.775         	6.955
MS.57          	23.727         	7.009
MS.58          	23.68          	6.993
MS.59          	23.632         	6.949
MS.60          	23.587         	6.991
MS.61          	23.54          	6.973
MS.62          	23.493         	6.981
MS.63          	23.445         	6.955
MS.64          	23.397         	6.993
MS.65          	23.352         	6.977
MS.66          	23.305         	7.052
MS.67          	23.257         	7.05
MS.68          	23.212         	6.977
MS.69          	23.165         	6.923
MS.70          	23.12          	7.015
MS.71          	23.073         	7.07
MS.72          	23.028         	7.058
MS.73          	22.98          	7.029
MS.74          	22.935         	7.068
MS.75          	22.89          	7.082
MS.76          	22.842         	7.054
MS.77          	22.797         	7.066
MS.78          	22.752         	7.048
MS.79          	22.707         	7.096
MS.80          	22.663         	7.096
MS.81          	22.618         	7.088
MS.82          	22.57          	7.076
MS.83          	22.525         	7.068
MS.84          	22.48          	7.092
MS.85          	22.435         	7.074
MS.86          	22.392         	7.048
MS.87          	22.347         	7.011
MS.88          	22.302         	7.007
MS.89          	22.257         	7.039
MS.90          	22.212         	7.019
MS.91          	22.167         	6.997
MS.92          	22.125         	6.921
MS.93          	22.08          	6.836
MS.94          	22.035         	6.834
MS.95          	21.993         	6.79
MS.96          	21.948         	6.77
MS.97          	21.905         	6.788
MS.98          	21.86          	6.804
MS.99          	21.817         	6.828
MS.100         	21.772         	6.826
MS.101         	21.73          	6.812
MS.102         	21.685         	6.824
MS.103         	21.642         	6.83
MS.104         	21.6           	6.86
MS.105         	21.557         	6.832
MS.106         	21.512         	6.812
MS.107         	21.47          	6.836
MS.108         	21.427         	6.846
MS.109         	21.385         	6.82
MS.110         	21.342         	6.836
MS.111         	21.3           	6.842
MS.112         	21.257         	6.85
MS.113         	21.215         	6.836
MS.114         	21.172         	6.864
MS.115         	21.13          	6.828
MS.116         	21.087         	6.76
MS.117         	21.045         	6.725
MS.118         	21.002         	6.713
MS.119         	20.96          	6.665
MS.120         	20.92          	6.655
MS.121         	20.877         	6.679
MS.122         	20.835         	6.673
MS.123         	20.795         	6.709
MS.124         	20.752         	6.703
MS.125         	20.71          	6.691
MS.126         	20.67          	6.693
MS.127         	20.627         	6.699
MS.128         	20.587         	6.719
MS.129         	20.545         	6.731
MS.130         	20.505         	6.701
MS.131         	20.465         	6.737
MS.132         	20.422         	6.753
MS.133         	20.382         	6.762
MS.134         	20.342         	6.776
MS.135         	20.3           	6.826
MS.136         	20.26          	6.766
MS.137         	20.22          	6.743
MS.138         	20.18          	6.719
MS.139         	20.14          	6.705
MS.140         	20.1           	6.693
MS.141         	20.06          	6.693
MS.142         	20.02          	6.691
MS.143         	19.98          	6.683
MS.144         	19.94          	6.697
MS.145         	19.9           	6.675
MS.146         	19.86          	6.621
MS.147         	19.82          	6.671
MS.148         	19.78          	6.683
MS.149         	19.74          	6.675
MS.150         	19.7           	6.697
MS.151         	19.663         	6.745
MS.152         	19.622         	6.788
MS.153         	19.583         	6.709
MS.154         	19.545         	6.635
MS.155         	19.505         	6.596
MS.156         	19.465         	6.594
MS.157         	19.427         	6.588
MS.158         	19.387         	6.641
MS.159         	19.35          	6.701
MS.160         	19.31          	6.725
MS.161         	19.272         	6.673
MS.162         	19.235         	6.737
MS.163         	19.195         	6.617
MS.164         	19.157         	6.59
MS.165         	19.12          	6.647
MS.166         	19.08          	6.693
MS.167         	19.042         	6.657
MS.168         	19.005         	6.774
MS.169         	18.967         	6.685
MS.170         	18.927         	6.731
MS.171         	18.89          	6.737
MS.172         	18.852         	6.667
MS.173         	18.815         	6.782
MS.174         	18.778         	6.749
MS.175         	18.74          	6.735
MS.176         	18.702         	6.683
MS.177         	18.665         	6.713
MS.178         	18.628         	6.806
MS.179         	18.59          	6.8
MS.180         	18.555         	6.872
MS.181         	18.517         	6.764
MS.182         	18.48          	6.753
MS.183         	18.442         	6.814
MS.184         	18.405         	6.753
MS.185         	18.37          	6.766
MS.186         	18.333         	6.959
MS.187         	18.295         	6.907
MS.188         	18.26          	6.921
MS.189         	18.222         	6.814
MS.190         	18.188         	6.858
MS.191         	18.15          	7.021
MS.192         	18.115         	6.794
MS.193         	18.077         	6.804
MS.194         	18.042         	7.023
MS.195         	18.005         	6.77
MS.196         	17.97          	6.762
MS.197         	17.932         	6.768
MS.198         	17.897         	6.693
MS.199         	17.862         	6.617
MS.200         	17.827         	6.727
MS.201         	17.79          	6.715
MS.202         	17.755         	6.709
MS.203         	17.72          	6.598
MS.204         	17.685         	6.478
MS.205         	17.65          	6.522
MS.206         	17.612         	6.643
MS.207         	17.577         	6.514
MS.208         	17.542         	6.409
MS.209         	17.507         	6.508
MS.210         	17.472         	6.566
MS.211         	17.438         	6.57
MS.212         	17.403         	6.538
MS.213         	17.37          	6.608
MS.214         	17.335         	6.55
MS.215         	17.3           	6.57
MS.216         	17.265         	6.53
MS.217         	17.23          	6.59
MS.218         	17.195         	6.562
MS.219         	17.163         	6.24
MS.220         	17.128         	6.617
MS.221         	17.092         	6.27
MS.222         	17.06          	6.014
MS.223         	17.025         	6.278
MS.224         	16.99          	6.331
MS.225         	16.958         	6.212
MS.226         	16.922         	6.397
MS.227         	16.89          	6.27
MS.228         	16.855         	6.353
MS.229         	16.823         	6.304
MS.230         	16.788         	6.224
MS.231         	16.755         	6.331
MS.232         	16.72          	6.441
MS.233         	16.688         	6.361
MS.234         	16.655         	6.381
MS.235         	16.62          	6.105
MS.236         	16.587         	6.48
MS.237         	16.555         	6.373
MS.238         	16.522         	6.443
MS.239         	16.487         	6.445
MS.240         	16.455         	6.447
MS.241         	16.422         	6.425
MS.242         	16.39          	6.282
MS.243         	16.358         	6.333
MS.244         	16.325         	6.349
MS.245         	16.292         	6.451
MS.246         	16.26          	6.353
MS.247         	16.227         	6.278
MS.248         	16.195         	6.318
MS.249         	16.163         	6.393
MS.250         	16.13          	6.143
MS.251         	16.097         	6.27
MS.252         	16.065         	6.119
MS.253         	16.032         	6.214
MS.254         	16.003         	6.272
MS.255         	15.97          	6.049
MS.256         	15.938         	6.188
MS.257         	15.905         	6.097
MS.258         	15.875         	6.071
MS.259         	15.842         	6.278
MS.260         	15.81          	6.101
MS.261         	15.78          	6.143
MS.262         	15.747         	6.135
MS.263         	15.715         	6.089
MS.264         	15.685         	6.109
MS.265         	15.652         	6.262
MS.266         	15.622         	6.083
MS.267         	15.59          	6.069
MS.268         	15.56          	6.047
MS.269         	15.527         	6.059
MS.270         	15.497         	6.131
MS.271         	15.467         	6.119
MS.272         	15.435         	6.026
MS.273         	15.405         	6.153
MS.274         	15.375         	6.079
MS.275         	15.342         	5.934
MS.276         	15.312         	6.042
MS.277         	15.282         	6.02
MS.278         	15.252         	5.851
MS.279         	15.22          	6.004
MS.280         	15.19          	5.976
MS.281         	15.16          	6.034
MS.282         	15.13          	6.016
MS.283         	15.1           	5.93
MS.284         	15.07          	5.887
MS.285         	15.04          	5.958
MS.286         	15.01          	5.781
MS.287         	14.98          	5.756
MS.288         	14.95          	5.843
MS.289         	14.92          	5.895
MS.290         	14.89          	5.694
MS.291         	14.86          	5.559
MS.292         	14.83          	5.67
MS.293         	14.8           	5.352
MS.294         	14.77          	5.787
MS.295         	14.742         	5.563
MS.296         	14.712         	5.783
MS.297         	14.682         	5.587
MS.298         	14.652         	5.509
MS.299         	14.625         	5.47
MS.300         	14.595         	5.211
MS.301         	14.565         	5.195
MS.302         	14.537         	5.271
MS.303         	14.507         	5.275
MS.304         	14.477         	5.17
MS.305         	14.45          	5.106
MS.306         	14.42          	5.259
MS.307         	14.392         	5.005
MS.308         	14.362         	4.965
MS.309         	14.335         	5.106
MS.310         	14.305         	5.162
MS.311         	14.278         	4.88
MS.312         	14.25          	4.87
MS.313         	14.22          	4.824
MS.314         	14.193         	4.659
MS.315         	14.162         	4.82
MS.316         	14.135         	4.933
MS.317         	14.108         	4.79
MS.318         	14.08          	4.518
MS.319         	14.05          	4.824
MS.320         	14.023         	4.729
MS.321         	13.995         	4.685
MS.322         	13.967         	4.486
MS.323         	13.94          	4.608
MS.324         	13.91          	4.24
MS.325         	13.882         	4.425
MS.326         	13.855         	4.558
MS.327         	13.827         	4.244
MS.328         	13.8           	4.588
MS.329         	13.773         	4.349
MS.330         	13.745         	4.252
MS.331         	13.717         	4.024
MS.332         	13.69          	4.33
MS.333         	13.662         	4.115
MS.334         	13.635         	4.324
MS.335         	13.608         	4.113
MS.336         	13.58          	3.845
MS.337         	13.555         	4.075
MS.338         	13.528         	3.823
MS.339         	13.5           	4.048
MS.340         	13.472         	3.791
MS.341         	13.445         	3.76
MS.342         	13.42          	3.472
MS.343         	13.392         	3.537
MS.344         	13.365         	3.444
MS.345         	13.34          	3.529
MS.346         	13.312         	3.577
MS.347         	13.285         	3.45
MS.348         	13.26          	3.589
MS.349         	13.233         	3.507
MS.350         	13.205         	3.366
MS.351         	13.18          	3.372
MS.352         	13.153         	3.376
MS.353         	13.127         	3.231
MS.354         	13.1           	3.398
MS.355         	13.075         	3.352
MS.356         	13.047         	3.271
MS.357         	13.023         	3.325
MS.358         	12.997         	3.295
MS.359         	12.97          	3.36
MS.360         	12.945         	3.15
MS.361         	12.917         	3.086
MS.362         	12.892         	2.919
MS.363         	12.867         	2.979
MS.364         	12.842         	3.019
MS.365         	12.815         	3.017
MS.366         	12.79          	2.999
MS.367         	12.765         	2.91
MS.368         	12.74          	3.198
MS.369         	12.712         	3.11
MS.370         	12.688         	2.699
MS.371         	12.662         	2.898
MS.372         	12.637         	2.669
MS.373         	12.613         	2.83
MS.374         	12.587         	2.645
MS.375         	12.562         	2.492
MS.376         	12.537         	2.608
MS.377         	12.512         	2.602
MS.378         	12.488         	2.427
MS.379         	12.462         	2.415
MS.380         	12.438         	2.322
MS.381         	12.412         	2.252
MS.382         	12.387         	2.437
MS.383         	12.363         	2.419
MS.384         	12.337         	2.29
MS.385         	12.312         	2.244
MS.386         	12.287         	2.21
MS.387         	12.265         	1.847
MS.388         	12.24          	2.268
MS.389         	12.215         	1.857
MS.390         	12.19          	1.976
MS.391         	12.167         	1.797
MS.392         	12.142         	1.835
MS.393         	12.117         	1.698
MS.394         	12.092         	1.768
MS.395         	12.07          	1.774
MS.396         	12.045         	1.847
MS.397         	12.02          	1.77
MS.398         	11.997         	1.686
MS.399         	11.972         	1.563
MS.400         	11.95          	1.547
MS.401         	11.925         	1.372
MS.402         	11.903         	1.497
MS.403         	11.877         	1.452
MS.404         	11.855         	1.406
MS.405         	11.83          	1.364
MS.406         	11.807         	1.309
MS.407         	11.782         	1.43
MS.408         	11.76          	1.291
MS.409         	11.735         	1.162
MS.410         	11.712         	1.049
MS.411         	11.69          	1.138
MS.412         	11.665         	1.106
MS.413         	11.642         	0.916
MS.414         	11.62          	1.003
MS.415         	11.595         	0.868
MS.416         	11.572         	1.003
MS.417         	11.55          	0.884
MS.418         	11.528         	0.834
MS.419         	11.505         	0.826
MS.420         	11.48          	0.931
MS.421         	11.457         	0.784
MS.422         	11.435         	0.779
MS.423         	11.412         	0.755
MS.424         	11.39          	0.723
MS.425         	11.367         	0.57
MS.426         	11.345         	0.753
MS.427         	11.32          	0.653
MS.428         	11.297         	0.697
MS.429         	11.275         	0.586
MS.430         	11.252         	0.602
MS.431         	11.23          	0.681
MS.432         	11.207         	0.57
MS.433         	11.185         	0.608
MS.434         	11.165         	0.61
MS.435         	11.142         	0.6
MS.436         	11.12          	0.524
MS.437         	11.097         	0.548
MS.438         	11.075         	0.54
MS.439         	11.052         	0.491
MS.440         	11.03          	0.459
MS.441         	11.007         	0.407
MS.442         	10.988         	0.417
MS.443         	10.965         	0.463
MS.444         	10.943         	0.467
MS.445         	10.92          	0.393
MS.446         	10.9           	0.457
MS.447         	10.877         	0.433
MS.448         	10.855         	0.441
MS.449         	10.835         	0.417
MS.450         	10.812         	0.357
MS.451         	10.79          	0.338
MS.452         	10.77          	0.31
MS.453         	10.747         	0.346
MS.454         	10.725         	0.395
MS.455         	10.705         	0.34
MS.456         	10.682         	0.33
MS.457         	10.662         	0.34
MS.458         	10.64          	0.322
MS.459         	10.62          	0.308
MS.460         	10.597         	0.3
MS.461         	10.577         	0.294
MS.462         	10.555         	0.238
MS.463         	10.535         	0.26
MS.464         	10.512         	0.232
MS.465         	10.492         	0.173
MS.466         	10.472         	0.205
MS.467         	10.45          	0.248
MS.468         	10.43          	0.197
MS.469         	10.41          	0.193
MS.470         	10.387         	0.171
MS.471         	10.367         	0.218
MS.472         	10.347         	0.173
MS.473         	10.325         	0.131
MS.474         	10.305         	0.181
MS.475         	10.285         	0.163
MS.476         	10.265         	0.161
MS.477         	10.245         	0.111
MS.478         	10.222         	0.195
MS.479         	10.202         	0.127
MS.480         	10.182         	0.123
MS.481         	10.162         	0.155
MS.482         	10.142         	0.137
MS.483         	10.122         	0.167
MS.484         	10.102         	0.163
MS.485         	10.08          	0.143
MS.486         	10.06          	0.133
MS.487         	10.04          	0.077
MS.488         	10.02          	0.119
MS.489         	10             	0.125
MS.490         	9.98           	0.125
MS.491         	9.96           	0.123
MS.492         	9.94           	0.121
MS.493         	9.92           	0.137
MS.494         	9.903          	0.048
MS.495         	9.882          	0.113
MS.496         	9.863          	0.064
MS.497         	9.842          	0.095
MS.498         	9.823          	0.101
MS.499         	9.802          	0.075
MS.500         	9.782          	0.087
MS.501         	9.762          	0.083
