File:              	C:\Qtrac\Data\Daniel M Sørensen\MScan multicentre study\Data from centres\Oxford\Processed data\ATC01208D.QZD
Name:              	UK.OXF.NC.6.1
Protocol:          	MSCAN-R2
Date:              	8/12/20
Start time:        	17:22:22
Age:               	36
Sex:               	F
Temperature:       	33.4
S/R sites:         	APB
NC/disease:        	NC
Operator:          	AT
Comments:          	HC Median N ABP 1st
M-SCAN DATA (4.7-1.3m)
Scanpts: 76, 79, 355, 358
Stim. (mA)     	Amp. (mV)
MS.1           	15.5           	7.295
MS.2           	15.5           	7.321
MS.3           	15.5           	7.35
MS.4           	15.5           	7.366
MS.5           	15.5           	7.352
MS.6           	15.5           	7.388
MS.7           	15.5           	7.37
MS.8           	15.5           	7.261
MS.9           	15.5           	7.348
MS.10          	15.5           	7.4
MS.11          	15.5           	7.378
MS.12          	15.5           	7.412
MS.13          	15.5           	7.436
MS.14          	15.5           	7.446
MS.15          	15.5           	7.414
MS.16          	15.5           	7.408
MS.17          	15.5           	7.372
MS.18          	15.5           	7.323
MS.19          	15.5           	7.35
MS.20          	15.5           	7.37
MS.21          	15.5           	7.4
MS.22          	15.5           	7.43
MS.23          	15.5           	7.386
MS.24          	15.438         	7.309
MS.25          	15.407         	7.328
MS.26          	15.377         	7.37
MS.27          	15.345         	7.33
MS.28          	15.315         	7.36
MS.29          	15.285         	7.4
MS.30          	15.255         	7.422
MS.31          	15.222         	7.406
MS.32          	15.193         	7.444
MS.33          	15.162         	7.487
MS.34          	15.132         	7.539
MS.35          	15.102         	7.507
MS.36          	15.072         	7.483
MS.37          	15.042         	7.46
MS.38          	15.012         	7.485
MS.39          	14.983         	7.456
MS.40          	14.952         	7.438
MS.41          	14.922         	7.45
MS.42          	14.892         	7.444
MS.43          	14.862         	7.471
MS.44          	14.832         	7.42
MS.45          	14.802         	7.45
MS.46          	14.773         	7.485
MS.47          	14.745         	7.507
MS.48          	14.715         	7.493
MS.49          	14.685         	7.469
MS.50          	14.655         	7.523
MS.51          	14.627         	7.477
MS.52          	14.597         	7.513
MS.53          	14.568         	7.549
MS.54          	14.54          	7.489
MS.55          	14.51          	7.527
MS.56          	14.48          	7.458
MS.57          	14.452         	7.503
MS.58          	14.422         	7.505
MS.59          	14.395         	7.509
MS.60          	14.365         	7.557
MS.61          	14.337         	7.551
MS.62          	14.307         	7.565
MS.63          	14.28          	7.487
MS.64          	14.25          	7.491
MS.65          	14.222         	7.515
MS.66          	14.195         	7.531
MS.67          	14.165         	7.483
MS.68          	14.137         	7.448
MS.69          	14.11          	7.513
MS.70          	14.08          	7.495
MS.71          	14.052         	7.507
MS.72          	14.025         	7.501
MS.73          	13.997         	7.499
MS.74          	13.97          	7.539
MS.75          	13.94          	7.513
MS.76          	13.912         	7.523
MS.77          	13.885         	7.515
MS.78          	13.858         	7.515
MS.79          	13.83          	7.515
MS.80          	13.802         	7.466
MS.81          	13.775         	7.533
MS.82          	13.747         	7.489
MS.83          	13.72          	7.456
MS.84          	13.693         	7.483
MS.85          	13.665         	7.444
MS.86          	13.637         	7.45
MS.87          	13.61          	7.505
MS.88          	13.582         	7.489
MS.89          	13.555         	7.497
MS.90          	13.53          	7.485
MS.91          	13.502         	7.473
MS.92          	13.475         	7.348
MS.93          	13.447         	7.334
MS.94          	13.42          	7.326
MS.95          	13.395         	7.315
MS.96          	13.367         	7.444
MS.97          	13.34          	7.342
MS.98          	13.315         	7.33
MS.99          	13.287         	7.398
MS.100         	13.26          	7.323
MS.101         	13.235         	7.295
MS.102         	13.207         	7.303
MS.103         	13.182         	7.34
MS.104         	13.155         	7.217
MS.105         	13.13          	7.225
MS.106         	13.102         	7.046
MS.107         	13.077         	7.334
MS.108         	13.05          	7.305
MS.109         	13.025         	7.225
MS.110         	12.997         	6.796
MS.111         	12.972         	7.219
MS.112         	12.947         	6.673
MS.113         	12.92          	7.241
MS.114         	12.895         	7.352
MS.115         	12.87          	7.128
MS.116         	12.842         	7.096
MS.117         	12.818         	6.615
MS.118         	12.792         	6.665
MS.119         	12.767         	6.681
MS.120         	12.74          	7.007
MS.121         	12.715         	6.54
MS.122         	12.69          	6.705
MS.123         	12.665         	6.542
MS.124         	12.64          	6.471
MS.125         	12.615         	6.304
MS.126         	12.59          	6.5
MS.127         	12.565         	6.337
MS.128         	12.54          	6.476
MS.129         	12.515         	6.232
MS.130         	12.49          	6.314
MS.131         	12.465         	6.282
MS.132         	12.44          	6.343
MS.133         	12.415         	6.276
MS.134         	12.39          	6.296
MS.135         	12.365         	6.133
MS.136         	12.34          	6.264
MS.137         	12.315         	6.149
MS.138         	12.29          	6.097
MS.139         	12.265         	5.901
MS.140         	12.242         	6.018
MS.141         	12.217         	5.676
MS.142         	12.193         	5.436
MS.143         	12.167         	5.601
MS.144         	12.145         	5.738
MS.145         	12.12          	5.897
MS.146         	12.095         	5.45
MS.147         	12.072         	5.388
MS.148         	12.047         	5.44
MS.149         	12.023         	5.43
MS.150         	12             	5.454
MS.151         	11.975         	5.338
MS.152         	11.95          	5.217
MS.153         	11.927         	4.993
MS.154         	11.903         	4.997
MS.155         	11.88          	5.509
MS.156         	11.855         	5.261
MS.157         	11.832         	4.925
MS.158         	11.807         	4.911
MS.159         	11.785         	4.945
MS.160         	11.762         	4.892
MS.161         	11.738         	4.949
MS.162         	11.715         	4.937
MS.163         	11.69          	4.788
MS.164         	11.667         	4.749
MS.165         	11.645         	4.757
MS.166         	11.622         	4.834
MS.167         	11.597         	4.786
MS.168         	11.575         	4.902
MS.169         	11.552         	4.673
MS.170         	11.528         	4.689
MS.171         	11.505         	4.53
MS.172         	11.483         	4.562
MS.173         	11.46          	4.562
MS.174         	11.438         	4.598
MS.175         	11.415         	4.538
MS.176         	11.39          	4.437
MS.177         	11.367         	4.224
MS.178         	11.345         	4.248
MS.179         	11.322         	4.099
MS.180         	11.3           	4.153
MS.181         	11.278         	4.165
MS.182         	11.255         	4.065
MS.183         	11.233         	4.212
MS.184         	11.21          	3.783
MS.185         	11.188         	3.907
MS.186         	11.165         	3.736
MS.187         	11.142         	3.768
MS.188         	11.12          	3.811
MS.189         	11.1           	3.487
MS.190         	11.077         	3.519
MS.191         	11.055         	3.533
MS.192         	11.032         	3.569
MS.193         	11.01          	3.501
MS.194         	10.988         	3.279
MS.195         	10.967         	3.384
MS.196         	10.945         	3.325
MS.197         	10.922         	3.291
MS.198         	10.9           	3.269
MS.199         	10.88          	3.223
MS.200         	10.858         	3.247
MS.201         	10.835         	3.128
MS.202         	10.815         	2.894
MS.203         	10.792         	2.945
MS.204         	10.77          	2.959
MS.205         	10.75          	2.86
MS.206         	10.727         	2.649
MS.207         	10.707         	2.818
MS.208         	10.685         	2.81
MS.209         	10.662         	2.695
MS.210         	10.642         	2.637
MS.211         	10.62          	2.54
MS.212         	10.6           	2.554
MS.213         	10.577         	2.483
MS.214         	10.557         	2.606
MS.215         	10.537         	2.5
MS.216         	10.515         	2.135
MS.217         	10.495         	1.954
MS.218         	10.472         	2.101
MS.219         	10.452         	2.139
MS.220         	10.432         	1.547
MS.221         	10.41          	1.851
MS.222         	10.39          	1.402
MS.223         	10.37          	1.752
MS.224         	10.347         	1.617
MS.225         	10.327         	1.239
MS.226         	10.307         	1.436
MS.227         	10.287         	1.063
MS.228         	10.265         	1.255
MS.229         	10.245         	1.289
MS.230         	10.225         	1.658
MS.231         	10.205         	0.977
MS.232         	10.185         	1.098
MS.233         	10.165         	1.492
MS.234         	10.142         	0.89
MS.235         	10.122         	0.955
MS.236         	10.102         	1.239
MS.237         	10.082         	0.985
MS.238         	10.062         	1.136
MS.239         	10.042         	0.874
MS.240         	10.023         	1.094
MS.241         	10.002         	1.112
MS.242         	9.983          	0.808
MS.243         	9.962          	0.872
MS.244         	9.943          	0.886
MS.245         	9.922          	0.822
MS.246         	9.903          	0.771
MS.247         	9.882          	0.838
MS.248         	9.863          	0.757
MS.249         	9.842          	0.749
MS.250         	9.825          	0.796
MS.251         	9.805          	0.687
MS.252         	9.785          	0.773
MS.253         	9.765          	0.763
MS.254         	9.745          	0.755
MS.255         	9.727          	0.735
MS.256         	9.707          	0.715
MS.257         	9.688          	0.616
MS.258         	9.667          	0.671
MS.259         	9.65           	0.538
MS.260         	9.63           	0.514
MS.261         	9.61           	0.56
MS.262         	9.59           	0.691
MS.263         	9.573          	0.586
MS.264         	9.552          	0.757
MS.265         	9.532          	0.743
MS.266         	9.515          	0.582
MS.267         	9.495          	0.556
MS.268         	9.477          	0.588
MS.269         	9.457          	0.685
MS.270         	9.44           	0.562
MS.271         	9.42           	0.502
MS.272         	9.4            	0.518
MS.273         	9.382          	0.504
MS.274         	9.363          	0.487
MS.275         	9.345          	0.55
MS.276         	9.327          	0.495
MS.277         	9.307          	0.453
MS.278         	9.29           	0.425
MS.279         	9.27           	0.53
MS.280         	9.252          	0.447
MS.281         	9.233          	0.5
MS.282         	9.215          	0.508
MS.283         	9.198          	0.439
MS.284         	9.177          	0.469
MS.285         	9.16           	0.435
MS.286         	9.142          	0.336
MS.287         	9.122          	0.179
MS.288         	9.105          	0.324
MS.289         	9.087          	0.308
MS.290         	9.07           	0.318
MS.291         	9.05           	0.35
MS.292         	9.033          	0.493
MS.293         	9.015          	0.306
MS.294         	8.997          	0.306
MS.295         	8.977          	0.332
MS.296         	8.96           	0.322
MS.297         	8.943          	0.298
MS.298         	8.925          	0.306
MS.299         	8.908          	0.346
MS.300         	8.89           	0.324
MS.301         	8.872          	0.328
MS.302         	8.852          	0.232
MS.303         	8.835          	0.068
MS.304         	8.818          	0.318
MS.305         	8.8            	0.157
MS.306         	8.783          	0.165
MS.307         	8.765          	0.139
MS.308         	8.747          	0.169
MS.309         	8.73           	0.07
MS.310         	8.712          	0.07
MS.311         	8.695          	0.161
MS.312         	8.677          	0.068
MS.313         	8.66           	0.161
MS.314         	8.642          	0.062
MS.315         	8.627          	0.234
MS.316         	8.61           	0.066
MS.317         	8.592          	0.068
MS.318         	8.575          	0.077
MS.319         	8.557          	0.068
MS.320         	8.54           	0.167
MS.321         	8.523          	0.083
MS.322         	8.507          	0.075
MS.323         	8.49           	0.077
MS.324         	8.472          	0.066
MS.325         	8.455          	0.066
MS.326         	8.44           	0.068
MS.327         	8.422          	0.068
MS.328         	8.405          	0.073
MS.329         	8.387          	0.075
MS.330         	8.372          	0.064
MS.331         	8.355          	0.075
MS.332         	8.337          	0.075
MS.333         	8.323          	0.058
MS.334         	8.305          	0.077
MS.335         	8.287          	0.066
MS.336         	8.273          	0.066
MS.337         	8.255          	0.046
MS.338         	8.238          	0.044
MS.339         	8.222          	0.048
MS.340         	8.205          	0.056
MS.341         	8.19           	0.05
MS.342         	8.172          	0.06
MS.343         	8.158          	0.054
MS.344         	8.14           	0.056
MS.345         	8.125          	0.034
MS.346         	8.108          	0.042
MS.347         	8.092          	0.052
MS.348         	8.075          	0.052
MS.349         	8.06           	0.032
MS.350         	8.042          	0.032
MS.351         	8.028          	0.036
MS.352         	8.01           	0.04
MS.353         	7.995          	0.03
MS.354         	7.98           	0.028
MS.355         	7.962          	0.028
MS.356         	7.947          	0.036
MS.357         	7.932          	0.03
MS.358         	7.915          	0.03
MS.359         	7.9            	0.048
MS.360         	7.885          	0.044
MS.361         	7.867          	0.032
MS.362         	7.852          	0.032
MS.363         	7.837          	0.032
MS.364         	7.82           	0.026
MS.365         	7.805          	0.034
MS.366         	7.79           	0.032
MS.367         	7.775          	0.04
MS.368         	7.76           	0.032
MS.369         	7.742          	0.036
MS.370         	7.727          	0.034
MS.371         	7.712          	0.042
MS.372         	7.697          	0.042
MS.373         	7.682          	0.04
MS.374         	7.668          	0.034
MS.375         	7.65           	0.036
MS.376         	7.635          	0.038
MS.377         	7.62           	0.04
MS.378         	7.605          	0.034
MS.379         	7.59           	0.032
MS.380         	7.575          	0.032
MS.381         	7.56           	0.036
MS.382         	7.545          	0.032
MS.383         	7.53           	0.042
MS.384         	7.515          	0.028
MS.385         	7.5            	0.038
DERIVED EXCITABILITY VARIABLES
Program = QTracP 3/4/2020
Threshold method = 6 (optimised for CAP, using data for present condition only)
SR method = 1 (using actual data values)
6.                 	0.000               	Peak response\(mV)
9.                 	33.4                	Temperature ( C)
17.                	36                  	Age (years)
18.                	2                   	Sex (M=1, F=2)

EXTRA VARIABLES

MScPeak(mV) = 7.34
MScS5(mA) = 9.07
MScS50(mA) = 11.11
MScS95(mA) = 12.89
MScNSteps = 8
MScSteps(%) = 22
MScStepMax(%) = 4.7
MScD50 = 31
MScSlope = 6.83
MSFPeakAmp(mV) = 7.49
MSFNUnits = 139
MSFMeanUnitAmp(uV) = 53.9
MSFHuntTime(m) = 1.6
MSFError(%) = 5.88
MSFNLarge = 33.88
MSFMedianAmp(%) = 0.523
MSFMedianAmp(mV) = 0.0392
MSFHalfAmpAmp(%) = 0.85
MSFHalfAmpAmp(mV) = 0.0636
MSFLargestAmp(%) = 4.33
MSFLargestAmp(mV) = 0.324
MSFMeanRS(%) = 2
MSFOpts = 10106121
MScDuration(min) = 3.4
MSFTraces = 283
MSFSizeLimit(uV) = 18.7
MSFLimitType = 1
MSFSmallestAmp(uV) = 20.2

EXTRA WAVEFORMS


!MScan Model
!139
	1	8.17	0.35	2
	2	8.76	1.28	2
	3	8.81	0.69	2
	4	8.87	0.83	2
	5	8.94	0.6	2
	6	9.15	1.12	2
	7	9.31	1.37	2
	8	9.4	0.55	2
	9	9.46	0.72	2
	10	9.66	0.73	2
	11	9.69	0.47	2
	12	9.73	0.48	2
	13	9.78	0.45	2
	14	9.87	0.65	2
	15	9.92	0.57	2
	16	9.96	0.85	2
	17	10.18	3.86	2
	18	10.3	2.86	2
	19	10.33	0.63	2
	20	10.35	0.72	2
	21	10.37	1.22	2
	22	10.39	0.77	2
	23	10.4	0.77	2
	24	10.41	0.8	2
	25	10.43	0.87	2
	26	10.44	0.94	2
	27	10.46	0.95	2
	28	10.47	0.92	2
	29	10.49	0.92	2
	30	10.5	1.03	2
	31	10.52	1.13	2
	32	10.54	0.84	2
	33	10.56	0.91	2
	34	10.58	0.89	2
	35	10.6	0.73	2
	36	10.62	0.73	2
	37	10.63	0.47	2
	38	10.64	0.44	2
	39	10.65	0.41	2
	40	10.67	0.39	2
	41	10.68	0.35	2
	42	10.69	0.35	2
	43	10.7	0.33	2
	44	10.71	0.29	2
	45	10.72	0.42	2
	46	10.74	0.42	2
	47	10.75	0.44	2
	48	10.77	0.51	2
	49	10.78	0.46	2
	50	10.8	0.49	2
	51	10.81	0.27	2
	52	10.81	0.27	2
	53	10.82	0.27	2
	54	10.83	0.27	2
	55	10.84	0.27	2
	56	10.85	0.39	2
	57	10.86	0.39	2
	58	10.87	0.31	2
	59	10.88	0.3	2
	60	10.89	0.32	2
	61	10.9	0.33	2
	62	10.91	0.31	2
	63	10.92	0.31	2
	64	10.93	0.4	2
	65	10.95	0.42	2
	66	10.96	0.42	2
	67	10.98	0.37	2
	68	10.99	0.34	2
	69	11.01	0.33	2
	70	11.02	0.38	2
	71	11.03	0.4	2
	72	11.05	0.4	2
	73	11.06	0.39	2
	74	11.08	0.38	2
	75	11.09	0.46	2
	76	11.1	0.48	2
	77	11.12	0.53	2
	78	11.13	0.52	2
	79	11.15	0.53	2
	80	11.16	0.58	2
	81	11.18	0.58	2
	82	11.19	0.55	2
	83	11.21	0.45	2
	84	11.22	0.43	2
	85	11.24	0.44	2
	86	11.25	0.5	2
	87	11.27	0.5	2
	88	11.28	0.45	2
	89	11.29	0.32	2
	90	11.3	0.32	2
	91	11.31	0.35	2
	92	11.32	0.35	2
	93	11.33	0.34	2
	94	11.34	0.34	2
	95	11.35	0.33	2
	96	11.36	0.3	2
	97	11.37	0.31	2
	98	11.38	0.54	2
	99	11.4	0.54	2
	100	11.42	0.54	2
	101	11.44	0.56	2
	102	11.45	0.59	2
	103	11.47	0.52	2
	104	11.49	0.46	2
	105	11.5	0.46	2
	106	11.53	0.72	2
	107	11.56	0.35	2
	108	11.59	0.47	2
	109	11.63	0.68	2
	110	11.67	0.55	2
	111	11.71	0.59	2
	112	11.78	1.16	2
	113	11.88	2.27	2
	114	11.99	2.6	2
	115	12.08	2.41	2
	116	12.11	0.63	2
	117	12.14	1.05	2
	118	12.18	1.32	2
	119	12.21	1.24	2
	120	12.23	0.91	2
	121	12.25	0.58	2
	122	12.27	0.38	2
	123	12.3	0.46	2
	124	12.32	0.86	2
	125	12.39	2.28	2
	126	12.46	1.21	2
	127	12.5	0.59	2
	128	12.55	0.55	2
	129	12.6	0.81	2
	130	12.65	1.11	2
	131	12.71	1.38	2
	132	12.83	4.33	2
	133	13.06	1.19	2
	134	13.06	1.24	2
	135	13.16	1.33	2
	136	13.28	1.1	2
	137	13.38	0.39	2
	138	13.44	0.42	2
	139	13.5	0.47	2

