File:              	C:\Qtrac\Data\Daniel M Sørensen\MScan multicentre study\Data from centres\Oxford\Raw data (sorted for use)\ATC01204A.QZD
Name:              	UK.OXF.NC.4.1
Protocol:          	MSCAN-R2
Date:              	4/12/20
Start time:        	13:51:44
Age:               	37
Sex:               	M
Temperature:       	33.1
S/R sites:         	APB
NC/disease:        	NC
Operator:          	AT
Comments:          	Healthy control trial 1
M-SCAN DATA (6.8-1.4m)
Scanpts: 30, 36, 566, 582
Stim. (mA)     	Amp. (mV)
MS.1           	17.5           	4.896
MS.2           	17.5           	4.89
MS.3           	17.5           	4.919
MS.4           	17.5           	4.892
MS.5           	17.5           	4.925
MS.6           	17.5           	4.876
MS.7           	17.5           	4.894
MS.8           	17.5           	5.021
MS.9           	17.5           	5.033
MS.10          	17.5           	4.784
MS.11          	17.5           	4.79
MS.12          	17.5           	4.8
MS.13          	17.5           	4.866
MS.14          	17.5           	4.878
MS.15          	17.5           	4.9
MS.16          	17.5           	4.874
MS.17          	17.5           	4.886
MS.18          	17.5           	4.898
MS.19          	17.5           	4.913
MS.20          	17.5           	4.919
MS.21          	17.5           	4.973
MS.22          	17.5           	5.068
MS.23          	17.5           	4.786
MS.24          	17.43          	4.79
MS.25          	17.395         	4.808
MS.26          	17.36          	4.832
MS.27          	17.325         	4.852
MS.28          	17.29          	4.852
MS.29          	17.257         	4.852
MS.30          	17.222         	4.858
MS.31          	17.188         	4.866
MS.32          	17.153         	4.828
MS.33          	17.12          	4.826
MS.34          	17.085         	4.846
MS.35          	17.05          	4.812
MS.36          	17.017         	4.836
MS.37          	16.983         	4.852
MS.38          	16.95          	4.822
MS.39          	16.915         	4.832
MS.40          	16.88          	4.82
MS.41          	16.847         	4.822
MS.42          	16.812         	4.804
MS.43          	16.78          	4.796
MS.44          	16.747         	4.8
MS.45          	16.712         	4.782
MS.46          	16.68          	4.788
MS.47          	16.647         	4.812
MS.48          	16.612         	4.782
MS.49          	16.58          	4.782
MS.50          	16.547         	4.786
MS.51          	16.515         	4.78
MS.52          	16.48          	4.77
MS.53          	16.448         	4.782
MS.54          	16.415         	4.792
MS.55          	16.382         	4.78
MS.56          	16.35          	4.77
MS.57          	16.317         	4.751
MS.58          	16.285         	4.753
MS.59          	16.253         	4.77
MS.60          	16.22          	4.766
MS.61          	16.188         	4.739
MS.62          	16.155         	4.737
MS.63          	16.122         	4.729
MS.64          	16.09          	4.743
MS.65          	16.057         	4.737
MS.66          	16.025         	4.763
MS.67          	15.992         	4.735
MS.68          	15.962         	4.727
MS.69          	15.93          	4.729
MS.70          	15.898         	4.737
MS.71          	15.867         	4.747
MS.72          	15.835         	4.745
MS.73          	15.802         	4.735
MS.74          	15.773         	4.711
MS.75          	15.74          	4.729
MS.76          	15.707         	4.713
MS.77          	15.677         	4.727
MS.78          	15.645         	4.687
MS.79          	15.615         	4.759
MS.80          	15.582         	4.629
MS.81          	15.552         	4.717
MS.82          	15.52          	4.719
MS.83          	15.49          	4.725
MS.84          	15.46          	4.717
MS.85          	15.427         	4.731
MS.86          	15.398         	4.747
MS.87          	15.367         	4.637
MS.88          	15.335         	4.717
MS.89          	15.305         	4.622
MS.90          	15.275         	4.608
MS.91          	15.245         	4.703
MS.92          	15.212         	4.637
MS.93          	15.182         	4.616
MS.94          	15.152         	4.602
MS.95          	15.122         	4.693
MS.96          	15.092         	4.616
MS.97          	15.062         	4.721
MS.98          	15.032         	4.637
MS.99          	15.002         	4.629
MS.100         	14.972         	4.604
MS.101         	14.943         	4.61
MS.102         	14.912         	4.673
MS.103         	14.882         	4.661
MS.104         	14.852         	4.665
MS.105         	14.822         	4.604
MS.106         	14.792         	4.602
MS.107         	14.765         	4.62
MS.108         	14.735         	4.604
MS.109         	14.705         	4.604
MS.110         	14.675         	4.635
MS.111         	14.648         	4.635
MS.112         	14.617         	4.602
MS.113         	14.587         	4.596
MS.114         	14.56          	4.59
MS.115         	14.53          	4.568
MS.116         	14.5           	4.61
MS.117         	14.472         	4.639
MS.118         	14.443         	4.592
MS.119         	14.415         	4.594
MS.120         	14.385         	4.612
MS.121         	14.358         	4.584
MS.122         	14.327         	4.59
MS.123         	14.3           	4.629
MS.124         	14.27          	4.558
MS.125         	14.242         	4.538
MS.126         	14.212         	4.637
MS.127         	14.185         	4.538
MS.128         	14.157         	4.586
MS.129         	14.127         	4.622
MS.130         	14.1           	4.55
MS.131         	14.072         	4.459
MS.132         	14.045         	4.484
MS.133         	14.015         	4.433
MS.134         	13.987         	4.463
MS.135         	13.96          	4.322
MS.136         	13.932         	4.343
MS.137         	13.905         	4.415
MS.138         	13.877         	4.459
MS.139         	13.85          	4.482
MS.140         	13.82          	4.467
MS.141         	13.792         	4.459
MS.142         	13.765         	4.479
MS.143         	13.737         	4.355
MS.144         	13.71          	4.482
MS.145         	13.682         	4.475
MS.146         	13.655         	4.496
MS.147         	13.63          	4.361
MS.148         	13.602         	4.336
MS.149         	13.575         	4.341
MS.150         	13.547         	4.336
MS.151         	13.52          	4.369
MS.152         	13.492         	4.377
MS.153         	13.467         	4.355
MS.154         	13.44          	4.351
MS.155         	13.412         	4.361
MS.156         	13.385         	4.459
MS.157         	13.36          	4.379
MS.158         	13.332         	4.361
MS.159         	13.305         	4.375
MS.160         	13.28          	4.359
MS.161         	13.252         	4.383
MS.162         	13.225         	4.397
MS.163         	13.2           	4.383
MS.164         	13.172         	4.395
MS.165         	13.148         	4.393
MS.166         	13.12          	4.369
MS.167         	13.095         	4.377
MS.168         	13.068         	4.383
MS.169         	13.042         	4.381
MS.170         	13.015         	4.377
MS.171         	12.99          	4.504
MS.172         	12.965         	4.367
MS.173         	12.938         	4.351
MS.174         	12.912         	4.395
MS.175         	12.887         	4.371
MS.176         	12.86          	4.415
MS.177         	12.835         	4.431
MS.178         	12.81          	4.435
MS.179         	12.785         	4.405
MS.180         	12.757         	4.413
MS.181         	12.733         	4.387
MS.182         	12.707         	4.417
MS.183         	12.682         	4.381
MS.184         	12.657         	4.451
MS.185         	12.632         	4.445
MS.186         	12.608         	4.445
MS.187         	12.58          	4.393
MS.188         	12.555         	4.365
MS.189         	12.53          	4.361
MS.190         	12.505         	4.421
MS.191         	12.48          	4.439
MS.192         	12.455         	4.357
MS.193         	12.43          	4.451
MS.194         	12.405         	4.423
MS.195         	12.382         	4.421
MS.196         	12.358         	4.449
MS.197         	12.332         	4.379
MS.198         	12.307         	4.445
MS.199         	12.282         	4.365
MS.200         	12.257         	4.357
MS.201         	12.233         	4.411
MS.202         	12.21          	4.447
MS.203         	12.185         	4.439
MS.204         	12.16          	4.465
MS.205         	12.135         	4.443
MS.206         	12.113         	4.441
MS.207         	12.087         	4.385
MS.208         	12.062         	4.459
MS.209         	12.04          	4.393
MS.210         	12.015         	4.377
MS.211         	11.992         	4.33
MS.212         	11.967         	4.385
MS.213         	11.943         	4.385
MS.214         	11.92          	4.377
MS.215         	11.895         	4.395
MS.216         	11.872         	4.393
MS.217         	11.847         	4.33
MS.218         	11.825         	4.395
MS.219         	11.8           	4.409
MS.220         	11.778         	4.395
MS.221         	11.755         	4.318
MS.222         	11.73          	4.306
MS.223         	11.707         	4.397
MS.224         	11.682         	4.322
MS.225         	11.66          	4.365
MS.226         	11.637         	4.341
MS.227         	11.615         	4.373
MS.228         	11.59          	4.32
MS.229         	11.568         	4.324
MS.230         	11.545         	4.322
MS.231         	11.523         	4.332
MS.232         	11.497         	4.32
MS.233         	11.475         	4.339
MS.234         	11.452         	4.336
MS.235         	11.43          	4.371
MS.236         	11.407         	4.401
MS.237         	11.385         	4.304
MS.238         	11.36          	4.294
MS.239         	11.337         	4.383
MS.240         	11.315         	4.312
MS.241         	11.292         	4.306
MS.242         	11.27          	4.326
MS.243         	11.247         	4.286
MS.244         	11.225         	4.284
MS.245         	11.202         	4.308
MS.246         	11.18          	4.292
MS.247         	11.157         	4.296
MS.248         	11.135         	4.276
MS.249         	11.115         	4.27
MS.250         	11.092         	4.282
MS.251         	11.07          	4.3
MS.252         	11.047         	4.314
MS.253         	11.025         	4.298
MS.254         	11.002         	4.292
MS.255         	10.983         	4.272
MS.256         	10.96          	4.284
MS.257         	10.938         	4.288
MS.258         	10.915         	4.308
MS.259         	10.895         	4.272
MS.260         	10.872         	4.31
MS.261         	10.85          	4.21
MS.262         	10.827         	4.234
MS.263         	10.807         	4.262
MS.264         	10.785         	4.254
MS.265         	10.765         	4.242
MS.266         	10.742         	4.248
MS.267         	10.72          	4.236
MS.268         	10.7           	4.195
MS.269         	10.677         	4.26
MS.270         	10.657         	4.234
MS.271         	10.635         	4.262
MS.272         	10.615         	4.23
MS.273         	10.592         	4.248
MS.274         	10.573         	4.177
MS.275         	10.55          	4.216
MS.276         	10.53          	4.195
MS.277         	10.507         	4.224
MS.278         	10.488         	4.208
MS.279         	10.467         	4.169
MS.280         	10.445         	4.153
MS.281         	10.425         	4.165
MS.282         	10.405         	4.167
MS.283         	10.382         	4.105
MS.284         	10.363         	4.105
MS.285         	10.342         	4.147
MS.286         	10.32          	3.918
MS.287         	10.3           	4.123
MS.288         	10.28          	4.109
MS.289         	10.26          	4.107
MS.290         	10.24          	3.998
MS.291         	10.217         	4.071
MS.292         	10.198         	3.93
MS.293         	10.177         	3.944
MS.294         	10.157         	3.98
MS.295         	10.137         	3.922
MS.296         	10.117         	3.94
MS.297         	10.097         	3.839
MS.298         	10.077         	3.891
MS.299         	10.057         	3.869
MS.300         	10.035         	3.861
MS.301         	10.015         	3.829
MS.302         	9.995          	3.851
MS.303         	9.975          	3.801
MS.304         	9.955          	3.799
MS.305         	9.938          	3.831
MS.306         	9.917          	3.799
MS.307         	9.898          	3.827
MS.308         	9.877          	3.889
MS.309         	9.858          	3.851
MS.310         	9.837          	3.815
MS.311         	9.818          	3.809
MS.312         	9.797          	4.022
MS.313         	9.778          	3.738
MS.314         	9.76           	3.694
MS.315         	9.74           	3.728
MS.316         	9.72           	3.787
MS.317         	9.7            	3.819
MS.318         	9.682          	3.809
MS.319         	9.662          	3.771
MS.320         	9.642          	3.748
MS.321         	9.622          	3.775
MS.322         	9.605          	3.777
MS.323         	9.585          	3.781
MS.324         	9.565          	3.728
MS.325         	9.547          	3.676
MS.326         	9.528          	3.7
MS.327         	9.507          	3.728
MS.328         	9.49           	3.64
MS.329         	9.47           	3.68
MS.330         	9.452          	3.621
MS.331         	9.432          	3.676
MS.332         	9.415          	3.569
MS.333         	9.395          	3.593
MS.334         	9.377          	3.549
MS.335         	9.358          	3.505
MS.336         	9.34           	3.47
MS.337         	9.32           	3.515
MS.338         	9.302          	3.575
MS.339         	9.283          	3.458
MS.340         	9.265          	3.476
MS.341         	9.245          	3.509
MS.342         	9.227          	3.462
MS.343         	9.21           	3.39
MS.344         	9.19           	3.43
MS.345         	9.172          	3.251
MS.346         	9.155          	3.344
MS.347         	9.135          	3.229
MS.348         	9.117          	3.261
MS.349         	9.1            	3.156
MS.350         	9.08           	3.273
MS.351         	9.062          	3.15
MS.352         	9.045          	3.253
MS.353         	9.028          	3.132
MS.354         	9.01           	3.225
MS.355         	8.99           	3.064
MS.356         	8.972          	3.062
MS.357         	8.955          	3.184
MS.358         	8.938          	2.995
MS.359         	8.92           	3.062
MS.360         	8.903          	3.007
MS.361         	8.882          	2.955
MS.362         	8.865          	2.981
MS.363         	8.847          	2.943
MS.364         	8.83           	2.943
MS.365         	8.812          	2.963
MS.366         	8.795          	2.999
MS.367         	8.778          	2.904
MS.368         	8.76           	2.955
MS.369         	8.742          	2.89
MS.370         	8.725          	2.884
MS.371         	8.707          	2.858
MS.372         	8.69           	2.852
MS.373         	8.672          	2.828
MS.374         	8.655          	2.848
MS.375         	8.637          	2.884
MS.376         	8.62           	2.771
MS.377         	8.602          	2.743
MS.378         	8.587          	2.689
MS.379         	8.57           	2.784
MS.380         	8.552          	2.778
MS.381         	8.535          	2.538
MS.382         	8.517          	2.606
MS.383         	8.5            	2.665
MS.384         	8.485          	2.55
MS.385         	8.467          	2.574
MS.386         	8.45           	2.62
MS.387         	8.432          	2.469
MS.388         	8.417          	2.441
MS.389         	8.4            	2.403
MS.390         	8.382          	2.26
MS.391         	8.365          	2.711
MS.392         	8.35           	2.55
MS.393         	8.332          	2.351
MS.394         	8.315          	2.455
MS.395         	8.3            	2.191
MS.396         	8.283          	2.173
MS.397         	8.267          	2.268
MS.398         	8.25           	2.357
MS.399         	8.233          	2.268
MS.400         	8.217          	2.274
MS.401         	8.2            	2.157
MS.402         	8.185          	2.024
MS.403         	8.167          	1.917
MS.404         	8.153          	2.077
MS.405         	8.135          	2.097
MS.406         	8.12           	1.93
MS.407         	8.102          	2
MS.408         	8.087          	1.889
MS.409         	8.07           	1.974
MS.410         	8.055          	1.873
MS.411         	8.037          	1.833
MS.412         	8.023          	1.871
MS.413         	8.005          	1.833
MS.414         	7.99           	1.764
MS.415         	7.975          	1.889
MS.416         	7.957          	1.791
MS.417         	7.942          	1.621
MS.418         	7.927          	1.712
MS.419         	7.91           	1.776
MS.420         	7.895          	1.678
MS.421         	7.88           	1.621
MS.422         	7.862          	1.64
MS.423         	7.847          	1.519
MS.424         	7.832          	1.525
MS.425         	7.815          	1.633
MS.426         	7.8            	1.573
MS.427         	7.785          	1.543
MS.428         	7.77           	1.557
MS.429         	7.755          	1.529
MS.430         	7.737          	1.565
MS.431         	7.722          	1.468
MS.432         	7.707          	0.979
MS.433         	7.692          	1.317
MS.434         	7.677          	0.862
MS.435         	7.662          	1.432
MS.436         	7.645          	1.321
MS.437         	7.63           	1.019
MS.438         	7.615          	0.987
MS.439         	7.6            	1.339
MS.440         	7.585          	1.202
MS.441         	7.57           	1.364
MS.442         	7.555          	0.51
MS.443         	7.54           	0.431
MS.444         	7.525          	0.473
MS.445         	7.51           	0.53
MS.446         	7.495          	0.564
MS.447         	7.48           	0.761
MS.448         	7.465          	0.657
MS.449         	7.45           	0.645
MS.450         	7.435          	0.459
MS.451         	7.42           	0.258
MS.452         	7.405          	0.417
MS.453         	7.39           	0.357
MS.454         	7.375          	0.254
MS.455         	7.36           	0.312
MS.456         	7.347          	0.359
MS.457         	7.332          	0.224
MS.458         	7.317          	0.282
MS.459         	7.302          	0.316
MS.460         	7.287          	0.576
MS.461         	7.273          	0.165
MS.462         	7.257          	0.32
MS.463         	7.245          	0.379
MS.464         	7.23           	0.167
MS.465         	7.215          	0.161
MS.466         	7.2            	0.224
MS.467         	7.188          	0.197
MS.468         	7.172          	0.187
MS.469         	7.157          	0.175
MS.470         	7.142          	0.121
MS.471         	7.13           	0.089
MS.472         	7.115          	0.197
MS.473         	7.1            	0.131
MS.474         	7.087          	0.141
MS.475         	7.072          	0.103
MS.476         	7.057          	0.171
MS.477         	7.045          	0.135
MS.478         	7.03           	0.107
MS.479         	7.015          	0.062
MS.480         	7.003          	0.103
MS.481         	6.987          	0.083
MS.482         	6.975          	0.083
MS.483         	6.96           	0.068
MS.484         	6.945          	0.079
MS.485         	6.932          	0.073
MS.486         	6.918          	0.054
MS.487         	6.905          	0.077
MS.488         	6.89           	0.091
MS.489         	6.878          	0.058
MS.490         	6.862          	0.077
MS.491         	6.85           	0.079
MS.492         	6.835          	0.024
MS.493         	6.822          	0.02
MS.494         	6.807          	0.052
MS.495         	6.795          	0.018
MS.496         	6.782          	0.054
MS.497         	6.767          	0.046
MS.498         	6.755          	0.024
MS.499         	6.74           	0.008
MS.500         	6.727          	0.016
