File:              	C:\Qtrac\Data\Daniel M Sørensen\MScan multicentre study\Data from centres\Aarhus\Processed data\DMSB91126A.QZD
Name:              	DK.AAR.NC.6.1
Protocol:          	MSCAN-R2
Date:              	26/11/19
Start time:        	15:00:24
Age:               	66
Sex:               	f
Temperature:       	34,4
S/R sites:         	APB
NC/disease:        	Control
Operator:          	DS
Comments:
M-SCAN DATA (2.5-0.0m)
Scanpts: 217, 224, 759, 770
Stim. (mA)     	Amp. (mV)
MS.1           	25.5           	7.283
MS.2           	25.5           	7.299
MS.3           	25.397         	7.293
MS.4           	25.347         	7.287
MS.5           	25.297         	7.287
MS.6           	25.245         	7.289
MS.7           	25.195         	7.295
MS.8           	25.145         	7.291
MS.9           	25.095         	7.295
MS.10          	25.045         	7.297
MS.11          	24.995         	7.301
MS.12          	24.945         	7.301
MS.13          	24.895         	7.299
MS.14          	24.845         	7.293
MS.15          	24.795         	7.297
MS.16          	24.747         	7.291
MS.17          	24.698         	7.299
MS.18          	24.647         	7.311
MS.19          	24.597         	7.303
MS.20          	24.55          	7.307
MS.21          	24.5           	7.311
MS.22          	24.45          	7.311
MS.23          	24.403         	7.301
MS.24          	24.352         	7.315
MS.25          	24.305         	7.305
MS.26          	24.257         	7.317
MS.27          	24.207         	7.311
MS.28          	24.16          	7.315
MS.29          	24.11          	7.317
MS.30          	24.062         	7.319
MS.31          	24.015         	7.332
MS.32          	23.967         	7.315
MS.33          	23.92          	7.309
MS.34          	23.87          	7.323
MS.35          	23.823         	7.323
MS.36          	23.775         	7.321
MS.37          	23.727         	7.321
MS.38          	23.68          	7.321
MS.39          	23.632         	7.315
MS.40          	23.587         	7.315
MS.41          	23.54          	7.323
MS.42          	23.493         	7.33
MS.43          	23.445         	7.328
MS.44          	23.397         	7.326
MS.45          	23.352         	7.319
MS.46          	23.305         	7.334
MS.47          	23.257         	7.323
MS.48          	23.212         	7.326
MS.49          	23.165         	7.336
MS.50          	23.12          	7.358
MS.51          	23.073         	7.344
MS.52          	23.028         	7.334
MS.53          	22.98          	7.34
MS.54          	22.935         	7.35
MS.55          	22.89          	7.346
MS.56          	22.842         	7.34
MS.57          	22.797         	7.352
MS.58          	22.752         	7.35
MS.59          	22.707         	7.35
MS.60          	22.663         	7.348
MS.61          	22.618         	7.358
MS.62          	22.57          	7.352
MS.63          	22.525         	7.34
MS.64          	22.48          	7.354
MS.65          	22.435         	7.352
MS.66          	22.392         	7.36
MS.67          	22.347         	7.356
MS.68          	22.302         	7.344
MS.69          	22.257         	7.348
MS.70          	22.212         	7.354
MS.71          	22.167         	7.336
MS.72          	22.125         	7.356
MS.73          	22.08          	7.346
MS.74          	22.035         	7.338
MS.75          	21.993         	7.342
MS.76          	21.948         	7.336
MS.77          	21.905         	7.348
MS.78          	21.86          	7.332
MS.79          	21.817         	7.342
MS.80          	21.772         	7.348
MS.81          	21.73          	7.346
MS.82          	21.685         	7.334
MS.83          	21.642         	7.346
MS.84          	21.6           	7.352
MS.85          	21.557         	7.344
MS.86          	21.512         	7.346
MS.87          	21.47          	7.348
MS.88          	21.427         	7.338
MS.89          	21.385         	7.34
MS.90          	21.342         	7.358
MS.91          	21.3           	7.352
MS.92          	21.257         	7.35
MS.93          	21.215         	7.336
MS.94          	21.172         	7.336
MS.95          	21.13          	7.34
MS.96          	21.087         	7.35
MS.97          	21.045         	7.336
MS.98          	21.002         	7.332
MS.99          	20.96          	7.336
MS.100         	20.92          	7.344
MS.101         	20.877         	7.336
MS.102         	20.835         	7.344
MS.103         	20.795         	7.34
MS.104         	20.752         	7.34
MS.105         	20.71          	7.336
MS.106         	20.67          	7.33
MS.107         	20.627         	7.334
MS.108         	20.587         	7.326
MS.109         	20.545         	7.315
MS.110         	20.505         	7.326
MS.111         	20.465         	7.323
MS.112         	20.422         	7.321
MS.113         	20.382         	7.33
MS.114         	20.342         	7.321
MS.115         	20.3           	7.326
MS.116         	20.26          	7.338
MS.117         	20.22          	7.334
MS.118         	20.18          	7.33
MS.119         	20.14          	7.326
MS.120         	20.1           	7.332
MS.121         	20.06          	7.309
MS.122         	20.02          	7.328
MS.123         	19.98          	7.299
MS.124         	19.94          	7.313
MS.125         	19.9           	7.301
MS.126         	19.86          	7.307
MS.127         	19.82          	7.307
MS.128         	19.78          	7.305
MS.129         	19.74          	7.328
MS.130         	19.7           	7.305
MS.131         	19.663         	7.315
MS.132         	19.622         	7.305
MS.133         	19.583         	7.307
MS.134         	19.545         	7.305
MS.135         	19.505         	7.303
MS.136         	19.465         	7.309
MS.137         	19.427         	7.303
MS.138         	19.387         	7.317
MS.139         	19.35          	7.303
MS.140         	19.31          	7.303
MS.141         	19.272         	7.297
MS.142         	19.235         	7.307
MS.143         	19.195         	7.305
MS.144         	19.157         	7.233
MS.145         	19.12          	7.241
MS.146         	19.08          	7.297
MS.147         	19.042         	7.293
MS.148         	19.005         	7.231
MS.149         	18.967         	7.297
MS.150         	18.927         	7.225
MS.151         	18.89          	7.223
MS.152         	18.852         	7.299
MS.153         	18.815         	7.229
MS.154         	18.778         	7.225
MS.155         	18.74          	7.291
MS.156         	18.702         	7.225
MS.157         	18.665         	7.215
MS.158         	18.628         	7.213
MS.159         	18.59          	7.199
MS.160         	18.555         	7.219
MS.161         	18.517         	7.221
MS.162         	18.48          	7.237
MS.163         	18.442         	7.231
MS.164         	18.405         	7.215
MS.165         	18.37          	7.217
MS.166         	18.333         	7.207
MS.167         	18.295         	7.213
MS.168         	18.26          	7.235
MS.169         	18.222         	7.217
MS.170         	18.188         	7.217
MS.171         	18.15          	7.229
MS.172         	18.115         	7.211
MS.173         	18.077         	7.221
MS.174         	18.042         	7.235
MS.175         	18.005         	7.223
MS.176         	17.97          	7.225
MS.177         	17.932         	7.219
MS.178         	17.897         	7.199
MS.179         	17.862         	7.221
MS.180         	17.827         	7.241
MS.181         	17.79          	7.219
MS.182         	17.755         	7.223
MS.183         	17.72          	7.217
MS.184         	17.685         	7.213
MS.185         	17.65          	7.229
MS.186         	17.612         	7.221
MS.187         	17.577         	7.225
MS.188         	17.542         	7.221
MS.189         	17.507         	7.207
MS.190         	17.472         	7.221
MS.191         	17.438         	7.223
MS.192         	17.403         	7.227
MS.193         	17.37          	7.233
MS.194         	17.335         	7.245
MS.195         	17.3           	7.233
MS.196         	17.265         	7.245
MS.197         	17.23          	7.245
MS.198         	17.195         	7.261
MS.199         	17.163         	7.245
MS.200         	17.128         	7.255
MS.201         	17.092         	7.253
MS.202         	17.06          	7.257
MS.203         	17.025         	7.261
MS.204         	16.99          	7.251
MS.205         	16.958         	7.255
MS.206         	16.922         	7.251
MS.207         	16.89          	7.251
MS.208         	16.855         	7.239
MS.209         	16.823         	7.257
MS.210         	16.788         	7.255
MS.211         	16.755         	7.249
MS.212         	16.72          	7.261
MS.213         	16.688         	7.271
MS.214         	16.655         	7.263
MS.215         	16.62          	7.255
MS.216         	16.587         	7.247
MS.217         	16.555         	7.267
MS.218         	16.522         	7.261
MS.219         	16.487         	7.263
MS.220         	16.455         	7.257
MS.221         	16.422         	7.243
MS.222         	16.39          	7.265
MS.223         	16.358         	7.255
MS.224         	16.325         	7.265
MS.225         	16.292         	7.255
MS.226         	16.26          	7.249
MS.227         	16.227         	7.263
MS.228         	16.195         	7.263
MS.229         	16.163         	7.261
MS.230         	16.13          	7.257
MS.231         	16.097         	7.259
MS.232         	16.065         	7.269
MS.233         	16.032         	7.253
MS.234         	16.003         	7.253
MS.235         	15.97          	7.251
MS.236         	15.938         	7.269
MS.237         	15.905         	7.257
MS.238         	15.875         	7.259
MS.239         	15.842         	7.249
MS.240         	15.81          	7.257
MS.241         	15.78          	7.267
MS.242         	15.747         	7.259
MS.243         	15.715         	7.269
MS.244         	15.685         	7.259
MS.245         	15.652         	7.251
MS.246         	15.622         	7.263
MS.247         	15.59          	7.261
MS.248         	15.56          	7.267
MS.249         	15.527         	7.271
MS.250         	15.497         	7.257
MS.251         	15.467         	7.271
MS.252         	15.435         	7.259
MS.253         	15.405         	7.271
MS.254         	15.375         	7.267
MS.255         	15.342         	7.271
MS.256         	15.312         	7.271
MS.257         	15.282         	7.261
MS.258         	15.252         	7.267
MS.259         	15.22          	7.269
MS.260         	15.19          	7.263
MS.261         	15.16          	7.263
MS.262         	15.13          	7.257
MS.263         	15.1           	7.249
MS.264         	15.07          	7.249
MS.265         	15.04          	7.257
MS.266         	15.01          	7.259
MS.267         	14.98          	7.265
MS.268         	14.95          	7.257
MS.269         	14.92          	7.265
MS.270         	14.89          	7.281
MS.271         	14.86          	7.263
MS.272         	14.83          	7.271
MS.273         	14.8           	7.261
MS.274         	14.77          	7.283
MS.275         	14.742         	7.168
MS.276         	14.712         	7.255
MS.277         	14.682         	7.279
MS.278         	14.652         	7.271
MS.279         	14.625         	7.287
MS.280         	14.595         	7.275
MS.281         	14.565         	6.739
MS.282         	14.537         	7.229
MS.283         	14.507         	7.309
MS.284         	14.477         	7.285
MS.285         	14.45          	6.625
MS.286         	14.42          	7.293
MS.287         	14.392         	6.741
MS.288         	14.362         	7.112
MS.289         	14.335         	6.584
MS.290         	14.305         	6.586
MS.291         	14.278         	6.596
MS.292         	14.25          	6.534
MS.293         	14.22          	6.693
MS.294         	14.193         	7.088
MS.295         	14.162         	6.758
MS.296         	14.135         	6.679
MS.297         	14.108         	6.61
MS.298         	14.08          	7.122
MS.299         	14.05          	6.544
MS.300         	14.023         	6.548
MS.301         	13.995         	7.054
MS.302         	13.967         	6.538
MS.303         	13.94          	6.57
MS.304         	13.91          	6.58
MS.305         	13.882         	6.56
MS.306         	13.855         	6.504
MS.307         	13.827         	6.478
MS.308         	13.8           	6.498
MS.309         	13.773         	6.524
MS.310         	13.745         	6.363
MS.311         	13.717         	6.546
MS.312         	13.69          	6.512
MS.313         	13.662         	6.343
MS.314         	13.635         	6.494
MS.315         	13.608         	6.52
MS.316         	13.58          	6.504
MS.317         	13.555         	6.502
MS.318         	13.528         	6.474
MS.319         	13.5           	6.484
MS.320         	13.472         	6.391
MS.321         	13.445         	6.353
MS.322         	13.42          	6.397
MS.323         	13.392         	6.367
MS.324         	13.365         	6.349
MS.325         	13.34          	6.377
MS.326         	13.312         	6.22
MS.327         	13.285         	6.365
MS.328         	13.26          	6.512
MS.329         	13.233         	6.018
MS.330         	13.205         	6.175
MS.331         	13.18          	6.179
MS.332         	13.153         	6.032
MS.333         	13.127         	6.373
MS.334         	13.1           	6.143
MS.335         	13.075         	6.018
MS.336         	13.047         	6.129
MS.337         	13.023         	6.125
MS.338         	12.997         	6.188
MS.339         	12.97          	6.23
MS.340         	12.945         	6.175
MS.341         	12.917         	6.183
MS.342         	12.892         	6.049
MS.343         	12.867         	6.026
MS.344         	12.842         	6.014
MS.345         	12.815         	6.04
MS.346         	12.79          	5.855
MS.347         	12.765         	5.781
MS.348         	12.74          	5.978
MS.349         	12.712         	5.803
MS.350         	12.688         	5.837
MS.351         	12.662         	5.771
MS.352         	12.637         	5.821
MS.353         	12.613         	5.752
MS.354         	12.587         	5.499
MS.355         	12.562         	5.97
MS.356         	12.537         	5.525
MS.357         	12.512         	5.771
MS.358         	12.488         	5.38
MS.359         	12.462         	5.491
MS.360         	12.438         	5.509
MS.361         	12.412         	5.783
MS.362         	12.387         	5.265
MS.363         	12.363         	5.356
MS.364         	12.337         	5.325
MS.365         	12.312         	5.36
MS.366         	12.287         	5.003
MS.367         	12.265         	5.047
MS.368         	12.24          	5.078
MS.369         	12.215         	5.054
MS.370         	12.19          	5.124
MS.371         	12.167         	5.031
MS.372         	12.142         	6.042
MS.373         	12.117         	5.327
MS.374         	12.092         	5.017
MS.375         	12.07          	5.203
MS.376         	12.045         	5.013
MS.377         	12.02          	5.106
MS.378         	11.997         	4.927
MS.379         	11.972         	4.792
MS.380         	11.95          	5.217
MS.381         	11.925         	4.874
MS.382         	11.903         	4.937
MS.383         	11.877         	4.774
MS.384         	11.855         	4.814
MS.385         	11.83          	4.923
MS.386         	11.807         	4.84
MS.387         	11.782         	4.766
MS.388         	11.76          	4.804
MS.389         	11.735         	4.969
MS.390         	11.712         	4.9
MS.391         	11.69          	4.691
MS.392         	11.665         	4.888
MS.393         	11.642         	4.886
MS.394         	11.62          	4.659
MS.395         	11.595         	4.62
MS.396         	11.572         	4.685
MS.397         	11.55          	4.58
MS.398         	11.528         	4.772
MS.399         	11.505         	4.586
MS.400         	11.48          	4.55
MS.401         	11.457         	4.433
MS.402         	11.435         	4.691
MS.403         	11.412         	4.296
MS.404         	11.39          	4.459
MS.405         	11.367         	4.405
MS.406         	11.345         	4.51
MS.407         	11.32          	4.393
MS.408         	11.297         	4.312
MS.409         	11.275         	4.292
MS.410         	11.252         	4.173
MS.411         	11.23          	3.775
MS.412         	11.207         	4.099
MS.413         	11.185         	4.214
MS.414         	11.165         	4.191
MS.415         	11.142         	4.189
MS.416         	11.12          	4.085
MS.417         	11.097         	3.593
MS.418         	11.075         	3.511
MS.419         	11.052         	3.932
MS.420         	11.03          	3.907
MS.421         	11.007         	4.026
MS.422         	10.988         	3.513
MS.423         	10.965         	3.644
MS.424         	10.943         	3.533
MS.425         	10.92          	3.388
MS.426         	10.9           	3.499
MS.427         	10.877         	3.819
MS.428         	10.855         	3.402
MS.429         	10.835         	3.243
MS.430         	10.812         	3.348
MS.431         	10.79          	3.297
MS.432         	10.77          	3.728
MS.433         	10.747         	3.17
MS.434         	10.725         	2.882
MS.435         	10.705         	3.194
MS.436         	10.682         	2.816
MS.437         	10.662         	2.679
MS.438         	10.64          	2.921
MS.439         	10.62          	2.842
MS.440         	10.597         	3.001
MS.441         	10.577         	3.108
MS.442         	10.555         	2.8
MS.443         	10.535         	2.536
MS.444         	10.512         	2.753
MS.445         	10.492         	2.433
MS.446         	10.472         	2.584
MS.447         	10.45          	2.683
MS.448         	10.43          	2.608
MS.449         	10.41          	2.524
MS.450         	10.387         	2.715
MS.451         	10.367         	2.528
MS.452         	10.347         	2.099
MS.453         	10.325         	2.191
MS.454         	10.305         	1.976
MS.455         	10.285         	2.002
MS.456         	10.265         	2.361
MS.457         	10.245         	2.079
MS.458         	10.222         	2.121
MS.459         	10.202         	2.065
MS.460         	10.182         	2.115
MS.461         	10.162         	2.089
MS.462         	10.142         	2.113
MS.463         	10.122         	1.948
MS.464         	10.102         	1.825
MS.465         	10.08          	2.046
MS.466         	10.06          	2.067
MS.467         	10.04          	1.736
MS.468         	10.02          	1.543
MS.469         	10             	1.66
MS.470         	9.98           	1.732
MS.471         	9.96           	1.539
MS.472         	9.94           	1.662
MS.473         	9.92           	1.67
MS.474         	9.903          	1.454
MS.475         	9.882          	1.452
MS.476         	9.863          	1.382
MS.477         	9.842          	1.531
MS.478         	9.823          	1.474
MS.479         	9.802          	1.424
MS.480         	9.782          	1.45
MS.481         	9.762          	1.384
MS.482         	9.745          	1.38
MS.483         	9.725          	1.416
MS.484         	9.705          	1.196
MS.485         	9.685          	1.349
MS.486         	9.667          	1.388
MS.487         	9.648          	1.202
MS.488         	9.627          	1.456
MS.489         	9.608          	1.166
MS.490         	9.59           	1.043
MS.491         	9.57           	1.206
MS.492         	9.552          	1.178
MS.493         	9.532          	1.12
MS.494         	9.512          	1.015
MS.495         	9.495          	1.122
MS.496         	9.475          	1.011
MS.497         	9.455          	0.955
MS.498         	9.438          	0.878
MS.499         	9.417          	1.027
MS.500         	9.4            	1.076
MS.501         	9.38           	0.87
