File:              	C:\Qtrac\Data\Daniel M Sørensen\MScan multicentre study\Data from centres\Aarhus\Processed data\DMSB91202A (2).QZD
Name:              	DK.AAR.NC.11.1
Protocol:          	MSCAN-R2
Date:              	2/12/19
Start time:        	14:46:14
Age:               	80
Sex:               	f
Temperature:       	35,5
S/R sites:         	APB
NC/disease:        	Controle
Operator:          	DS
Comments:          	Obs alder
M-SCAN DATA (12.1-4.7m)
Scanpts: 42, 53, 494, 517
Stim. (mA)     	Amp. (mV)
MS.1           	26             	5.797
MS.2           	26             	5.803
MS.3           	26             	5.777
MS.4           	26             	5.752
MS.5           	26             	5.769
MS.6           	26             	5.775
MS.7           	26             	5.815
MS.8           	26             	5.811
MS.9           	26             	5.829
MS.10          	26             	5.839
MS.11          	26             	5.849
MS.12          	26             	5.855
MS.13          	26             	5.815
MS.14          	26             	5.837
MS.15          	26             	5.863
MS.16          	26             	5.809
MS.17          	26             	5.861
MS.18          	26             	5.843
MS.19          	26             	5.865
MS.20          	26             	5.849
MS.21          	26             	5.861
MS.22          	26             	5.849
MS.23          	26             	5.871
MS.24          	25.845         	5.859
MS.25          	25.792         	5.855
MS.26          	25.74          	5.847
MS.27          	25.69          	5.936
MS.28          	25.637         	5.871
MS.29          	25.587         	5.887
MS.30          	25.535         	5.879
MS.31          	25.485         	5.897
MS.32          	25.435         	5.912
MS.33          	25.382         	5.879
MS.34          	25.332         	5.901
MS.35          	25.282         	5.912
MS.36          	25.233         	5.922
MS.37          	25.18          	5.912
MS.38          	25.13          	5.946
MS.39          	25.08          	5.938
MS.40          	25.03          	5.974
MS.41          	24.98          	5.887
MS.42          	24.93          	5.936
MS.43          	24.88          	5.938
MS.44          	24.83          	5.924
MS.45          	24.782         	5.916
MS.46          	24.733         	5.924
MS.47          	24.682         	5.899
MS.48          	24.632         	5.942
MS.49          	24.585         	5.926
MS.50          	24.535         	5.91
MS.51          	24.485         	5.924
MS.52          	24.438         	5.93
MS.53          	24.387         	5.92
MS.54          	24.34          	5.92
MS.55          	24.29          	5.936
MS.56          	24.243         	5.871
MS.57          	24.192         	5.906
MS.58          	24.145         	5.891
MS.59          	24.097         	5.867
MS.60          	24.05          	5.908
MS.61          	24             	5.901
MS.62          	23.952         	5.887
MS.63          	23.905         	5.881
MS.64          	23.858         	5.867
MS.65          	23.81          	5.897
MS.66          	23.762         	5.91
MS.67          	23.715         	5.857
MS.68          	23.667         	5.885
MS.69          	23.62          	5.863
MS.70          	23.573         	5.881
MS.71          	23.525         	5.92
MS.72          	23.477         	5.853
MS.73          	23.432         	5.93
MS.74          	23.385         	5.924
MS.75          	23.337         	5.91
MS.76          	23.292         	5.845
MS.77          	23.245         	5.932
MS.78          	23.198         	5.863
MS.79          	23.153         	5.831
MS.80          	23.105         	5.855
MS.81          	23.06          	5.922
MS.82          	23.015         	5.855
MS.83          	22.967         	5.885
MS.84          	22.922         	5.875
MS.85          	22.875         	5.773
MS.86          	22.83          	5.839
MS.87          	22.785         	5.863
MS.88          	22.74          	5.837
MS.89          	22.695         	5.748
MS.90          	22.647         	5.817
MS.91          	22.602         	5.748
MS.92          	22.557         	5.738
MS.93          	22.512         	5.748
MS.94          	22.467         	5.839
MS.95          	22.422         	5.839
MS.96          	22.377         	5.754
MS.97          	22.332         	5.726
MS.98          	22.29          	5.72
MS.99          	22.245         	5.813
MS.100         	22.2           	5.718
MS.101         	22.155         	5.748
MS.102         	22.112         	5.769
MS.103         	22.067         	5.748
MS.104         	22.022         	5.758
MS.105         	21.98          	5.718
MS.106         	21.935         	5.734
MS.107         	21.892         	5.71
MS.108         	21.847         	5.744
MS.109         	21.805         	5.724
MS.110         	21.76          	5.75
MS.111         	21.717         	5.795
MS.112         	21.672         	5.744
MS.113         	21.63          	5.702
MS.114         	21.587         	5.716
MS.115         	21.545         	5.728
MS.116         	21.5           	5.7
MS.117         	21.458         	5.706
MS.118         	21.415         	5.726
MS.119         	21.372         	5.71
MS.120         	21.33          	5.722
MS.121         	21.288         	5.71
MS.122         	21.245         	5.71
MS.123         	21.202         	5.73
MS.124         	21.16          	5.7
MS.125         	21.118         	5.734
MS.126         	21.075         	5.712
MS.127         	21.032         	5.716
MS.128         	20.99          	5.714
MS.129         	20.95          	5.71
MS.130         	20.907         	5.72
MS.131         	20.865         	5.726
MS.132         	20.823         	5.716
MS.133         	20.782         	5.728
MS.134         	20.74          	5.72
MS.135         	20.7           	5.73
MS.136         	20.657         	5.714
MS.137         	20.618         	5.708
MS.138         	20.575         	5.716
MS.139         	20.535         	5.718
MS.140         	20.493         	5.726
MS.141         	20.452         	5.728
MS.142         	20.413         	5.738
MS.143         	20.37          	5.726
MS.144         	20.33          	5.763
MS.145         	20.29          	5.724
MS.146         	20.247         	5.732
MS.147         	20.208         	5.736
MS.148         	20.167         	5.74
MS.149         	20.127         	5.728
MS.150         	20.087         	5.748
MS.151         	20.047         	5.734
MS.152         	20.007         	5.742
MS.153         	19.967         	5.734
MS.154         	19.927         	5.724
MS.155         	19.887         	5.75
MS.156         	19.847         	5.728
MS.157         	19.807         	5.734
MS.158         	19.767         	5.744
MS.159         	19.73          	5.75
MS.160         	19.69          	5.742
MS.161         	19.65          	5.742
MS.162         	19.61          	5.736
MS.163         	19.573         	5.742
MS.164         	19.532         	5.736
MS.165         	19.493         	5.718
MS.166         	19.455         	5.738
MS.167         	19.415         	5.734
MS.168         	19.377         	5.734
MS.169         	19.337         	5.728
MS.170         	19.3           	5.744
MS.171         	19.26          	5.758
MS.172         	19.222         	5.756
MS.173         	19.185         	5.758
MS.174         	19.145         	5.746
MS.175         	19.108         	5.756
MS.176         	19.07          	5.72
MS.177         	19.032         	5.732
MS.178         	18.993         	5.732
MS.179         	18.955         	5.728
MS.180         	18.917         	5.73
MS.181         	18.88          	5.72
MS.182         	18.842         	5.724
MS.183         	18.805         	5.738
MS.184         	18.767         	5.728
MS.185         	18.73          	5.728
MS.186         	18.692         	5.726
MS.187         	18.655         	5.728
MS.188         	18.618         	5.73
MS.189         	18.58          	5.704
MS.190         	18.542         	5.716
MS.191         	18.505         	5.68
MS.192         	18.47          	5.7
MS.193         	18.432         	5.71
MS.194         	18.395         	5.69
MS.195         	18.358         	5.71
MS.196         	18.323         	5.698
MS.197         	18.285         	5.676
MS.198         	18.247         	5.692
MS.199         	18.212         	5.684
MS.200         	18.175         	5.692
MS.201         	18.14          	5.682
MS.202         	18.102         	5.658
MS.203         	18.067         	5.648
MS.204         	18.03          	5.672
MS.205         	17.995         	5.692
MS.206         	17.96          	5.682
MS.207         	17.922         	5.664
MS.208         	17.887         	5.662
MS.209         	17.852         	5.66
MS.210         	17.815         	5.666
MS.211         	17.78          	5.672
MS.212         	17.745         	5.698
MS.213         	17.71          	5.644
MS.214         	17.675         	5.644
MS.215         	17.637         	5.66
MS.216         	17.602         	5.66
MS.217         	17.567         	5.65
MS.218         	17.532         	5.65
MS.219         	17.497         	5.656
MS.220         	17.462         	5.646
MS.221         	17.427         	5.658
MS.222         	17.392         	5.65
MS.223         	17.358         	5.583
MS.224         	17.325         	5.668
MS.225         	17.29          	5.601
MS.226         	17.255         	5.658
MS.227         	17.22          	5.66
MS.228         	17.185         	5.658
MS.229         	17.153         	5.666
MS.230         	17.118         	5.652
MS.231         	17.083         	5.603
MS.232         	17.05          	5.597
MS.233         	17.015         	5.593
MS.234         	16.98          	5.607
MS.235         	16.948         	5.462
MS.236         	16.913         	5.601
MS.237         	16.88          	5.595
MS.238         	16.845         	5.384
MS.239         	16.812         	5.448
MS.240         	16.778         	5.456
MS.241         	16.745         	5.39
MS.242         	16.712         	5.374
MS.243         	16.677         	5.38
MS.244         	16.645         	5.567
MS.245         	16.612         	5.384
MS.246         	16.577         	5.37
MS.247         	16.545         	5.384
MS.248         	16.512         	5.577
MS.249         	16.48          	5.333
MS.250         	16.445         	5.404
MS.251         	16.413         	5.35
MS.252         	16.38          	5.39
MS.253         	16.347         	5.4
MS.254         	16.315         	5.386
MS.255         	16.282         	5.388
MS.256         	16.25          	5.402
MS.257         	16.217         	5.398
MS.258         	16.185         	5.36
MS.259         	16.153         	5.342
MS.260         	16.12          	5.342
MS.261         	16.087         	5.35
MS.262         	16.055         	5.348
MS.263         	16.025         	5.338
MS.264         	15.992         	5.331
MS.265         	15.96          	5.333
MS.266         	15.927         	5.35
MS.267         	15.898         	5.394
MS.268         	15.865         	5.348
MS.269         	15.832         	5.293
MS.270         	15.802         	5.331
MS.271         	15.77          	5.309
MS.272         	15.737         	5.346
MS.273         	15.707         	5.293
MS.274         	15.675         	5.249
MS.275         	15.645         	5.213
MS.276         	15.612         	5.299
MS.277         	15.582         	5.128
MS.278         	15.55          	5.221
MS.279         	15.52          	5.211
MS.280         	15.487         	5.249
MS.281         	15.457         	4.906
MS.282         	15.427         	4.965
MS.283         	15.395         	5.019
MS.284         	15.365         	5.116
MS.285         	15.335         	5.148
MS.286         	15.302         	5.06
MS.287         	15.273         	4.997
MS.288         	15.242         	4.945
MS.289         	15.212         	5.041
MS.290         	15.182         	4.884
MS.291         	15.152         	4.945
MS.292         	15.12          	4.902
MS.293         	15.09          	4.896
MS.294         	15.06          	5.1
MS.295         	15.03          	4.852
MS.296         	15             	4.844
MS.297         	14.97          	4.786
MS.298         	14.94          	4.792
MS.299         	14.91          	4.794
MS.300         	14.88          	4.776
MS.301         	14.852         	4.846
MS.302         	14.822         	4.786
MS.303         	14.792         	4.85
MS.304         	14.762         	4.721
MS.305         	14.733         	4.725
MS.306         	14.702         	4.703
MS.307         	14.675         	4.685
MS.308         	14.645         	4.689
MS.309         	14.615         	4.345
MS.310         	14.587         	4.719
MS.311         	14.557         	4.673
MS.312         	14.527         	4.711
MS.313         	14.5           	4.675
MS.314         	14.47          	4.258
MS.315         	14.443         	4.598
MS.316         	14.412         	4.461
MS.317         	14.382         	4.093
MS.318         	14.355         	4.449
MS.319         	14.325         	4.506
MS.320         	14.297         	4.004
MS.321         	14.27          	4.129
MS.322         	14.24          	4.437
MS.323         	14.212         	4.479
MS.324         	14.182         	3.926
MS.325         	14.155         	4.04
MS.326         	14.127         	4.099
MS.327         	14.1           	3.984
MS.328         	14.07          	4.063
MS.329         	14.042         	3.93
MS.330         	14.015         	3.974
MS.331         	13.987         	3.926
MS.332         	13.957         	3.94
MS.333         	13.93          	3.867
MS.334         	13.903         	3.877
MS.335         	13.875         	3.881
MS.336         	13.847         	3.791
MS.337         	13.82          	3.795
MS.338         	13.792         	3.817
MS.339         	13.765         	3.71
MS.340         	13.737         	3.7
MS.341         	13.71          	3.615
MS.342         	13.682         	3.521
MS.343         	13.655         	3.466
MS.344         	13.627         	3.599
MS.345         	13.6           	3.444
MS.346         	13.572         	3.567
MS.347         	13.545         	3.559
MS.348         	13.52          	3.4
MS.349         	13.492         	3.384
MS.350         	13.465         	3.404
MS.351         	13.438         	3.482
MS.352         	13.41          	3.376
MS.353         	13.385         	3.43
MS.354         	13.358         	3.019
MS.355         	13.33          	2.973
MS.356         	13.305         	2.941
MS.357         	13.278         	2.796
MS.358         	13.252         	3.152
MS.359         	13.225         	3.051
MS.360         	13.197         	2.804
MS.361         	13.172         	2.951
MS.362         	13.145         	2.953
MS.363         	13.12          	2.79
MS.364         	13.092         	2.892
MS.365         	13.068         	2.649
MS.366         	13.04          	2.679
MS.367         	13.015         	2.57
MS.368         	12.99          	2.608
MS.369         	12.962         	2.63
MS.370         	12.938         	2.794
MS.371         	12.91          	2.566
MS.372         	12.885         	2.572
MS.373         	12.86          	2.538
MS.374         	12.835         	2.564
MS.375         	12.807         	1.996
MS.376         	12.782         	2.572
MS.377         	12.757         	2.59
MS.378         	12.733         	2.538
MS.379         	12.705         	2.532
MS.380         	12.68          	2.59
MS.381         	12.655         	1.994
MS.382         	12.63          	2.022
MS.383         	12.605         	2.137
MS.384         	12.58          	2.187
MS.385         	12.555         	1.869
MS.386         	12.53          	2.24
MS.387         	12.505         	1.901
MS.388         	12.48          	2.282
MS.389         	12.455         	1.905
MS.390         	12.43          	1.472
MS.391         	12.405         	1.917
MS.392         	12.38          	1.746
MS.393         	12.355         	1.819
MS.394         	12.33          	1.432
MS.395         	12.305         	1.408
MS.396         	12.282         	1.388
MS.397         	12.257         	1.382
MS.398         	12.233         	1.343
MS.399         	12.207         	1.362
MS.400         	12.182         	1.392
MS.401         	12.16          	1.476
MS.402         	12.135         	1.263
MS.403         	12.11          	0.955
MS.404         	12.087         	1.271
MS.405         	12.062         	0.945
MS.406         	12.037         	0.973
MS.407         	12.015         	1.194
MS.408         	11.99          	1.041
MS.409         	11.967         	1.206
MS.410         	11.943         	0.697
MS.411         	11.917         	0.719
MS.412         	11.895         	0.89
MS.413         	11.87          	0.568
MS.414         	11.847         	0.578
MS.415         	11.822         	0.717
MS.416         	11.8           	0.493
MS.417         	11.778         	0.479
MS.418         	11.752         	0.401
MS.419         	11.73          	0.514
MS.420         	11.705         	0.369
MS.421         	11.682         	0.361
MS.422         	11.66          	0.415
MS.423         	11.635         	0.318
MS.424         	11.613         	0.35
MS.425         	11.59          	0.421
MS.426         	11.568         	0.377
MS.427         	11.542         	0.363
MS.428         	11.52          	0.324
MS.429         	11.497         	0.214
MS.430         	11.475         	0.326
MS.431         	11.45          	0.226
MS.432         	11.427         	0.266
MS.433         	11.405         	0.332
MS.434         	11.382         	0.201
MS.435         	11.36          	0.308
MS.436         	11.337         	0.224
MS.437         	11.315         	0.191
MS.438         	11.292         	0.359
MS.439         	11.27          	0.117
MS.440         	11.247         	0.131
MS.441         	11.225         	0.244
MS.442         	11.202         	0.195
MS.443         	11.18          	0.151
MS.444         	11.157         	0.121
MS.445         	11.135         	0.141
MS.446         	11.113         	0.075
MS.447         	11.09          	0.137
MS.448         	11.068         	0.087
MS.449         	11.047         	0.105
MS.450         	11.025         	0.133
MS.451         	11.002         	0.068
MS.452         	10.98          	0.117
MS.453         	10.957         	0.143
MS.454         	10.938         	0.139
MS.455         	10.915         	0.042
MS.456         	10.892         	0.105
MS.457         	10.87          	0.135
MS.458         	10.85          	0.145
MS.459         	10.827         	0.044
MS.460         	10.805         	0.077
MS.461         	10.785         	0.109
MS.462         	10.762         	0.07
MS.463         	10.742         	0.099
MS.464         	10.72          	0.07
MS.465         	10.698         	0.125
MS.466         	10.677         	0.062
MS.467         	10.655         	0.07
MS.468         	10.635         	0.036
MS.469         	10.613         	0.044
MS.470         	10.592         	0.046
MS.471         	10.57          	0.01
MS.472         	10.55          	0.012
MS.473         	10.528         	0.036
MS.474         	10.507         	0.046
MS.475         	10.488         	0.02
MS.476         	10.465         	0.048
MS.477         	10.445         	0.02
MS.478         	10.425         	0.02
MS.479         	10.403         	0.024
MS.480         	10.382         	0.02
MS.481         	10.363         	0.02
MS.482         	10.34          	0.016
MS.483         	10.32          	0.022
MS.484         	10.3           	0.026
MS.485         	10.28          	0.026
MS.486         	10.257         	0.018
MS.487         	10.238         	0.024
MS.488         	10.217         	0.012
MS.489         	10.198         	0.02
MS.490         	10.177         	0.026
MS.491         	10.157         	0.01
MS.492         	10.135         	0.014
MS.493         	10.115         	0.018
MS.494         	10.095         	0.024
MS.495         	10.075         	0.016
MS.496         	10.055         	0.018
MS.497         	10.035         	0.01
MS.498         	10.015         	0.022
MS.499         	9.995          	0.01
MS.500         	9.975          	0.01
MS.501         	9.955          	0.018
