File:              	C:\Qtrac\Data\Daniel M Sørensen\MScan multicentre study\Data from centres\Aarhus\Processed data\DMSB91218A.QZD
Name:              	DK.AAR.NC.9.2
Protocol:          	MSCAN-R2
Date:              	18/12/19
Start time:        	09:07:08
Age:               	74
Sex:               	m
Temperature:       	32,6
S/R sites:         	APB
NC/disease:        	Control
Operator:          	DS
Comments:
M-SCAN DATA (7.4-1.8m)
Scanpts: 16, 28, 563, 588
Stim. (mA)     	Amp. (mV)
MS.1           	31.5           	15.974
MS.2           	31.5           	16.009
MS.3           	31.5           	15.992
MS.4           	31.5           	15.976
MS.5           	31.5           	15.95
MS.6           	31.5           	15.956
MS.7           	31.5           	16.005
MS.8           	31.5           	15.99
MS.9           	31.5           	15.982
MS.10          	31.5           	15.982
MS.11          	31.5           	15.976
MS.12          	31.5           	15.942
MS.13          	31.5           	15.958
MS.14          	31.5           	15.97
MS.15          	31.5           	15.972
MS.16          	31.5           	15.956
MS.17          	31.5           	15.964
MS.18          	31.5           	15.988
MS.19          	31.5           	15.99
MS.20          	31.5           	15.986
MS.21          	31.5           	16.009
MS.22          	31.5           	15.976
MS.23          	31.5           	16.037
MS.24          	31.375         	15.938
MS.25          	31.312         	15.948
MS.26          	31.25          	15.968
MS.27          	31.188         	15.936
MS.28          	31.125         	15.928
MS.29          	31.062         	15.922
MS.30          	31             	15.928
MS.31          	30.938         	15.93
MS.32          	30.875         	15.99
MS.33          	30.815         	15.936
MS.34          	30.752         	15.92
MS.35          	30.692         	15.942
MS.36          	30.63          	15.96
MS.37          	30.57          	15.97
MS.38          	30.507         	15.934
MS.39          	30.448         	15.93
MS.40          	30.385         	15.962
MS.41          	30.325         	15.91
MS.42          	30.265         	15.892
MS.43          	30.205         	15.888
MS.44          	30.145         	15.902
MS.45          	30.082         	15.89
MS.46          	30.022         	15.89
MS.47          	29.962         	15.87
MS.48          	29.903         	15.892
MS.49          	29.845         	15.872
MS.50          	29.785         	15.866
MS.51          	29.725         	15.868
MS.52          	29.665         	15.872
MS.53          	29.605         	15.872
MS.54          	29.547         	15.87
MS.55          	29.487         	15.922
MS.56          	29.43          	15.884
MS.57          	29.37          	15.918
MS.58          	29.312         	15.862
MS.59          	29.252         	15.868
MS.60          	29.195         	15.857
MS.61          	29.137         	15.857
MS.62          	29.077         	15.882
MS.63          	29.02          	15.853
MS.64          	28.962         	15.857
MS.65          	28.905         	15.827
MS.66          	28.847         	15.833
MS.67          	28.787         	15.797
MS.68          	28.73          	15.833
MS.69          	28.675         	15.807
MS.70          	28.618         	15.795
MS.71          	28.56          	15.847
MS.72          	28.502         	15.807
MS.73          	28.445         	15.837
MS.74          	28.387         	15.841
MS.75          	28.332         	15.777
MS.76          	28.275         	15.759
MS.77          	28.217         	15.765
MS.78          	28.162         	15.755
MS.79          	28.105         	15.745
MS.80          	28.05          	15.739
MS.81          	27.995         	15.773
MS.82          	27.938         	15.745
MS.83          	27.882         	15.694
MS.84          	27.827         	15.67
MS.85          	27.77          	15.678
MS.86          	27.715         	15.646
MS.87          	27.66          	15.654
MS.88          	27.605         	15.578
MS.89          	27.55          	15.646
MS.90          	27.495         	15.606
MS.91          	27.44          	15.555
MS.92          	27.385         	15.541
MS.93          	27.33          	15.582
MS.94          	27.275         	15.559
MS.95          	27.22          	15.219
MS.96          	27.167         	15.557
MS.97          	27.112         	15.662
MS.98          	27.057         	15.68
MS.99          	27.005         	15.187
MS.100         	26.95          	15.569
MS.101         	26.895         	15.243
MS.102         	26.842         	15.257
MS.103         	26.79          	15.217
MS.104         	26.735         	15.569
MS.105         	26.682         	15.205
MS.106         	26.627         	15.505
MS.107         	26.575         	15.191
MS.108         	26.522         	15.185
MS.109         	26.47          	15.177
MS.110         	26.417         	15.231
MS.111         	26.362         	15.203
MS.112         	26.31          	15.179
MS.113         	26.257         	15.108
MS.114         	26.205         	15.136
MS.115         	26.153         	15.132
MS.116         	26.102         	15.094
MS.117         	26.05          	15.126
MS.118         	25.997         	15.167
MS.119         	25.945         	15.082
MS.120         	25.892         	14.83
MS.121         	25.842         	15.157
MS.122         	25.79          	15.148
MS.123         	25.737         	15.165
MS.124         	25.688         	15.005
MS.125         	25.635         	15.116
MS.126         	25.585         	14.985
MS.127         	25.532         	14.905
MS.128         	25.483         	15.197
MS.129         	25.432         	15.106
MS.130         	25.38          	15.195
MS.131         	25.33          	15.161
MS.132         	25.28          	14.921
MS.133         	25.227         	15.068
MS.134         	25.177         	14.858
MS.135         	25.127         	14.804
MS.136         	25.077         	15.054
MS.137         	25.028         	14.975
MS.138         	24.977         	15.028
MS.139         	24.927         	14.991
MS.140         	24.877         	14.768
MS.141         	24.827         	14.867
MS.142         	24.778         	14.583
MS.143         	24.73          	14.581
MS.144         	24.68          	14.766
MS.145         	24.63          	14.78
MS.146         	24.58          	14.947
MS.147         	24.532         	14.76
MS.148         	24.483         	14.774
MS.149         	24.435         	14.74
MS.150         	24.385         	14.54
MS.151         	24.337         	14.538
MS.152         	24.288         	14.74
MS.153         	24.24          	14.522
MS.154         	24.19          	14.532
MS.155         	24.142         	14.562
MS.156         	24.095         	14.462
MS.157         	24.047         	14.514
MS.158         	23.997         	14.5
MS.159         	23.95          	14.508
MS.160         	23.903         	14.429
MS.161         	23.855         	14.438
MS.162         	23.807         	14.484
MS.163         	23.76          	14.486
MS.164         	23.712         	14.373
MS.165         	23.665         	14.542
MS.166         	23.618         	14.472
MS.167         	23.57          	14.427
MS.168         	23.522         	14.51
MS.169         	23.475         	14.419
MS.170         	23.43          	14.365
MS.171         	23.382         	14.431
MS.172         	23.335         	14.373
MS.173         	23.29          	14.468
MS.174         	23.243         	14.476
MS.175         	23.195         	14.486
MS.176         	23.15          	14.409
MS.177         	23.102         	14.343
MS.178         	23.057         	14.361
MS.179         	23.01          	14.309
MS.180         	22.965         	14.331
MS.181         	22.92          	14.321
MS.182         	22.872         	14.28
MS.183         	22.827         	14.387
MS.184         	22.782         	14.256
MS.185         	22.737         	14.288
MS.186         	22.692         	14.166
MS.187         	22.645         	14.133
MS.188         	22.6           	14.26
MS.189         	22.555         	14.176
MS.190         	22.51          	14.23
MS.191         	22.465         	14.218
MS.192         	22.42          	14.17
MS.193         	22.375         	14.168
MS.194         	22.33          	14.103
MS.195         	22.288         	13.978
MS.196         	22.243         	13.934
MS.197         	22.198         	13.914
MS.198         	22.153         	13.982
MS.199         	22.11          	13.823
MS.200         	22.065         	13.847
MS.201         	22.02          	13.606
MS.202         	21.977         	13.775
MS.203         	21.932         	13.763
MS.204         	21.89          	13.449
MS.205         	21.845         	13.15
MS.206         	21.802         	13.477
MS.207         	21.757         	13.07
MS.208         	21.715         	13.497
MS.209         	21.67          	13.557
MS.210         	21.627         	12.967
MS.211         	21.585         	13.376
MS.212         	21.542         	12.74
MS.213         	21.497         	13.285
MS.214         	21.455         	12.677
MS.215         	21.413         	13.058
MS.216         	21.37          	11.946
MS.217         	21.327         	12.417
MS.218         	21.285         	12.206
MS.219         	21.243         	11.988
MS.220         	21.2           	12.204
MS.221         	21.157         	12.113
MS.222         	21.115         	12.149
MS.223         	21.073         	11.728
MS.224         	21.03          	11.863
MS.225         	20.987         	11.755
MS.226         	20.948         	11.801
MS.227         	20.905         	12.131
MS.228         	20.862         	12.117
MS.229         	20.823         	11.918
MS.230         	20.78          	11.156
MS.231         	20.737         	11.718
MS.232         	20.698         	11.62
MS.233         	20.655         	11.062
MS.234         	20.615         	10.677
MS.235         	20.573         	10.623
MS.236         	20.532         	10.784
MS.237         	20.49          	10.637
MS.238         	20.45          	10.407
MS.239         	20.41          	10.671
MS.240         	20.368         	10.127
MS.241         	20.327         	10.216
MS.242         	20.288         	10.476
MS.243         	20.247         	10.518
MS.244         	20.205         	9.992
MS.245         	20.165         	10.365
MS.246         	20.125         	10.935
MS.247         	20.085         	10.196
MS.248         	20.045         	9.972
MS.249         	20.005         	9.881
MS.250         	19.965         	9.632
MS.251         	19.925         	9.918
MS.252         	19.885         	9.394
MS.253         	19.845         	9.471
MS.254         	19.805         	9.352
MS.255         	19.767         	9.533
MS.256         	19.727         	9.37
MS.257         	19.688         	9.046
MS.258         	19.647         	9.243
MS.259         	19.61          	8.629
MS.260         	19.57          	8.294
MS.261         	19.53          	9.025
MS.262         	19.493         	8.157
MS.263         	19.452         	8.369
MS.264         	19.415         	8.204
MS.265         	19.375         	7.861
MS.266         	19.337         	8.228
MS.267         	19.297         	8.22
MS.268         	19.26          	8.073
MS.269         	19.22          	7.43
MS.270         	19.182         	8.385
MS.271         	19.145         	7.769
MS.272         	19.105         	7.271
MS.273         	19.067         	7.346
MS.274         	19.03          	7.358
MS.275         	18.993         	7.243
MS.276         	18.952         	7.321
MS.277         	18.915         	6.818
MS.278         	18.877         	7.279
MS.279         	18.84          	6.685
MS.280         	18.802         	6.758
MS.281         	18.765         	6.331
MS.282         	18.727         	6.121
MS.283         	18.69          	6.623
MS.284         	18.653         	6.212
MS.285         	18.615         	5.875
MS.286         	18.577         	6.109
MS.287         	18.54          	5.849
MS.288         	18.505         	5.458
MS.289         	18.467         	5.706
MS.290         	18.43          	5.364
MS.291         	18.392         	5.837
MS.292         	18.358         	5.315
MS.293         	18.32          	5.245
MS.294         	18.282         	4.977
MS.295         	18.247         	4.77
MS.296         	18.21          	5.146
MS.297         	18.175         	4.848
MS.298         	18.137         	4.643
MS.299         	18.102         	5.037
MS.300         	18.065         	4.306
MS.301         	18.03          	4.788
MS.302         	17.993         	4.163
MS.303         	17.958         	4.256
MS.304         	17.92          	4.306
MS.305         	17.885         	4.059
MS.306         	17.85          	4.556
MS.307         	17.815         	4.264
MS.308         	17.778         	4.26
MS.309         	17.743         	3.944
MS.310         	17.708         	3.682
MS.311         	17.672         	3.841
MS.312         	17.637         	3.668
MS.313         	17.602         	3.511
MS.314         	17.567         	3.67
MS.315         	17.53          	3.964
MS.316         	17.495         	3.46
MS.317         	17.46          	3.66
MS.318         	17.427         	3.587
MS.319         	17.392         	3.39
MS.320         	17.358         	3.42
MS.321         	17.323         	2.707
MS.322         	17.288         	2.78
MS.323         	17.253         	2.963
MS.324         	17.217         	2.796
MS.325         	17.185         	2.56
MS.326         	17.15          	2.61
MS.327         	17.115         	2.403
MS.328         	17.083         	3.102
MS.329         	17.047         	2.655
MS.330         	17.012         	2.459
MS.331         	16.98          	2.427
MS.332         	16.945         	2.582
MS.333         	16.913         	2.413
MS.334         	16.878         	2.258
MS.335         	16.845         	2.421
MS.336         	16.81          	2.183
MS.337         	16.778         	2.179
MS.338         	16.743         	2.014
MS.339         	16.71          	2.067
MS.340         	16.675         	2.139
MS.341         	16.642         	2.101
MS.342         	16.61          	1.915
MS.343         	16.577         	2.038
MS.344         	16.542         	1.913
MS.345         	16.51          	1.94
MS.346         	16.477         	1.956
MS.347         	16.445         	1.795
MS.348         	16.413         	1.944
MS.349         	16.378         	1.678
MS.350         	16.345         	1.317
MS.351         	16.312         	1.635
MS.352         	16.28          	1.791
MS.353         	16.247         	1.676
MS.354         	16.215         	1.672
MS.355         	16.182         	1.563
MS.356         	16.15          	1.625
MS.357         	16.118         	1.14
MS.358         	16.087         	1.18
MS.359         	16.055         	1.555
MS.360         	16.022         	1.255
MS.361         	15.99          	1.331
MS.362         	15.957         	1.325
MS.363         	15.927         	1.055
MS.364         	15.895         	1.065
MS.365         	15.862         	0.989
MS.366         	15.83          	1.031
MS.367         	15.8           	1.001
MS.368         	15.767         	1.299
MS.369         	15.737         	1.1
MS.370         	15.705         	0.62
MS.371         	15.672         	0.977
MS.372         	15.642         	0.542
MS.373         	15.61          	0.475
MS.374         	15.58          	0.495
MS.375         	15.55          	0.854
MS.376         	15.517         	0.288
MS.377         	15.487         	0.717
MS.378         	15.455         	0.562
MS.379         	15.425         	0.363
MS.380         	15.395         	0.548
MS.381         	15.362         	0.34
MS.382         	15.332         	0.526
MS.383         	15.302         	0.316
MS.384         	15.273         	0.493
MS.385         	15.24          	0.661
MS.386         	15.21          	0.667
MS.387         	15.18          	0.403
MS.388         	15.15          	0.32
MS.389         	15.12          	0.344
MS.390         	15.09          	0.302
MS.391         	15.06          	0.463
MS.392         	15.03          	0.288
MS.393         	15             	0.254
MS.394         	14.97          	0.26
MS.395         	14.94          	0.397
MS.396         	14.91          	0.262
MS.397         	14.88          	0.272
MS.398         	14.85          	0.25
MS.399         	14.82          	0.234
MS.400         	14.79          	0.246
MS.401         	14.76          	0.256
MS.402         	14.733         	0.246
MS.403         	14.702         	0.226
MS.404         	14.672         	0.224
MS.405         	14.642         	0.232
MS.406         	14.615         	0.254
MS.407         	14.585         	0.268
MS.408         	14.555         	0.163
MS.409         	14.527         	0.228
MS.410         	14.497         	0.226
MS.411         	14.467         	0.226
MS.412         	14.44          	0.169
MS.413         	14.41          	0.226
MS.414         	14.382         	0.228
MS.415         	14.352         	0.24
MS.416         	14.325         	0.211
MS.417         	14.295         	0.238
MS.418         	14.267         	0.232
MS.419         	14.24          	0.207
MS.420         	14.21          	0.165
MS.421         	14.182         	0.23
MS.422         	14.155         	0.137
MS.423         	14.125         	0.216
MS.424         	14.097         	0.157
MS.425         	14.07          	0.218
MS.426         	14.04          	0.216
MS.427         	14.012         	0.165
MS.428         	13.985         	0.151
MS.429         	13.957         	0.214
MS.430         	13.93          	0.149
MS.431         	13.903         	0.145
MS.432         	13.872         	0.139
MS.433         	13.845         	0.147
MS.434         	13.818         	0.149
MS.435         	13.79          	0.141
MS.436         	13.762         	0.143
MS.437         	13.735         	0.143
MS.438         	13.707         	0.22
MS.439         	13.68          	0.143
MS.440         	13.653         	0.139
MS.441         	13.625         	0.143
MS.442         	13.6           	0.133
MS.443         	13.572         	0.141
MS.444         	13.545         	0.125
MS.445         	13.517         	0.141
MS.446         	13.49          	0.149
MS.447         	13.462         	0.133
MS.448         	13.438         	0.109
MS.449         	13.41          	0.149
MS.450         	13.382         	0.131
MS.451         	13.355         	0.129
MS.452         	13.33          	0.133
MS.453         	13.302         	0.095
MS.454         	13.278         	0.133
MS.455         	13.25          	0.129
MS.456         	13.222         	0.131
MS.457         	13.197         	0.093
MS.458         	13.17          	0.109
MS.459         	13.145         	0.135
MS.460         	13.117         	0.135
MS.461         	13.092         	0.101
MS.462         	13.065         	0.091
MS.463         	13.04          	0.141
MS.464         	13.012         	0.099
MS.465         	12.987         	0.103
MS.466         	12.962         	0.147
MS.467         	12.935         	0.131
MS.468         	12.91          	0.139
MS.469         	12.885         	0.101
MS.470         	12.858         	0.143
MS.471         	12.832         	0.139
MS.472         	12.807         	0.117
MS.473         	12.782         	0.095
MS.474         	12.755         	0.137
MS.475         	12.73          	0.147
MS.476         	12.705         	0.095
MS.477         	12.68          	0.095
MS.478         	12.655         	0.135
MS.479         	12.63          	0.095
MS.480         	12.602         	0.137
MS.481         	12.577         	0.095
MS.482         	12.552         	0.093
MS.483         	12.528         	0.103
MS.484         	12.502         	0.099
MS.485         	12.477         	0.093
MS.486         	12.452         	0.097
MS.487         	12.427         	0.105
MS.488         	12.403         	0.101
MS.489         	12.38          	0.095
MS.490         	12.355         	0.103
MS.491         	12.33          	0.105
MS.492         	12.305         	0.095
MS.493         	12.28          	0.089
MS.494         	12.255         	0.091
MS.495         	12.23          	0.101
