File:              	C:\Qtrac\Data\Daniel M Sørensen\MScan multicentre study\Data from centres\Aarhus\Processed data\DMSC00902B.QZD
Name:              	DK.AAR.NC.7.1
Protocol:          	MSCAN-R2
Date:              	2/9/20
Start time:        	14:51:01
Age:               	65
Sex:               	m
Temperature:       	34,8
S/R sites:         	APB
NC/disease:        	NC
Operator:          	DS
Comments:
M-SCAN DATA (4.9-1.8m)
Scanpts: 97, 104, 339, 361
Stim. (mA)     	Amp. (mV)
MS.1           	14             	2.024
MS.2           	14             	2.031
MS.3           	14             	2.021
MS.4           	14             	2.062
MS.5           	14             	2.008
MS.6           	14             	2.018
MS.7           	14             	2.018
MS.8           	14             	2.002
MS.9           	14             	1.993
MS.10          	14             	2.005
MS.11          	14             	2.001
MS.12          	14             	2.004
MS.13          	14             	1.994
MS.14          	14             	1.992
MS.15          	14             	1.989
MS.16          	14             	1.999
MS.17          	14             	1.989
MS.18          	14             	1.989
MS.19          	14             	1.988
MS.20          	14             	1.989
MS.21          	14             	1.982
MS.22          	14             	1.987
MS.23          	14             	2.066
MS.24          	13.945         	1.99
MS.25          	13.915         	2.009
MS.26          	13.887         	2.047
MS.27          	13.86          	2.007
MS.28          	13.832         	1.993
MS.29          	13.805         	2.002
MS.30          	13.778         	1.993
MS.31          	13.75          	2.061
MS.32          	13.722         	2.017
MS.33          	13.695         	1.991
MS.34          	13.667         	2.009
MS.35          	13.64          	2.026
MS.36          	13.612         	2.001
MS.37          	13.585         	2.011
MS.38          	13.56          	1.994
MS.39          	13.532         	2.003
MS.40          	13.505         	2.027
MS.41          	13.477         	2.025
MS.42          	13.45          	2.016
MS.43          	13.425         	2.005
MS.44          	13.398         	2.021
MS.45          	13.37          	2.026
MS.46          	13.345         	2.031
MS.47          	13.318         	2.033
MS.48          	13.29          	2.03
MS.49          	13.265         	2.036
MS.50          	13.237         	2.028
MS.51          	13.21          	2.034
MS.52          	13.185         	2.039
MS.53          	13.157         	2.041
MS.54          	13.132         	2.035
MS.55          	13.105         	2.023
MS.56          	13.08          	2.046
MS.57          	13.052         	2.045
MS.58          	13.028         	2.036
MS.59          	13.002         	2.037
MS.60          	12.975         	2.042
MS.61          	12.95          	2.036
MS.62          	12.922         	2.047
MS.63          	12.898         	2.04
MS.64          	12.872         	2.05
MS.65          	12.847         	2.035
MS.66          	12.82          	2.042
MS.67          	12.795         	2.039
MS.68          	12.77          	2.043
MS.69          	12.745         	2.043
MS.70          	12.717         	2.031
MS.71          	12.693         	2.047
MS.72          	12.667         	2.051
MS.73          	12.642         	2.044
MS.74          	12.617         	2.046
MS.75          	12.592         	2.041
MS.76          	12.568         	1.982
MS.77          	12.542         	2.055
MS.78          	12.517         	2.048
MS.79          	12.492         	2.045
MS.80          	12.467         	2.024
MS.81          	12.443         	2.043
MS.82          	12.417         	2.038
MS.83          	12.392         	2.033
MS.84          	12.367         	2.045
MS.85          	12.342         	2.057
MS.86          	12.318         	2.039
MS.87          	12.292         	2.025
MS.88          	12.267         	2.037
MS.89          	12.245         	2.056
MS.90          	12.22          	2.055
MS.91          	12.195         	2.048
MS.92          	12.17          	2.04
MS.93          	12.148         	2.045
MS.94          	12.122         	2.042
MS.95          	12.097         	2.052
MS.96          	12.075         	2.041
MS.97          	12.05          	2.038
MS.98          	12.025         	2.053
MS.99          	12.002         	2.052
MS.100         	11.977         	2.041
MS.101         	11.955         	2.047
MS.102         	11.93          	2.037
MS.103         	11.905         	2.045
MS.104         	11.882         	2.042
MS.105         	11.858         	2.048
MS.106         	11.835         	2.051
MS.107         	11.812         	2.051
MS.108         	11.787         	2.051
MS.109         	11.765         	1.996
MS.110         	11.74          	2.055
MS.111         	11.717         	2.053
MS.112         	11.693         	2.053
MS.113         	11.67          	2.052
MS.114         	11.648         	1.985
MS.115         	11.625         	2.053
MS.116         	11.6           	2.052
MS.117         	11.577         	2.054
MS.118         	11.555         	2.055
MS.119         	11.53          	2.046
MS.120         	11.507         	1.978
MS.121         	11.485         	2.051
MS.122         	11.462         	2.054
MS.123         	11.44          	1.997
MS.124         	11.417         	1.962
MS.125         	11.392         	1.851
MS.126         	11.37          	1.907
MS.127         	11.347         	1.855
MS.128         	11.325         	1.862
MS.129         	11.302         	1.788
MS.130         	11.28          	1.746
MS.131         	11.257         	1.775
MS.132         	11.235         	1.663
MS.133         	11.212         	1.792
MS.134         	11.19          	1.467
MS.135         	11.167         	1.565
MS.136         	11.145         	1.424
MS.137         	11.122         	1.68
MS.138         	11.1           	1.396
MS.139         	11.08          	1.262
MS.140         	11.057         	1.505
MS.141         	11.035         	1.232
MS.142         	11.012         	1.421
MS.143         	10.99          	1.122
MS.144         	10.97          	1.31
MS.145         	10.948         	1.026
MS.146         	10.925         	1.194
MS.147         	10.903         	1.145
MS.148         	10.882         	1.356
MS.149         	10.86          	1.021
MS.150         	10.837         	0.955
MS.151         	10.818         	1.041
MS.152         	10.795         	0.987
MS.153         	10.773         	0.905
MS.154         	10.752         	0.957
MS.155         	10.73          	0.899
MS.156         	10.707         	0.892
MS.157         	10.688         	0.734
MS.158         	10.665         	0.841
MS.159         	10.645         	0.614
MS.160         	10.622         	0.884
MS.161         	10.602         	0.796
MS.162         	10.58          	1.009
MS.163         	10.56          	0.513
MS.164         	10.537         	0.771
MS.165         	10.517         	0.81
MS.166         	10.497         	0.688
MS.167         	10.475         	0.598
MS.168         	10.455         	0.683
MS.169         	10.435         	0.682
MS.170         	10.412         	0.456
MS.171         	10.392         	0.579
MS.172         	10.372         	0.425
MS.173         	10.35          	0.418
MS.174         	10.33          	0.403
MS.175         	10.31          	0.395
MS.176         	10.29          	0.41
MS.177         	10.267         	0.332
MS.178         	10.247         	0.322
MS.179         	10.227         	0.378
MS.180         	10.207         	0.311
MS.181         	10.188         	0.316
MS.182         	10.165         	0.316
MS.183         	10.145         	0.329
MS.184         	10.125         	0.299
MS.185         	10.105         	0.329
MS.186         	10.085         	0.295
MS.187         	10.065         	0.298
MS.188         	10.045         	0.299
MS.189         	10.025         	0.304
MS.190         	10.005         	0.23
MS.191         	9.985          	0.296
MS.192         	9.965          	0.278
MS.193         	9.945          	0.279
MS.194         	9.925          	0.253
MS.195         	9.905          	0.304
MS.196         	9.885          	0.256
MS.197         	9.865          	0.296
MS.198         	9.845          	0.24
MS.199         	9.825          	0.296
MS.200         	9.807          	0.25
MS.201         	9.787          	0.266
MS.202         	9.767          	0.233
MS.203         	9.747          	0.203
MS.204         	9.727          	0.222
MS.205         	9.71           	0.234
MS.206         	9.69           	0.213
MS.207         	9.67           	0.221
MS.208         	9.65           	0.236
MS.209         	9.632          	0.28
MS.210         	9.613          	0.248
MS.211         	9.592          	0.217
MS.212         	9.575          	0.225
MS.213         	9.555          	0.229
MS.214         	9.535          	0.185
MS.215         	9.517          	0.219
MS.216         	9.497          	0.221
MS.217         	9.48           	0.215
MS.218         	9.46           	0.223
MS.219         	9.44           	0.216
MS.220         	9.422          	0.205
MS.221         	9.403          	0.207
MS.222         	9.385          	0.206
MS.223         	9.365          	0.214
MS.224         	9.347          	0.107
MS.225         	9.327          	0.172
MS.226         	9.31           	0.207
MS.227         	9.29           	0.173
MS.228         	9.273          	0.181
MS.229         	9.255          	0.103
MS.230         	9.235          	0.105
MS.231         	9.217          	0.174
MS.232         	9.198          	0.108
MS.233         	9.18           	0.162
MS.234         	9.162          	0.102
MS.235         	9.142          	0.103
MS.236         	9.125          	0.105
MS.237         	9.108          	0.105
MS.238         	9.09           	0.104
MS.239         	9.07           	0.103
MS.240         	9.052          	0.101
MS.241         	9.035          	0.103
MS.242         	9.017          	0.105
MS.243         	8.997          	0.097
MS.244         	8.98           	0.094
MS.245         	8.962          	0.101
MS.246         	8.945          	0.094
MS.247         	8.927          	0.1
MS.248         	8.91           	0.105
MS.249         	8.89           	0.094
MS.250         	8.872          	0.103
MS.251         	8.855          	0.094
MS.252         	8.837          	0.096
MS.253         	8.82           	0.097
MS.254         	8.802          	0.093
MS.255         	8.785          	0.095
MS.256         	8.767          	0.093
MS.257         	8.75           	0.098
MS.258         	8.733          	0.094
MS.259         	8.715          	0.091
MS.260         	8.698          	0.093
MS.261         	8.68           	0.093
MS.262         	8.662          	0.095
MS.263         	8.645          	0.093
MS.264         	8.627          	0.095
MS.265         	8.61           	0.094
MS.266         	8.595          	0.095
MS.267         	8.577          	0.095
MS.268         	8.56           	0.095
MS.269         	8.542          	0.093
MS.270         	8.525          	0.094
MS.271         	8.507          	0.097
MS.272         	8.492          	0.097
MS.273         	8.475          	0.093
MS.274         	8.457          	0.096
MS.275         	8.44           	0.092
MS.276         	8.422          	0.095
MS.277         	8.408          	0.094
MS.278         	8.39           	0.024
MS.279         	8.372          	0.096
MS.280         	8.358          	0.095
MS.281         	8.34           	0.097
MS.282         	8.323          	0.026
MS.283         	8.307          	0.096
MS.284         	8.29           	0.096
MS.285         	8.273          	0.026
MS.286         	8.257          	0.095
MS.287         	8.24           	0.094
MS.288         	8.225          	0.093
MS.289         	8.207          	0.094
MS.290         	8.19           	0.094
MS.291         	8.175          	0.096
MS.292         	8.158          	0.026
MS.293         	8.142          	0.095
MS.294         	8.125          	0.025
MS.295         	8.11           	0.025
MS.296         	8.092          	0.095
MS.297         	8.077          	0.095
MS.298         	8.06           	0.026
MS.299         	8.045          	0.026
MS.300         	8.03           	0.025
MS.301         	8.012          	0.024
MS.302         	7.997          	0.025
MS.303         	7.98           	0.026
MS.304         	7.965          	0.027
MS.305         	7.95           	0.025
MS.306         	7.932          	0.025
MS.307         	7.918          	0.022
MS.308         	7.902          	0.023
MS.309         	7.885          	0.024
MS.310         	7.87           	0.024
MS.311         	7.855          	0.026
MS.312         	7.837          	0.026
MS.313         	7.822          	0.027
MS.314         	7.807          	0.026
MS.315         	7.793          	0.026
MS.316         	7.775          	0.027
MS.317         	7.76           	0.026
MS.318         	7.745          	0.025
MS.319         	7.73           	0.026
MS.320         	7.715          	0.024
MS.321         	7.697          	0.026
MS.322         	7.682          	0.027
MS.323         	7.668          	0.027
MS.324         	7.652          	0.025
MS.325         	7.637          	0.025
MS.326         	7.622          	0.026
MS.327         	7.607          	0.026
MS.328         	7.592          	0.023
MS.329         	7.577          	0.024
MS.330         	7.562          	0.025
MS.331         	7.547          	0.026
MS.332         	7.53           	0.027
MS.333         	7.515          	0.03
MS.334         	7.5            	0.026
MS.335         	7.485          	0.027
MS.336         	7.47           	0.027
MS.337         	7.457          	0.027
MS.338         	7.442          	0.025
MS.339         	7.427          	0.027
MS.340         	7.412          	0.027
MS.341         	7.398          	0.028
MS.342         	7.382          	0.028
MS.343         	7.367          	0.029
MS.344         	7.352          	0.028
MS.345         	7.337          	0.028
MS.346         	7.322          	0.028
MS.347         	7.307          	0.027
MS.348         	7.295          	0.028
MS.349         	7.28           	0.028
MS.350         	7.265          	0.03
MS.351         	7.25           	0.029
MS.352         	7.235          	0.027
MS.353         	7.222          	0.028
MS.354         	7.207          	0.028
MS.355         	7.192          	0.028
MS.356         	7.177          	0.027
MS.357         	7.165          	0.026
MS.358         	7.15           	0.028
MS.359         	7.135          	0.028
MS.360         	7.12           	0.025
MS.361         	7.108          	0.031
DERIVED EXCITABILITY VARIABLES
Program = QTracP 9/10/2021
Threshold method = 6 (optimised for CAP, using data for present condition only)
SR method = 1 (using actual data values)
6.                 	0.000               	Peak response\(µV)
9.                 	34                  	Temperature ( C)
17.                	65                  	Age (years)
18.                	1                   	Sex (M=1, F=2)

EXTRA VARIABLES

MScPeak(mV) = 1.976
MScS5(mA) = 8.93
MScS50(mA) = 10.73
MScS95(mA) = 11.38
MScNSteps = 8
MScSteps(%) = 26.2
MScStepMax(%) = 5
MScD50 = 18
MScSlope = 14.77
MScDuration(min) = 3.1
MSFTraces = 265
MSFPeakAmp(mV) = 2.02
MSFNUnits = 48
MSFMeanUnitAmp(uV) = 42
MSFHuntTime(m) = 1.88
MSFError(%) = 2.59
MSFNLarge = 10.49
MSFMedianAmp(%) = 1.44
MSFMedianAmp(mV) = 0.029
MSFHalfAmpAmp(%) = 3.2
MSFHalfAmpAmp(mV) = 0.0645
MSFLargestAmp(%) = 10.2
MSFLargestAmp(mV) = 0.205
MSFMeanRS(%) = 1.99
MSFSizeLimit(uV) = 8.4
MSFLimitType = 3
MSFSmallestAmp(uV) = 9.13
MSFOpts = 10106121

EXTRA WAVEFORMS


!MScan Model
!48
	1	8.03	0.45	2
	2	8.18	3.29	2
	3	9.11	0.58	2
	4	9.24	1.68	2
	5	9.31	0.91	2
	6	9.38	1.73	2
	7	9.52	1.39	2
	8	9.8	1.39	2
	9	10	1.96	2
	10	10.08	0.59	2
	11	10.15	0.72	2
	12	10.19	0.94	2
	13	10.23	1.15	2
	14	10.25	0.45	2
	15	10.27	0.56	2
	16	10.29	1.03	2
	17	10.33	1.12	2
	18	10.37	3.25	1.6
	19	10.52	1.39	2
	20	10.6	10.17	2
	21	10.69	4.61	2
	22	10.74	1.7	2
	23	10.77	2.68	2
	24	10.82	3.84	2
	25	10.87	4.31	2
	26	10.89	1.12	2
	27	10.95	5.83	2
	28	11.01	4.99	2
	29	11.05	3.2	2
	30	11.07	4.16	2
	31	11.1	3.98	2
	32	11.12	2.03	2
	33	11.15	2	2
	34	11.17	1.53	2
	35	11.17	1.38	2
	36	11.19	0.76	2
	37	11.19	2.29	2
	38	11.21	2.22	2
	39	11.23	1.69	2
	40	11.25	1.69	2
	41	11.26	1.49	2
	42	11.28	1.24	2
	43	11.3	1.35	2
	44	11.32	1.35	2
	45	11.33	1.25	2
	46	11.36	1.23	2
	47	11.37	0.86	2
	48	11.43	0.45	2

