File:              	C:\Qtrac\Data\Daniel M Sørensen\MScan multicentre study\Data from centres\Aarhus\Processed data\DMSC00128A.QZD
Name:              	DK.AAR.NC.4.1
Protocol:          	MSCAN-R2
Date:              	28/1/20
Start time:        	15:59:57
Age:               	52
Sex:               	f
Temperature:       	34,4
S/R sites:         	APB
NC/disease:        	Control
Operator:          	DS
Comments:
M-SCAN DATA (10.3-4.2m)
Scanpts: 198, 214, 633, 654
Stim. (mA)     	Amp. (mV)
MS.1           	19             	12.109
MS.2           	19             	12.105
MS.3           	19             	12.091
MS.4           	19             	12.077
MS.5           	19             	12.061
MS.6           	19             	12.053
MS.7           	19             	12.053
MS.8           	19             	12.047
MS.9           	19             	12.039
MS.10          	19             	12.065
MS.11          	19             	12.101
MS.12          	19             	12.105
MS.13          	19             	12.113
MS.14          	19             	12.137
MS.15          	19             	12.125
MS.16          	19             	12.127
MS.17          	19             	12.125
MS.18          	19             	12.121
MS.19          	19             	12.121
MS.20          	19             	12.125
MS.21          	19             	12.123
MS.22          	19             	12.147
MS.23          	19             	12.178
MS.24          	18.887         	12.135
MS.25          	18.847         	12.117
MS.26          	18.81          	12.097
MS.27          	18.772         	12.095
MS.28          	18.735         	12.091
MS.29          	18.698         	12.085
MS.30          	18.66          	12.079
MS.31          	18.622         	12.077
MS.32          	18.587         	12.065
MS.33          	18.55          	12.051
MS.34          	18.512         	12.061
MS.35          	18.475         	12.069
MS.36          	18.438         	12.065
MS.37          	18.403         	12.037
MS.38          	18.365         	12.045
MS.39          	18.327         	12.049
MS.40          	18.292         	12.051
MS.41          	18.255         	12.047
MS.42          	18.217         	12.049
MS.43          	18.182         	12.059
MS.44          	18.145         	12.047
MS.45          	18.11          	12.053
MS.46          	18.073         	12.047
MS.47          	18.038         	12.049
MS.48          	18             	12.037
MS.49          	17.965         	12.033
MS.50          	17.93          	12.031
MS.51          	17.892         	12.041
MS.52          	17.858         	12.039
MS.53          	17.823         	12.047
MS.54          	17.788         	12.059
MS.55          	17.75          	12.071
MS.56          	17.715         	12.079
MS.57          	17.68          	12.081
MS.58          	17.645         	12.073
MS.59          	17.61          	12.085
MS.60          	17.575         	12.105
MS.61          	17.54          	12.099
MS.62          	17.505         	12.111
MS.63          	17.47          	12.115
MS.64          	17.435         	12.121
MS.65          	17.4           	12.137
MS.66          	17.365         	12.121
MS.67          	17.33          	12.127
MS.68          	17.295         	12.143
MS.69          	17.26          	12.125
MS.70          	17.227         	12.133
MS.71          	17.192         	12.135
MS.72          	17.157         	12.135
MS.73          	17.122         	12.149
MS.74          	17.09          	12.147
MS.75          	17.055         	12.137
MS.76          	17.02          	12.135
MS.77          	16.987         	12.119
MS.78          	16.952         	12.117
MS.79          	16.92          	12.121
MS.80          	16.885         	12.119
MS.81          	16.852         	12.115
MS.82          	16.817         	12.109
MS.83          	16.785         	12.141
MS.84          	16.75          	12.135
MS.85          	16.717         	12.137
MS.86          	16.682         	12.139
MS.87          	16.65          	12.135
MS.88          	16.618         	12.107
MS.89          	16.585         	12.101
MS.90          	16.55          	12.111
MS.91          	16.517         	12.107
MS.92          	16.485         	12.111
MS.93          	16.452         	12.107
MS.94          	16.42          	12.109
MS.95          	16.385         	12.103
MS.96          	16.352         	12.099
MS.97          	16.32          	12.109
MS.98          	16.288         	12.103
MS.99          	16.255         	12.105
MS.100         	16.222         	12.105
MS.101         	16.19          	12.101
MS.102         	16.157         	12.097
MS.103         	16.125         	12.097
MS.104         	16.095         	12.099
MS.105         	16.062         	12.095
MS.106         	16.03          	12.097
MS.107         	15.997         	12.089
MS.108         	15.965         	12.089
MS.109         	15.932         	12.101
MS.110         	15.902         	12.089
MS.111         	15.87          	12.097
MS.112         	15.837         	12.091
MS.113         	15.807         	12.083
MS.114         	15.775         	12.083
MS.115         	15.742         	12.081
MS.116         	15.712         	12.083
MS.117         	15.68          	12.063
MS.118         	15.65          	12.083
MS.119         	15.617         	12.071
MS.120         	15.587         	12.073
MS.121         	15.555         	12.083
MS.122         	15.525         	12.075
MS.123         	15.492         	12.083
MS.124         	15.462         	12.073
MS.125         	15.432         	12.073
MS.126         	15.4           	12.079
MS.127         	15.37          	12.073
MS.128         	15.34          	12.089
MS.129         	15.31          	12.069
MS.130         	15.277         	12.083
MS.131         	15.247         	12.085
MS.132         	15.217         	12.081
MS.133         	15.188         	12.091
MS.134         	15.157         	12.079
MS.135         	15.127         	12.079
MS.136         	15.095         	12.083
MS.137         	15.065         	12.079
MS.138         	15.035         	12.083
MS.139         	15.005         	12.071
MS.140         	14.975         	12.067
MS.141         	14.945         	12.067
MS.142         	14.915         	12.063
MS.143         	14.885         	12.089
MS.144         	14.858         	12.071
MS.145         	14.827         	12.063
MS.146         	14.797         	12.065
MS.147         	14.767         	12.059
MS.148         	14.737         	12.057
MS.149         	14.707         	12.041
MS.150         	14.68          	12.047
MS.151         	14.65          	12.039
MS.152         	14.62          	12.045
MS.153         	14.592         	12.041
MS.154         	14.562         	12.035
MS.155         	14.532         	12.039
MS.156         	14.505         	12.033
MS.157         	14.475         	12.031
MS.158         	14.447         	12.025
MS.159         	14.417         	12.014
MS.160         	14.387         	12.039
MS.161         	14.36          	12.018
MS.162         	14.33          	12.023
MS.163         	14.302         	12.016
MS.164         	14.275         	12.01
MS.165         	14.245         	12.002
MS.166         	14.217         	12
MS.167         	14.188         	11.996
MS.168         	14.16          	11.994
MS.169         	14.132         	11.99
MS.170         	14.102         	11.988
MS.171         	14.075         	11.984
MS.172         	14.047         	11.982
MS.173         	14.02          	11.982
MS.174         	13.992         	11.978
MS.175         	13.962         	11.98
MS.176         	13.935         	11.98
MS.177         	13.907         	11.98
MS.178         	13.88          	11.972
MS.179         	13.852         	11.97
MS.180         	13.825         	11.98
MS.181         	13.797         	11.972
MS.182         	13.77          	11.98
MS.183         	13.742         	11.892
MS.184         	13.715         	11.988
MS.185         	13.688         	11.89
MS.186         	13.66          	11.982
MS.187         	13.632         	11.892
MS.188         	13.605         	11.882
MS.189         	13.577         	11.886
MS.190         	13.55          	11.884
MS.191         	13.523         	11.888
MS.192         	13.497         	11.89
MS.193         	13.47          	11.898
MS.194         	13.443         	11.896
MS.195         	13.415         	11.9
MS.196         	13.39          	11.894
MS.197         	13.362         	11.9
MS.198         	13.335         	11.902
MS.199         	13.31          	11.902
MS.200         	13.282         	11.904
MS.201         	13.255         	11.898
MS.202         	13.23          	11.904
MS.203         	13.202         	11.904
MS.204         	13.177         	11.906
MS.205         	13.15          	11.896
MS.206         	13.125         	11.91
MS.207         	13.097         	11.898
MS.208         	13.072         	11.9
MS.209         	13.045         	11.89
MS.210         	13.02          	11.9
MS.211         	12.992         	11.892
MS.212         	12.967         	11.888
MS.213         	12.943         	11.884
MS.214         	12.915         	11.878
MS.215         	12.89          	11.892
MS.216         	12.865         	11.884
MS.217         	12.837         	11.888
MS.218         	12.812         	11.869
MS.219         	12.787         	11.888
MS.220         	12.762         	11.884
MS.221         	12.735         	11.884
MS.222         	12.71          	11.878
MS.223         	12.685         	11.888
MS.224         	12.66          	11.88
MS.225         	12.635         	11.878
MS.226         	12.61          	11.88
MS.227         	12.585         	11.878
MS.228         	12.56          	11.875
MS.229         	12.535         	11.865
MS.230         	12.51          	11.875
MS.231         	12.485         	11.875
MS.232         	12.46          	11.878
MS.233         	12.435         	11.886
MS.234         	12.41          	11.878
MS.235         	12.385         	11.888
MS.236         	12.36          	11.892
MS.237         	12.335         	11.888
MS.238         	12.31          	11.894
MS.239         	12.285         	11.898
MS.240         	12.26          	11.898
MS.241         	12.238         	11.896
MS.242         	12.212         	11.904
MS.243         	12.188         	11.912
MS.244         	12.162         	11.902
MS.245         	12.14          	11.904
MS.246         	12.115         	11.91
MS.247         	12.09          	11.914
MS.248         	12.068         	11.91
MS.249         	12.042         	11.906
MS.250         	12.017         	11.912
MS.251         	11.995         	11.912
MS.252         	11.97          	11.916
MS.253         	11.947         	11.91
MS.254         	11.922         	11.922
MS.255         	11.9           	11.753
MS.256         	11.875         	11.771
MS.257         	11.852         	11.924
MS.258         	11.827         	11.781
MS.259         	11.805         	11.92
MS.260         	11.78          	11.789
MS.261         	11.757         	11.934
MS.262         	11.733         	11.781
MS.263         	11.71          	11.795
MS.264         	11.688         	11.799
MS.265         	11.662         	11.793
MS.266         	11.64          	11.797
MS.267         	11.617         	11.809
MS.268         	11.592         	11.799
MS.269         	11.57          	11.803
MS.270         	11.547         	11.811
MS.271         	11.525         	11.795
MS.272         	11.5           	11.819
MS.273         	11.477         	11.813
MS.274         	11.455         	11.815
MS.275         	11.432         	11.809
MS.276         	11.41          	11.811
MS.277         	11.387         	11.815
MS.278         	11.365         	11.809
MS.279         	11.34          	11.811
MS.280         	11.318         	11.817
MS.281         	11.295         	11.817
MS.282         	11.273         	11.819
MS.283         	11.25          	11.809
MS.284         	11.227         	11.817
MS.285         	11.205         	11.821
MS.286         	11.182         	11.813
MS.287         	11.16          	11.728
MS.288         	11.14          	11.714
MS.289         	11.117         	11.825
MS.290         	11.095         	11.827
MS.291         	11.073         	11.718
MS.292         	11.05          	11.819
MS.293         	11.028         	11.823
MS.294         	11.005         	11.73
MS.295         	10.985         	11.734
MS.296         	10.962         	11.726
MS.297         	10.94          	11.734
MS.298         	10.917         	11.815
MS.299         	10.898         	11.728
MS.300         	10.875         	11.555
MS.301         	10.852         	11.658
MS.302         	10.83          	11.718
MS.303         	10.81          	11.72
MS.304         	10.787         	11.823
MS.305         	10.767         	11.73
MS.306         	10.745         	11.485
MS.307         	10.722         	11.469
MS.308         	10.702         	11.477
MS.309         	10.68          	11.64
MS.310         	10.66          	11.656
MS.311         	10.637         	11.436
MS.312         	10.617         	11.477
MS.313         	10.595         	11.475
MS.314         	10.575         	11.567
MS.315         	10.552         	11.485
MS.316         	10.532         	11.487
MS.317         	10.51          	11.483
MS.318         	10.49          	11.491
MS.319         	10.47          	11.479
MS.320         	10.448         	11.495
MS.321         	10.427         	11.485
MS.322         	10.407         	11.432
MS.323         	10.385         	11.438
MS.324         	10.365         	11.487
MS.325         	10.345         	11.477
MS.326         	10.323         	11.414
MS.327         	10.302         	11.39
MS.328         	10.282         	11.459
MS.329         	10.262         	11.39
MS.330         	10.242         	11.438
MS.331         	10.22          	11.376
MS.332         	10.2           	11.461
MS.333         	10.18          	11.372
MS.334         	10.16          	11.418
MS.335         	10.14          	11.382
MS.336         	10.12          	11.404
MS.337         	10.1           	11.386
MS.338         	10.08          	11.372
MS.339         	10.057         	11.376
MS.340         	10.037         	11.384
MS.341         	10.017         	11.372
MS.342         	9.997          	11.324
MS.343         	9.977          	11.328
MS.344         	9.957          	11.416
MS.345         	9.938          	11.324
MS.346         	9.92           	11.301
MS.347         	9.9            	11.37
MS.348         	9.88           	11.277
MS.349         	9.86           	11.324
MS.350         	9.84           	11.267
MS.351         	9.82           	10.939
MS.352         	9.8            	11.11
MS.353         	9.78           	10.927
MS.354         	9.762          	11.08
MS.355         	9.742          	10.951
MS.356         	9.722          	10.991
MS.357         	9.702          	10.977
MS.358         	9.682          	10.83
MS.359         	9.665          	10.812
MS.360         	9.645          	10.643
MS.361         	9.625          	10.876
MS.362         	9.608          	10.951
MS.363         	9.587          	10.367
MS.364         	9.568          	10.76
MS.365         	9.55           	10.733
MS.366         	9.53           	10.582
MS.367         	9.51           	10.596
MS.368         	9.492          	10.437
MS.369         	9.472          	10.798
MS.370         	9.455          	10.566
MS.371         	9.435          	9.722
MS.372         	9.415          	10.548
MS.373         	9.398          	9.966
MS.374         	9.377          	9.793
MS.375         	9.36           	9.587
MS.376         	9.34           	9.44
MS.377         	9.323          	9.902
MS.378         	9.305          	9.416
MS.379         	9.285          	9.166
MS.380         	9.267          	9.144
MS.381         	9.247          	9.126
MS.382         	9.23           	9.404
MS.383         	9.212          	9.156
MS.384         	9.193          	8.939
MS.385         	9.175          	9.275
MS.386         	9.155          	9.179
MS.387         	9.137          	8.868
MS.388         	9.12           	8.884
MS.389         	9.102          	8.812
MS.390         	9.082          	8.619
MS.391         	9.065          	8.588
MS.392         	9.047          	8.639
MS.393         	9.03           	8.421
MS.394         	9.01           	8.419
MS.395         	8.992          	8.188
MS.396         	8.975          	8.335
MS.397         	8.957          	8.31
MS.398         	8.94           	8.075
MS.399         	8.92           	8.008
MS.400         	8.903          	8.014
MS.401         	8.885          	7.928
MS.402         	8.867          	7.851
MS.403         	8.85           	7.881
MS.404         	8.832          	7.896
MS.405         	8.815          	7.609
MS.406         	8.797          	7.319
MS.407         	8.78           	7.583
MS.408         	8.762          	7.487
MS.409         	8.745          	7.424
MS.410         	8.727          	7.124
MS.411         	8.71           	7.054
MS.412         	8.693          	6.967
MS.413         	8.675          	7.124
MS.414         	8.658          	7.056
MS.415         	8.64           	6.852
MS.416         	8.622          	6.77
MS.417         	8.605          	7.003
MS.418         	8.587          	6.478
MS.419         	8.573          	6.699
MS.420         	8.555          	6.514
MS.421         	8.537          	6.3
MS.422         	8.52           	6.474
MS.423         	8.502          	5.908
MS.424         	8.485          	6.061
MS.425         	8.47           	5.646
MS.426         	8.452          	6.272
MS.427         	8.435          	5.444
MS.428         	8.417          	5.7
MS.429         	8.403          	5.769
MS.430         	8.385          	5.126
MS.431         	8.367          	5.251
MS.432         	8.352          	5.809
MS.433         	8.335          	5.499
MS.434         	8.318          	5.333
MS.435         	8.302          	5.293
MS.436         	8.285          	5.283
MS.437         	8.267          	4.995
MS.438         	8.252          	4.949
MS.439         	8.235          	4.534
MS.440         	8.22           	4.919
MS.441         	8.202          	4.828
MS.442         	8.185          	4.475
MS.443         	8.17           	4.238
MS.444         	8.153          	4.419
MS.445         	8.137          	4.508
MS.446         	8.12           	4.073
MS.447         	8.105          	3.821
MS.448         	8.087          	4.018
MS.449         	8.073          	3.4
MS.450         	8.055          	3.899
MS.451         	8.04           	3.557
MS.452         	8.025          	3.817
MS.453         	8.007          	3.507
MS.454         	7.992          	3.525
MS.455         	7.975          	3.356
MS.456         	7.96           	3.108
MS.457         	7.945          	3.09
MS.458         	7.927          	2.943
MS.459         	7.912          	2.991
MS.460         	7.898          	2.9
MS.461         	7.88           	2.729
MS.462         	7.865          	3.011
MS.463         	7.85           	2.778
MS.464         	7.832          	2.641
MS.465         	7.817          	2.701
MS.466         	7.802          	2.449
MS.467         	7.787          	2.578
MS.468         	7.773          	2.357
MS.469         	7.755          	2.405
MS.470         	7.74           	2.465
MS.471         	7.725          	2.34
MS.472         	7.71           	2.079
MS.473         	7.695          	1.998
MS.474         	7.677          	2.077
MS.475         	7.662          	1.954
MS.476         	7.648          	1.948
MS.477         	7.632          	2.048
MS.478         	7.617          	1.919
MS.479         	7.602          	1.861
MS.480         	7.587          	1.783
MS.481         	7.572          	1.847
MS.482         	7.557          	1.579
MS.483         	7.543          	1.728
MS.484         	7.527          	1.827
MS.485         	7.512          	1.835
MS.486         	7.497          	1.507
MS.487         	7.482          	1.376
MS.488         	7.467          	1.521
MS.489         	7.452          	1.468
MS.490         	7.438          	1.468
MS.491         	7.422          	1.196
