File:              	C:\Qtrac\Data\Daniel M Sørensen\MScan multicentre study\Data from centres\Aarhus\Processed data\DMSC00225B.QZD
Name:              	DK.AAR.NC.3.1
Protocol:          	MSCAN-R2
Date:              	25/2/20
Start time:        	14:14:13
Age:               	48
Sex:               	m
Temperature:       	35,5
S/R sites:         	APB
NC/disease:        	Control
Operator:          	DS
Comments:          	NB. max stim. OutP=50
M-SCAN DATA (7.5-1.8m)
Scanpts: 16, 28, 580, 587
Stim. (mA)     	Amp. (mV)
MS.1           	19             	11.459
MS.2           	19             	11.493
MS.3           	19             	11.446
MS.4           	19             	11.44
MS.5           	19             	11.44
MS.6           	19             	11.455
MS.7           	19             	11.467
MS.8           	19             	11.485
MS.9           	19             	11.499
MS.10          	19             	11.497
MS.11          	19             	11.521
MS.12          	19             	11.479
MS.13          	19             	11.487
MS.14          	19             	11.479
MS.15          	19             	11.509
MS.16          	19             	11.487
MS.17          	19             	11.487
MS.18          	19             	11.487
MS.19          	19             	11.475
MS.20          	19             	11.493
MS.21          	19             	11.493
MS.22          	19             	11.485
MS.23          	19             	11.503
MS.24          	18.925         	11.475
MS.25          	18.887         	11.491
MS.26          	18.847         	11.495
MS.27          	18.81          	11.497
MS.28          	18.772         	11.485
MS.29          	18.735         	11.511
MS.30          	18.698         	11.491
MS.31          	18.66          	11.491
MS.32          	18.622         	11.495
MS.33          	18.587         	11.499
MS.34          	18.55          	11.493
MS.35          	18.512         	11.495
MS.36          	18.475         	11.491
MS.37          	18.438         	11.507
MS.38          	18.403         	11.495
MS.39          	18.365         	11.495
MS.40          	18.327         	11.513
MS.41          	18.292         	11.509
MS.42          	18.255         	11.501
MS.43          	18.217         	11.495
MS.44          	18.182         	11.418
MS.45          	18.145         	11.414
MS.46          	18.11          	11.501
MS.47          	18.073         	11.501
MS.48          	18.038         	11.487
MS.49          	18             	11.499
MS.50          	17.965         	11.487
MS.51          	17.93          	11.408
MS.52          	17.892         	11.493
MS.53          	17.858         	11.404
MS.54          	17.823         	11.495
MS.55          	17.788         	11.408
MS.56          	17.75          	11.41
MS.57          	17.715         	11.36
MS.58          	17.68          	11.257
MS.59          	17.645         	11.261
MS.60          	17.61          	11.227
MS.61          	17.575         	10.987
MS.62          	17.54          	11.12
MS.63          	17.505         	10.975
MS.64          	17.47          	11.209
MS.65          	17.435         	11.344
MS.66          	17.4           	11.209
MS.67          	17.365         	11.094
MS.68          	17.33          	11.011
MS.69          	17.295         	11.017
MS.70          	17.26          	10.707
MS.71          	17.227         	11.032
MS.72          	17.192         	10.784
MS.73          	17.157         	10.927
MS.74          	17.122         	11.034
MS.75          	17.09          	10.876
MS.76          	17.055         	10.744
MS.77          	17.02          	10.711
MS.78          	16.987         	10.876
MS.79          	16.952         	10.895
MS.80          	16.92          	10.46
MS.81          	16.885         	10.603
MS.82          	16.852         	10.47
MS.83          	16.817         	10.596
MS.84          	16.785         	10.673
MS.85          	16.75          	10.703
MS.86          	16.717         	10.47
MS.87          	16.682         	10.462
MS.88          	16.65          	10.363
MS.89          	16.618         	10.564
MS.90          	16.585         	10.379
MS.91          	16.55          	10.48
MS.92          	16.517         	10.449
MS.93          	16.485         	10.409
MS.94          	16.452         	10.409
MS.95          	16.42          	10.357
MS.96          	16.385         	10.163
MS.97          	16.352         	10.437
MS.98          	16.32          	9.851
MS.99          	16.288         	10.323
MS.100         	16.255         	10.276
MS.101         	16.222         	10.165
MS.102         	16.19          	9.863
MS.103         	16.157         	10.19
MS.104         	16.125         	9.745
MS.105         	16.095         	10.194
MS.106         	16.062         	9.728
MS.107         	16.03          	9.728
MS.108         	15.997         	9.728
MS.109         	15.965         	10.109
MS.110         	15.932         	10.022
MS.111         	15.902         	10.153
MS.112         	15.87          	9.968
MS.113         	15.837         	9.652
MS.114         	15.807         	10.091
MS.115         	15.775         	9.738
MS.116         	15.742         	10.061
MS.117         	15.712         	9.704
MS.118         	15.68          	9.871
MS.119         	15.65          	9.231
MS.120         	15.617         	9.571
MS.121         	15.587         	9.682
MS.122         	15.555         	9.45
MS.123         	15.525         	10.081
MS.124         	15.492         	9.533
MS.125         	15.462         	9.595
MS.126         	15.432         	9.499
MS.127         	15.4           	9.509
MS.128         	15.37          	9.523
MS.129         	15.34          	9.098
MS.130         	15.31          	9.434
MS.131         	15.277         	9.38
MS.132         	15.247         	9.396
MS.133         	15.217         	9.501
MS.134         	15.188         	9.362
MS.135         	15.157         	9.213
MS.136         	15.127         	9.313
MS.137         	15.095         	9.074
MS.138         	15.065         	9.219
MS.139         	15.035         	9.221
MS.140         	15.005         	9.011
MS.141         	14.975         	9.166
MS.142         	14.945         	8.923
MS.143         	14.915         	8.913
MS.144         	14.885         	8.768
MS.145         	14.858         	8.886
MS.146         	14.827         	9.088
MS.147         	14.797         	8.957
MS.148         	14.767         	8.524
MS.149         	14.737         	8.798
MS.150         	14.707         	8.514
MS.151         	14.68          	8.929
MS.152         	14.65          	8.48
MS.153         	14.62          	8.615
MS.154         	14.592         	8.808
MS.155         	14.562         	8.657
MS.156         	14.532         	8.592
MS.157         	14.505         	8.345
MS.158         	14.475         	8.308
MS.159         	14.447         	8.395
MS.160         	14.417         	8.091
MS.161         	14.387         	8.323
MS.162         	14.36          	8.25
MS.163         	14.33          	8.075
MS.164         	14.302         	8.171
MS.165         	14.275         	8.069
MS.166         	14.245         	7.791
MS.167         	14.217         	7.849
MS.168         	14.188         	7.694
MS.169         	14.16          	7.811
MS.170         	14.132         	8.091
MS.171         	14.102         	8.02
MS.172         	14.075         	7.771
MS.173         	14.047         	7.593
MS.174         	14.02          	7.521
MS.175         	13.992         	7.722
MS.176         	13.962         	7.771
MS.177         	13.935         	7.753
MS.178         	13.907         	7.662
MS.179         	13.88          	7.281
MS.180         	13.852         	7.466
MS.181         	13.825         	7.471
MS.182         	13.797         	7.323
MS.183         	13.77          	7.668
MS.184         	13.742         	7.195
MS.185         	13.715         	7.199
MS.186         	13.688         	6.641
MS.187         	13.66          	7.273
MS.188         	13.632         	7.082
MS.189         	13.605         	7.257
MS.190         	13.577         	7.003
MS.191         	13.55          	6.85
MS.192         	13.523         	6.868
MS.193         	13.497         	6.606
MS.194         	13.47          	6.596
MS.195         	13.443         	6.294
MS.196         	13.415         	6.566
MS.197         	13.39          	5.996
MS.198         	13.362         	5.996
MS.199         	13.335         	5.839
MS.200         	13.31          	5.992
MS.201         	13.282         	6.335
MS.202         	13.255         	6.006
MS.203         	13.23          	6.067
MS.204         	13.202         	5.96
MS.205         	13.177         	5.589
MS.206         	13.15          	5.791
MS.207         	13.125         	5.809
MS.208         	13.097         	5.529
MS.209         	13.072         	5.628
MS.210         	13.045         	5.561
MS.211         	13.02          	5.609
MS.212         	12.992         	5.295
MS.213         	12.967         	5.174
MS.214         	12.943         	5.106
MS.215         	12.915         	5.199
MS.216         	12.89          	4.945
MS.217         	12.865         	4.894
MS.218         	12.837         	5.082
MS.219         	12.812         	4.977
MS.220         	12.787         	4.709
MS.221         	12.762         	4.828
MS.222         	12.735         	4.697
MS.223         	12.71          	4.798
MS.224         	12.685         	4.612
MS.225         	12.66          	4.814
MS.226         	12.635         	4.731
MS.227         	12.61          	4.844
MS.228         	12.585         	4.794
MS.229         	12.56          	4.526
MS.230         	12.535         	4.397
MS.231         	12.51          	4.486
MS.232         	12.485         	4.022
MS.233         	12.46          	4.526
MS.234         	12.435         	4.262
MS.235         	12.41          	4.093
MS.236         	12.385         	4.145
MS.237         	12.36          	3.813
MS.238         	12.335         	3.998
MS.239         	12.31          	3.946
MS.240         	12.285         	3.966
MS.241         	12.26          	3.408
MS.242         	12.238         	3.394
MS.243         	12.212         	3.773
MS.244         	12.188         	3.599
MS.245         	12.162         	3.519
MS.246         	12.14          	3.309
MS.247         	12.115         	3.452
MS.248         	12.09          	3.311
MS.249         	12.068         	3.654
MS.250         	12.042         	2.786
MS.251         	12.017         	2.945
MS.252         	11.995         	3.076
MS.253         	11.97          	2.997
MS.254         	11.947         	3.037
MS.255         	11.922         	2.961
MS.256         	11.9           	2.554
MS.257         	11.875         	2.997
MS.258         	11.852         	2.904
MS.259         	11.827         	2.604
MS.260         	11.805         	2.947
MS.261         	11.78          	2.792
MS.262         	11.757         	2.602
MS.263         	11.733         	2.365
MS.264         	11.71          	2.314
MS.265         	11.688         	2.902
MS.266         	11.662         	2.413
MS.267         	11.64          	2.32
MS.268         	11.617         	2.236
MS.269         	11.592         	2.336
MS.270         	11.57          	2.201
MS.271         	11.547         	2.026
MS.272         	11.525         	1.99
MS.273         	11.5           	2.091
MS.274         	11.477         	1.936
MS.275         	11.455         	1.96
MS.276         	11.432         	1.73
MS.277         	11.41          	1.924
MS.278         	11.387         	2.119
MS.279         	11.365         	1.742
MS.280         	11.34          	1.885
MS.281         	11.318         	1.813
MS.282         	11.295         	1.722
MS.283         	11.273         	1.712
MS.284         	11.25          	1.694
MS.285         	11.227         	1.611
MS.286         	11.205         	1.607
MS.287         	11.182         	1.549
MS.288         	11.16          	1.744
MS.289         	11.14          	1.44
MS.290         	11.117         	1.517
MS.291         	11.095         	1.581
MS.292         	11.073         	1.446
MS.293         	11.05          	1.303
MS.294         	11.028         	1.561
MS.295         	11.005         	1.571
MS.296         	10.985         	1.285
MS.297         	10.962         	1.331
MS.298         	10.94          	1.241
MS.299         	10.917         	1.152
MS.300         	10.898         	1.235
MS.301         	10.875         	1.215
MS.302         	10.852         	1.36
MS.303         	10.83          	1.259
MS.304         	10.81          	1.12
MS.305         	10.787         	1.245
MS.306         	10.767         	1.325
MS.307         	10.745         	1.074
MS.308         	10.722         	1.142
MS.309         	10.702         	1.114
MS.310         	10.68          	1.136
MS.311         	10.66          	1.239
MS.312         	10.637         	1.253
MS.313         	10.617         	1.13
MS.314         	10.595         	1.104
MS.315         	10.575         	0.854
MS.316         	10.552         	0.798
MS.317         	10.532         	1.061
MS.318         	10.51          	0.751
MS.319         	10.49          	0.804
MS.320         	10.47          	0.906
MS.321         	10.448         	0.806
MS.322         	10.427         	1.011
MS.323         	10.407         	0.798
MS.324         	10.385         	0.914
MS.325         	10.365         	0.834
MS.326         	10.345         	0.651
MS.327         	10.323         	0.743
MS.328         	10.302         	0.614
MS.329         	10.282         	0.58
MS.330         	10.262         	0.647
MS.331         	10.242         	0.655
MS.332         	10.22          	0.594
MS.333         	10.2           	0.679
MS.334         	10.18          	0.693
MS.335         	10.16          	0.665
MS.336         	10.14          	0.55
MS.337         	10.12          	0.554
MS.338         	10.1           	0.55
MS.339         	10.08          	0.536
MS.340         	10.057         	0.564
MS.341         	10.037         	0.52
MS.342         	10.017         	0.528
MS.343         	9.997          	0.588
MS.344         	9.977          	0.508
MS.345         	9.957          	0.495
MS.346         	9.938          	0.53
MS.347         	9.92           	0.518
MS.348         	9.9            	0.495
MS.349         	9.88           	0.508
MS.350         	9.86           	0.479
MS.351         	9.84           	0.465
MS.352         	9.82           	0.471
MS.353         	9.8            	0.463
MS.354         	9.78           	0.467
MS.355         	9.762          	0.467
MS.356         	9.742          	0.467
MS.357         	9.722          	0.459
MS.358         	9.702          	0.491
MS.359         	9.682          	0.352
MS.360         	9.665          	0.443
MS.361         	9.645          	0.469
MS.362         	9.625          	0.495
MS.363         	9.608          	0.371
MS.364         	9.587          	0.473
MS.365         	9.568          	0.491
MS.366         	9.55           	0.439
MS.367         	9.53           	0.441
MS.368         	9.51           	0.473
MS.369         	9.492          	0.451
MS.370         	9.472          	0.363
MS.371         	9.455          	0.471
MS.372         	9.435          	0.481
MS.373         	9.415          	0.465
MS.374         	9.398          	0.485
MS.375         	9.377          	0.338
MS.376         	9.36           	0.479
MS.377         	9.34           	0.457
MS.378         	9.323          	0.34
MS.379         	9.305          	0.332
MS.380         	9.285          	0.461
MS.381         	9.267          	0.35
MS.382         	9.247          	0.357
MS.383         	9.23           	0.354
MS.384         	9.212          	0.469
MS.385         	9.193          	0.471
MS.386         	9.175          	0.361
MS.387         	9.155          	0.354
MS.388         	9.137          	0.359
MS.389         	9.12           	0.359
MS.390         	9.102          	0.348
MS.391         	9.082          	0.359
MS.392         	9.065          	0.359
MS.393         	9.047          	0.357
MS.394         	9.03           	0.344
MS.395         	9.01           	0.354
MS.396         	8.992          	0.357
MS.397         	8.975          	0.357
MS.398         	8.957          	0.35
MS.399         	8.94           	0.354
MS.400         	8.92           	0.359
MS.401         	8.903          	0.354
MS.402         	8.885          	0.354
MS.403         	8.867          	0.352
MS.404         	8.85           	0.354
MS.405         	8.832          	0.348
MS.406         	8.815          	0.354
MS.407         	8.797          	0.359
MS.408         	8.78           	0.35
MS.409         	8.762          	0.354
MS.410         	8.745          	0.354
MS.411         	8.727          	0.35
MS.412         	8.71           	0.357
MS.413         	8.693          	0.357
MS.414         	8.675          	0.352
MS.415         	8.658          	0.357
MS.416         	8.64           	0.352
MS.417         	8.622          	0.357
MS.418         	8.605          	0.354
MS.419         	8.587          	0.348
MS.420         	8.573          	0.342
MS.421         	8.555          	0.336
MS.422         	8.537          	0.357
MS.423         	8.52           	0.352
MS.424         	8.502          	0.359
MS.425         	8.485          	0.357
MS.426         	8.47           	0.338
MS.427         	8.452          	0.336
MS.428         	8.435          	0.338
MS.429         	8.417          	0.338
MS.430         	8.403          	0.338
MS.431         	8.385          	0.338
MS.432         	8.367          	0.342
MS.433         	8.352          	0.357
MS.434         	8.335          	0.336
MS.435         	8.318          	0.336
MS.436         	8.302          	0.284
MS.437         	8.285          	0.34
MS.438         	8.267          	0.218
MS.439         	8.252          	0.338
MS.440         	8.235          	0.34
MS.441         	8.22           	0.338
MS.442         	8.202          	0.344
MS.443         	8.185          	0.338
MS.444         	8.17           	0.171
MS.445         	8.153          	0.171
MS.446         	8.137          	0.222
MS.447         	8.12           	0.228
MS.448         	8.105          	0.171
MS.449         	8.087          	0.218
MS.450         	8.073          	0.179
MS.451         	8.055          	0.29
MS.452         	8.04           	0.359
MS.453         	8.025          	0.27
MS.454         	8.007          	0.149
MS.455         	7.992          	0.282
MS.456         	7.975          	0.232
MS.457         	7.96           	0.089
MS.458         	7.945          	0.145
MS.459         	7.927          	0.169
MS.460         	7.912          	0.161
MS.461         	7.898          	0.191
MS.462         	7.88           	0.177
MS.463         	7.865          	0.165
MS.464         	7.85           	0.165
MS.465         	7.832          	0.167
MS.466         	7.817          	0.216
MS.467         	7.802          	0.167
MS.468         	7.787          	0.171
MS.469         	7.773          	0.179
MS.470         	7.755          	0.173
MS.471         	7.74           	0.175
MS.472         	7.725          	0.171
MS.473         	7.71           	0.169
MS.474         	7.695          	0.171
MS.475         	7.677          	0.165
MS.476         	7.662          	0.167
MS.477         	7.648          	0.169
MS.478         	7.632          	0.167
MS.479         	7.617          	0.173
MS.480         	7.602          	0.171
MS.481         	7.587          	0.173
MS.482         	7.572          	0.169
MS.483         	7.557          	0.167
MS.484         	7.543          	0.169
MS.485         	7.527          	0.169
MS.486         	7.512          	0.169
MS.487         	7.497          	0.169
MS.488         	7.482          	0.169
MS.489         	7.467          	0.169
MS.490         	7.452          	0.169
MS.491         	7.438          	0.167
MS.492         	7.422          	0.171
MS.493         	7.407          	0.171
MS.494         	7.392          	0.173
MS.495         	7.378          	0.173
MS.496         	7.362          	0.171
MS.497         	7.347          	0.145
