File:              	C:\Qtrac\Data\Daniel M Sørensen\MScan multicentre study\Data from centres\Ankara\Processed data\HEBC01204A.QZD
Name:              	TR.ANK.NC.4.2
Protocol:          	MSCAN-R2
Date:              	4/12/20
Start time:        	12:27:39
Age:                         38
Sex:
Temperature:
S/R sites:         	APB
NC/disease:        	NC
Operator:          	HA
Comments:
M-SCAN DATA (9.3-4.2m)
Scanpts: 4, 11, 533, 555
Stim. (mA)     	Amp. (mV)
MS.1           	19             	14.272
MS.2           	19             	14.266
MS.3           	19             	14.28
MS.4           	19             	14.274
MS.5           	19             	14.27
MS.6           	19             	14.254
MS.7           	19             	14.26
MS.8           	19             	14.26
MS.9           	19             	14.254
MS.10          	19             	14.27
MS.11          	19             	14.264
MS.12          	19             	14.268
MS.13          	19             	14.198
MS.14          	19             	14.292
MS.15          	19             	14.288
MS.16          	19             	13.896
MS.17          	19             	14.236
MS.18          	19             	14.242
MS.19          	19             	13.892
MS.20          	19             	14.292
MS.21          	19             	14.28
MS.22          	19             	14.26
MS.23          	19             	14.28
MS.24          	18.925         	14.276
MS.25          	18.887         	14.294
MS.26          	18.847         	14.303
MS.27          	18.81          	14.29
MS.28          	18.772         	13.892
MS.29          	18.735         	14.246
MS.30          	18.698         	14.262
MS.31          	18.66          	14.329
MS.32          	18.622         	14.258
MS.33          	18.587         	14.331
MS.34          	18.55          	14.313
MS.35          	18.512         	14.039
MS.36          	18.475         	14.323
MS.37          	18.438         	13.678
MS.38          	18.403         	14.244
MS.39          	18.365         	13.696
MS.40          	18.327         	13.97
MS.41          	18.292         	14.248
MS.42          	18.255         	13.968
MS.43          	18.217         	13.908
MS.44          	18.182         	14.23
MS.45          	18.145         	13.634
MS.46          	18.11          	13.563
MS.47          	18.073         	13.994
MS.48          	18.038         	13.886
MS.49          	18             	13.787
MS.50          	17.965         	13.749
MS.51          	17.93          	14.135
MS.52          	17.892         	13.843
MS.53          	17.858         	13.662
MS.54          	17.823         	14.242
MS.55          	17.788         	13.583
MS.56          	17.75          	13.541
MS.57          	17.715         	13.612
MS.58          	17.68          	13.624
MS.59          	17.645         	13.567
MS.60          	17.61          	13.561
MS.61          	17.575         	13.851
MS.62          	17.54          	13.571
MS.63          	17.505         	13.559
MS.64          	17.47          	13.531
MS.65          	17.435         	13.499
MS.66          	17.4           	13.302
MS.67          	17.365         	13.592
MS.68          	17.33          	13.571
MS.69          	17.295         	13.316
MS.70          	17.26          	13.571
MS.71          	17.227         	13.136
MS.72          	17.192         	13.473
MS.73          	17.157         	13.328
MS.74          	17.122         	13.547
MS.75          	17.09          	13.475
MS.76          	17.055         	13.098
MS.77          	17.02          	13.368
MS.78          	16.987         	13.253
MS.79          	16.952         	13.543
MS.80          	16.92          	12.999
MS.81          	16.885         	13.297
MS.82          	16.852         	13.136
MS.83          	16.817         	13.036
MS.84          	16.785         	12.818
MS.85          	16.75          	12.943
MS.86          	16.717         	13.082
MS.87          	16.682         	12.844
MS.88          	16.65          	12.79
MS.89          	16.618         	12.921
MS.90          	16.585         	12.725
MS.91          	16.55          	12.756
MS.92          	16.517         	12.307
MS.93          	16.485         	12.554
MS.94          	16.452         	12.981
MS.95          	16.42          	12.431
MS.96          	16.385         	12.383
MS.97          	16.352         	12.25
MS.98          	16.32          	11.94
MS.99          	16.288         	12.021
MS.100         	16.255         	11.753
MS.101         	16.222         	12.137
MS.102         	16.19          	11.847
MS.103         	16.157         	12.117
MS.104         	16.125         	12.01
MS.105         	16.095         	12.286
MS.106         	16.062         	11.515
MS.107         	16.03          	11.376
MS.108         	15.997         	11.543
MS.109         	15.965         	11.771
MS.110         	15.932         	11.912
MS.111         	15.902         	11.616
MS.112         	15.87          	11.1
MS.113         	15.837         	11.455
MS.114         	15.807         	11.108
MS.115         	15.775         	10.961
MS.116         	15.742         	10.901
MS.117         	15.712         	10.133
MS.118         	15.68          	10.927
MS.119         	15.65          	11.438
MS.120         	15.617         	10.917
MS.121         	15.587         	10.02
MS.122         	15.555         	10.498
MS.123         	15.525         	10.804
MS.124         	15.492         	10.081
MS.125         	15.462         	10.228
MS.126         	15.432         	10.051
MS.127         	15.4           	9.908
MS.128         	15.37          	9.122
MS.129         	15.34          	9.632
MS.130         	15.31          	9.239
MS.131         	15.277         	9.662
MS.132         	15.247         	9.199
MS.133         	15.217         	9.454
MS.134         	15.188         	9.003
MS.135         	15.157         	9.034
MS.136         	15.127         	8.564
MS.137         	15.095         	8.238
MS.138         	15.065         	8.729
MS.139         	15.035         	8.83
MS.140         	15.005         	7.771
MS.141         	14.975         	7.865
MS.142         	14.945         	7.746
MS.143         	14.915         	7.658
MS.144         	14.885         	7.62
MS.145         	14.858         	7.418
MS.146         	14.827         	7.338
MS.147         	14.797         	7.869
MS.148         	14.767         	7.678
MS.149         	14.737         	7.233
MS.150         	14.707         	7.001
MS.151         	14.68          	7.299
MS.152         	14.65          	7.144
MS.153         	14.62          	6.985
MS.154         	14.592         	6.864
MS.155         	14.562         	6.943
MS.156         	14.532         	7.023
MS.157         	14.505         	6.502
MS.158         	14.475         	6.635
MS.159         	14.447         	6.562
MS.160         	14.417         	6.659
MS.161         	14.387         	6.232
MS.162         	14.36          	6.333
MS.163         	14.33          	6.578
MS.164         	14.302         	6.264
MS.165         	14.275         	5.976
MS.166         	14.245         	6.105
MS.167         	14.217         	6.202
MS.168         	14.188         	5.956
MS.169         	14.16          	5.873
MS.170         	14.132         	5.789
MS.171         	14.102         	5.825
MS.172         	14.075         	5.454
MS.173         	14.047         	5.652
MS.174         	14.02          	5.317
MS.175         	13.992         	5.056
MS.176         	13.962         	5.666
MS.177         	13.935         	5.021
MS.178         	13.907         	5.333
MS.179         	13.88          	5.096
MS.180         	13.852         	4.842
MS.181         	13.825         	4.822
MS.182         	13.797         	5.003
MS.183         	13.77          	4.842
MS.184         	13.742         	4.469
MS.185         	13.715         	4.719
MS.186         	13.688         	5.029
MS.187         	13.66          	4.498
MS.188         	13.632         	4.258
MS.189         	13.605         	4.57
MS.190         	13.577         	4.322
MS.191         	13.55          	4.218
MS.192         	13.523         	4.147
MS.193         	13.497         	3.768
MS.194         	13.47          	4.016
MS.195         	13.443         	4.105
MS.196         	13.415         	4.234
MS.197         	13.39          	4.373
MS.198         	13.362         	4.038
MS.199         	13.335         	3.851
MS.200         	13.31          	3.956
MS.201         	13.282         	3.756
MS.202         	13.255         	3.696
MS.203         	13.23          	3.716
MS.204         	13.202         	3.517
MS.205         	13.177         	3.543
MS.206         	13.15          	3.035
MS.207         	13.125         	3.188
MS.208         	13.097         	3.452
MS.209         	13.072         	2.886
MS.210         	13.045         	3.092
MS.211         	13.02          	3.577
MS.212         	12.992         	3.297
MS.213         	12.967         	3.265
MS.214         	12.943         	2.993
MS.215         	12.915         	3.088
MS.216         	12.89          	2.653
MS.217         	12.865         	2.655
MS.218         	12.837         	2.84
MS.219         	12.812         	2.574
MS.220         	12.787         	2.759
MS.221         	12.762         	2.884
MS.222         	12.735         	2.52
MS.223         	12.71          	2.933
MS.224         	12.685         	2.21
MS.225         	12.66          	2.483
MS.226         	12.635         	2.504
MS.227         	12.61          	2.647
MS.228         	12.585         	2.417
MS.229         	12.56          	2.147
MS.230         	12.535         	2.079
MS.231         	12.51          	2.04
MS.232         	12.485         	2.353
MS.233         	12.46          	2.387
MS.234         	12.435         	2.395
MS.235         	12.41          	2.115
MS.236         	12.385         	2.151
MS.237         	12.36          	1.958
MS.238         	12.335         	1.958
MS.239         	12.31          	2.048
MS.240         	12.285         	1.978
MS.241         	12.26          	1.575
MS.242         	12.238         	1.879
MS.243         	12.212         	1.913
MS.244         	12.188         	1.605
MS.245         	12.162         	1.867
MS.246         	12.14          	1.915
MS.247         	12.115         	1.899
MS.248         	12.09          	1.95
MS.249         	12.068         	1.49
MS.250         	12.042         	1.799
MS.251         	12.017         	1.895
MS.252         	11.995         	1.781
MS.253         	11.97          	1.75
MS.254         	11.947         	1.515
MS.255         	11.922         	1.323
MS.256         	11.9           	1.442
MS.257         	11.875         	1.408
MS.258         	11.852         	1.374
MS.259         	11.827         	1.444
MS.260         	11.805         	1.43
MS.261         	11.78          	1.42
MS.262         	11.757         	1.521
MS.263         	11.733         	1.331
MS.264         	11.71          	1.47
MS.265         	11.688         	1.805
MS.266         	11.662         	1.255
MS.267         	11.64          	1.404
MS.268         	11.617         	1.249
MS.269         	11.592         	1.251
MS.270         	11.57          	1.313
MS.271         	11.547         	1.011
MS.272         	11.525         	1.259
MS.273         	11.5           	1.337
MS.274         	11.477         	1.128
MS.275         	11.455         	1.154
MS.276         	11.432         	1.269
MS.277         	11.41          	0.88
MS.278         	11.387         	1.176
MS.279         	11.365         	0.812
MS.280         	11.34          	0.963
MS.281         	11.318         	0.957
MS.282         	11.295         	0.882
MS.283         	11.273         	0.826
MS.284         	11.25          	0.872
MS.285         	11.227         	0.852
MS.286         	11.205         	0.82
MS.287         	11.182         	0.836
MS.288         	11.16          	0.757
MS.289         	11.14          	0.862
MS.290         	11.117         	0.846
MS.291         	11.095         	0.822
MS.292         	11.073         	0.562
MS.293         	11.05          	1.096
MS.294         	11.028         	0.846
MS.295         	11.005         	0.568
MS.296         	10.985         	0.767
MS.297         	10.962         	0.816
MS.298         	10.94          	0.586
MS.299         	10.917         	0.739
MS.300         	10.898         	0.713
MS.301         	10.875         	0.616
MS.302         	10.852         	0.61
MS.303         	10.83          	0.673
MS.304         	10.81          	0.504
MS.305         	10.787         	0.558
MS.306         	10.767         	0.526
MS.307         	10.745         	0.574
MS.308         	10.722         	0.465
MS.309         	10.702         	0.685
MS.310         	10.68          	0.463
MS.311         	10.66          	0.431
MS.312         	10.637         	0.504
MS.313         	10.617         	0.534
MS.314         	10.595         	0.524
MS.315         	10.575         	0.506
MS.316         	10.552         	0.641
MS.317         	10.532         	0.504
MS.318         	10.51          	0.346
MS.319         	10.49          	0.461
MS.320         	10.47          	0.437
MS.321         	10.448         	0.425
MS.322         	10.427         	0.441
MS.323         	10.407         	0.461
MS.324         	10.385         	0.425
MS.325         	10.365         	0.5
MS.326         	10.345         	0.344
MS.327         	10.323         	0.393
MS.328         	10.302         	0.365
MS.329         	10.282         	0.35
MS.330         	10.262         	0.33
MS.331         	10.242         	0.342
MS.332         	10.22          	0.336
MS.333         	10.2           	0.354
MS.334         	10.18          	0.383
MS.335         	10.16          	0.338
MS.336         	10.14          	0.35
MS.337         	10.12          	0.375
MS.338         	10.1           	0.334
MS.339         	10.08          	0.387
MS.340         	10.057         	0.344
MS.341         	10.037         	0.322
MS.342         	10.017         	0.318
MS.343         	9.997          	0.328
MS.344         	9.977          	0.346
MS.345         	9.957          	0.336
MS.346         	9.938          	0.354
MS.347         	9.92           	0.344
MS.348         	9.9            	0.33
MS.349         	9.88           	0.312
MS.350         	9.86           	0.32
MS.351         	9.84           	0.322
MS.352         	9.82           	0.306
MS.353         	9.8            	0.312
MS.354         	9.78           	0.33
MS.355         	9.762          	0.312
MS.356         	9.742          	0.35
MS.357         	9.722          	0.338
MS.358         	9.702          	0.318
MS.359         	9.682          	0.314
MS.360         	9.665          	0.324
MS.361         	9.645          	0.348
MS.362         	9.625          	0.31
MS.363         	9.608          	0.306
MS.364         	9.587          	0.26
MS.365         	9.568          	0.246
MS.366         	9.55           	0.328
MS.367         	9.53           	0.312
MS.368         	9.51           	0.216
MS.369         	9.492          	0.316
MS.370         	9.472          	0.211
MS.371         	9.455          	0.322
MS.372         	9.435          	0.141
MS.373         	9.415          	0.322
MS.374         	9.398          	0.209
MS.375         	9.377          	0.141
MS.376         	9.36           	0.318
MS.377         	9.34           	0.127
MS.378         	9.323          	0.123
MS.379         	9.305          	0.207
MS.380         	9.285          	0.248
MS.381         	9.267          	0.149
MS.382         	9.247          	0.209
MS.383         	9.23           	0.129
MS.384         	9.212          	0.133
MS.385         	9.193          	0.131
MS.386         	9.175          	0.141
MS.387         	9.155          	0.197
MS.388         	9.137          	0.151
MS.389         	9.12           	0.145
MS.390         	9.102          	0.119
MS.391         	9.082          	0.143
MS.392         	9.065          	0.119
MS.393         	9.047          	0.129
MS.394         	9.03           	0.115
MS.395         	9.01           	0.133
MS.396         	8.992          	0.131
MS.397         	8.975          	0.137
MS.398         	8.957          	0.127
MS.399         	8.94           	0.141
MS.400         	8.92           	0.135
MS.401         	8.903          	0.137
MS.402         	8.885          	0.056
MS.403         	8.867          	0.119
MS.404         	8.85           	0.062
MS.405         	8.832          	0.123
MS.406         	8.815          	0.119
MS.407         	8.797          	0.123
MS.408         	8.78           	0.105
MS.409         	8.762          	0.119
MS.410         	8.745          	0.062
MS.411         	8.727          	0.058
MS.412         	8.71           	0.123
MS.413         	8.693          	0.058
MS.414         	8.675          	0.042
MS.415         	8.658          	0.119
MS.416         	8.64           	0.062
MS.417         	8.622          	0.064
MS.418         	8.605          	0.06
MS.419         	8.587          	0.113
MS.420         	8.573          	0.123
MS.421         	8.555          	0.101
MS.422         	8.537          	0.109
MS.423         	8.52           	0.05
MS.424         	8.502          	0.103
MS.425         	8.485          	0.109
MS.426         	8.47           	0.052
MS.427         	8.452          	0.058
MS.428         	8.435          	0.048
MS.429         	8.417          	0.05
MS.430         	8.403          	0.048
MS.431         	8.385          	0.109
MS.432         	8.367          	0.048
MS.433         	8.352          	0.052
MS.434         	8.335          	0.107
MS.435         	8.318          	0.05
MS.436         	8.302          	0.111
MS.437         	8.285          	0.052
MS.438         	8.267          	0.048
MS.439         	8.252          	0.052
MS.440         	8.235          	0.05
MS.441         	8.22           	0.052
MS.442         	8.202          	0.034
MS.443         	8.185          	0.054
MS.444         	8.17           	0.052
MS.445         	8.153          	0.046
MS.446         	8.137          	0.05
MS.447         	8.12           	0.048
MS.448         	8.105          	0.058
MS.449         	8.087          	0.048
MS.450         	8.073          	0.038
MS.451         	8.055          	0.052
MS.452         	8.04           	0.038
MS.453         	8.025          	0.054
MS.454         	8.007          	0.054
MS.455         	7.992          	0.052
MS.456         	7.975          	0.052
MS.457         	7.96           	0.054
MS.458         	7.945          	0.05
MS.459         	7.927          	0.04
MS.460         	7.912          	0.054
MS.461         	7.898          	0.056
MS.462         	7.88           	0.056
MS.463         	7.865          	0.036
MS.464         	7.85           	0.038
MS.465         	7.832          	0.054
MS.466         	7.817          	0.034
MS.467         	7.802          	0.052
MS.468         	7.787          	0.05
MS.469         	7.773          	0.058
MS.470         	7.755          	0.06
MS.471         	7.74           	0.038
MS.472         	7.725          	0.036
MS.473         	7.71           	0.056
MS.474         	7.695          	0.052
MS.475         	7.677          	0.058
MS.476         	7.662          	0.058
MS.477         	7.648          	0.044
MS.478         	7.632          	0.032
MS.479         	7.617          	0.036
MS.480         	7.602          	0.04
MS.481         	7.587          	0.034
MS.482         	7.572          	0.034
MS.483         	7.557          	0.038
MS.484         	7.543          	0.05
MS.485         	7.527          	0.032
MS.486         	7.512          	0.038
MS.487         	7.497          	0.036
MS.488         	7.482          	0.04
MS.489         	7.467          	0.06
MS.490         	7.452          	0.046
MS.491         	7.438          	0.038
MS.492         	7.422          	0.034
MS.493         	7.407          	0.042
MS.494         	7.392          	0.042
MS.495         	7.378          	0.036
MS.496         	7.362          	0.04
MS.497         	7.347          	0.04
MS.498         	7.332          	0.038
MS.499         	7.317          	0.042
