File:              	C:\Qtrac\Data\Daniel M Sørensen\MScan multicentre study\Data from centres\Ankara\Processed data\IKC10120A.QZD
Name:              	TR.ANK.NC.10.2
Protocol:          	MSCAN-R2
Date:              	20/1/21
Start time:        	15:30:56
Age:               	25
Sex:               	f
Temperature:
S/R sites:         	APB
NC/disease:        	NC
Operator:          	eb
Comments:
M-SCAN DATA (5.2-0.7m)
Scanpts: 136, 140, 473, 494
Stim. (mA)     	Amp. (mV)
MS.1           	18             	7.804
MS.2           	18             	7.819
MS.3           	18             	7.81
MS.4           	18             	7.788
MS.5           	18             	7.795
MS.6           	18             	7.766
MS.7           	18             	7.787
MS.8           	18             	7.766
MS.9           	18             	7.781
MS.10          	18             	7.802
MS.11          	18             	7.765
MS.12          	18             	7.72
MS.13          	18             	7.843
MS.14          	18             	7.78
MS.15          	18             	7.797
MS.16          	18             	7.787
MS.17          	18             	7.776
MS.18          	18             	7.775
MS.19          	18             	7.776
MS.20          	18             	7.794
MS.21          	18             	7.778
MS.22          	18             	7.791
MS.23          	17.927         	7.773
MS.24          	17.892         	7.792
MS.25          	17.858         	7.747
MS.26          	17.82          	7.769
MS.27          	17.785         	7.721
MS.28          	17.75          	7.756
MS.29          	17.715         	7.739
MS.30          	17.68          	7.727
MS.31          	17.642         	7.716
MS.32          	17.608         	7.681
MS.33          	17.573         	7.693
MS.34          	17.538         	7.673
MS.35          	17.503         	7.671
MS.36          	17.467         	7.694
MS.37          	17.432         	7.673
MS.38          	17.397         	7.683
MS.39          	17.362         	7.681
MS.40          	17.33          	7.681
MS.41          	17.295         	7.688
MS.42          	17.26          	7.676
MS.43          	17.225         	7.683
MS.44          	17.19          	7.701
MS.45          	17.157         	7.693
MS.46          	17.122         	7.661
MS.47          	17.087         	7.655
MS.48          	17.052         	7.687
MS.49          	17.02          	7.684
MS.50          	16.985         	7.689
MS.51          	16.952         	7.664
MS.52          	16.917         	7.693
MS.53          	16.885         	7.704
MS.54          	16.85          	7.706
MS.55          	16.817         	7.692
MS.56          	16.782         	7.726
MS.57          	16.75          	7.69
MS.58          	16.715         	7.711
MS.59          	16.682         	7.738
MS.60          	16.65          	7.734
MS.61          	16.615         	7.681
MS.62          	16.583         	7.677
MS.63          	16.55          	7.688
MS.64          	16.517         	7.693
MS.65          	16.483         	7.703
MS.66          	16.45          	7.694
MS.67          	16.417         	7.693
MS.68          	16.385         	7.69
MS.69          	16.352         	7.7
MS.70          	16.32          	7.714
MS.71          	16.288         	7.699
MS.72          	16.255         	7.698
MS.73          	16.222         	7.699
MS.74          	16.19          	7.705
MS.75          	16.157         	7.7
MS.76          	16.125         	7.692
MS.77          	16.092         	7.697
MS.78          	16.06          	7.694
MS.79          	16.028         	7.706
MS.80          	15.997         	7.676
MS.81          	15.965         	7.717
MS.82          	15.932         	7.689
MS.83          	15.9           	7.701
MS.84          	15.87          	7.678
MS.85          	15.837         	7.69
MS.86          	15.805         	7.701
MS.87          	15.775         	7.694
MS.88          	15.742         	7.708
MS.89          	15.71          	7.839
MS.90          	15.68          	7.781
MS.91          	15.648         	7.749
MS.92          	15.617         	7.797
MS.93          	15.585         	7.767
MS.94          	15.555         	7.751
MS.95          	15.523         	7.772
MS.96          	15.492         	7.778
MS.97          	15.462         	7.749
MS.98          	15.43          	7.749
MS.99          	15.4           	7.756
MS.100         	15.37          	7.805
MS.101         	15.337         	7.8
MS.102         	15.307         	7.816
MS.103         	15.277         	7.786
MS.104         	15.247         	7.799
MS.105         	15.217         	7.775
MS.106         	15.185         	7.787
MS.107         	15.155         	7.769
MS.108         	15.125         	7.78
MS.109         	15.095         	7.764
MS.110         	15.065         	7.749
MS.111         	15.035         	7.756
MS.112         	15.005         	7.747
MS.113         	14.975         	7.753
MS.114         	14.945         	7.759
MS.115         	14.915         	7.76
MS.116         	14.885         	7.762
MS.117         	14.855         	7.765
MS.118         	14.825         	7.75
MS.119         	14.795         	7.747
MS.120         	14.767         	7.765
MS.121         	14.737         	7.762
MS.122         	14.707         	7.756
MS.123         	14.677         	7.764
MS.124         	14.65          	7.76
MS.125         	14.62          	7.767
MS.126         	14.59          	7.76
MS.127         	14.562         	7.751
MS.128         	14.532         	7.687
MS.129         	14.502         	7.772
MS.130         	14.475         	7.894
MS.131         	14.445         	7.972
MS.132         	14.417         	7.834
MS.133         	14.387         	7.834
MS.134         	14.36          	7.833
MS.135         	14.33          	7.836
MS.136         	14.302         	7.852
MS.137         	14.273         	7.86
MS.138         	14.245         	7.822
MS.139         	14.215         	7.809
MS.140         	14.188         	7.806
MS.141         	14.16          	7.786
MS.142         	14.13          	7.787
MS.143         	14.102         	7.778
MS.144         	14.075         	7.765
MS.145         	14.047         	7.772
MS.146         	14.017         	7.764
MS.147         	13.99          	7.734
MS.148         	13.962         	7.698
MS.149         	13.935         	7.75
MS.150         	13.907         	7.747
MS.151         	13.88          	7.744
MS.152         	13.85          	7.759
MS.153         	13.822         	7.749
MS.154         	13.795         	7.748
MS.155         	13.767         	7.726
MS.156         	13.74          	7.657
MS.157         	13.712         	7.728
MS.158         	13.685         	7.722
MS.159         	13.657         	7.701
MS.160         	13.632         	7.721
MS.161         	13.605         	7.695
MS.162         	13.577         	7.642
MS.163         	13.55          	7.751
MS.164         	13.523         	7.734
MS.165         	13.495         	7.585
MS.166         	13.467         	7.743
MS.167         	13.443         	7.593
MS.168         	13.415         	7.753
MS.169         	13.387         	7.66
MS.170         	13.362         	7.493
MS.171         	13.335         	7.509
MS.172         	13.307         	7.709
MS.173         	13.282         	7.533
MS.174         	13.255         	7.469
MS.175         	13.227         	7.545
MS.176         	13.202         	7.554
MS.177         	13.175         	7.642
MS.178         	13.15          	7.526
MS.179         	13.122         	7.36
MS.180         	13.097         	7.365
MS.181         	13.07          	7.521
MS.182         	13.045         	7.319
MS.183         	13.017         	7.317
MS.184         	12.992         	7.372
MS.185         	12.967         	7.356
MS.186         	12.94          	7.325
MS.187         	12.915         	7.347
MS.188         	12.89          	7.313
MS.189         	12.862         	7.327
MS.190         	12.837         	6.953
MS.191         	12.812         	7.286
MS.192         	12.785         	7.235
MS.193         	12.76          	7.229
MS.194         	12.735         	7.343
MS.195         	12.71          	6.877
MS.196         	12.685         	7.177
MS.197         	12.66          	7.208
MS.198         	12.632         	7.073
MS.199         	12.608         	7.201
MS.200         	12.582         	6.819
MS.201         	12.557         	6.959
MS.202         	12.532         	6.664
MS.203         	12.507         	6.805
MS.204         	12.483         	6.692
MS.205         	12.457         	6.599
MS.206         	12.432         	6.594
MS.207         	12.407         	6.211
MS.208         	12.382         	6.738
MS.209         	12.36          	6.002
MS.210         	12.335         	6.351
MS.211         	12.31          	5.75
MS.212         	12.285         	5.934
MS.213         	12.26          	6.377
MS.214         	12.235         	6.294
MS.215         	12.212         	5.73
MS.216         	12.188         	5.894
MS.217         	12.162         	5.577
MS.218         	12.137         	5.579
MS.219         	12.115         	5.736
MS.220         	12.09          	5.676
MS.221         	12.065         	5.863
MS.222         	12.042         	5.469
MS.223         	12.017         	5.248
MS.224         	11.992         	5.5
MS.225         	11.97          	5.477
MS.226         	11.945         	5.168
MS.227         	11.922         	5.211
MS.228         	11.898         	5.27
MS.229         	11.875         	4.982
MS.230         	11.85          	5.085
MS.231         	11.827         	5.292
MS.232         	11.802         	4.791
MS.233         	11.78          	4.811
MS.234         	11.755         	5.081
MS.235         	11.733         	4.89
MS.236         	11.71          	4.858
MS.237         	11.685         	5.054
MS.238         	11.662         	4.979
MS.239         	11.64          	4.873
MS.240         	11.615         	4.995
MS.241         	11.592         	4.774
MS.242         	11.57          	4.738
MS.243         	11.547         	4.552
MS.244         	11.523         	4.47
MS.245         	11.5           	4.48
MS.246         	11.477         	4.403
MS.247         	11.455         	4.025
MS.248         	11.432         	4.266
MS.249         	11.407         	4.514
MS.250         	11.385         	4.514
MS.251         	11.363         	3.969
MS.252         	11.34          	4.377
MS.253         	11.318         	3.778
MS.254         	11.295         	3.69
MS.255         	11.273         	4.369
MS.256         	11.25          	4.019
MS.257         	11.227         	4.22
MS.258         	11.205         	3.965
MS.259         	11.182         	3.333
MS.260         	11.16          	4.253
MS.261         	11.137         	2.994
MS.262         	11.115         	3.599
MS.263         	11.092         	4.177
MS.264         	11.073         	3.157
MS.265         	11.05          	3.127
MS.266         	11.028         	3.057
MS.267         	11.005         	3.384
MS.268         	10.983         	3.572
MS.269         	10.962         	3.064
MS.270         	10.94          	3.064
MS.271         	10.917         	3.452
MS.272         	10.895         	2.861
MS.273         	10.875         	2.646
MS.274         	10.852         	3.003
MS.275         	10.83          	3.142
MS.276         	10.81          	3.263
MS.277         	10.787         	2.954
MS.278         	10.765         	2.665
MS.279         	10.745         	3.01
MS.280         	10.722         	2.57
MS.281         	10.702         	2.535
MS.282         	10.68          	3.386
MS.283         	10.657         	2.449
MS.284         	10.637         	2.682
MS.285         	10.615         	2.498
MS.286         	10.595         	2.468
MS.287         	10.573         	2.438
MS.288         	10.552         	2.411
MS.289         	10.532         	2.445
MS.290         	10.51          	2.355
MS.291         	10.49          	2.412
MS.292         	10.467         	2.329
MS.293         	10.448         	2.372
MS.294         	10.427         	2.333
MS.295         	10.405         	2.385
MS.296         	10.385         	2.316
MS.297         	10.365         	2.437
MS.298         	10.342         	2.311
MS.299         	10.323         	2.281
MS.300         	10.302         	2.466
MS.301         	10.282         	2.216
MS.302         	10.26          	2.156
MS.303         	10.24          	2.328
MS.304         	10.22          	2.185
MS.305         	10.2           	2.233
MS.306         	10.18          	2.181
MS.307         	10.16          	2.255
MS.308         	10.14          	2.231
MS.309         	10.117         	2.147
MS.310         	10.097         	2.223
MS.311         	10.077         	2.314
MS.312         	10.057         	2.045
MS.313         	10.037         	2.272
MS.314         	10.017         	1.888
MS.315         	9.997          	1.927
MS.316         	9.977          	2.214
MS.317         	9.957          	2.164
MS.318         	9.938          	1.956
MS.319         	9.917          	2.108
MS.320         	9.898          	1.967
MS.321         	9.877          	1.787
MS.322         	9.86           	2.081
MS.323         	9.84           	2.14
MS.324         	9.82           	1.968
MS.325         	9.8            	1.953
MS.326         	9.78           	1.823
MS.327         	9.76           	1.426
MS.328         	9.74           	1.86
MS.329         	9.722          	1.688
MS.330         	9.702          	1.763
MS.331         	9.682          	1.761
MS.332         	9.662          	1.763
MS.333         	9.645          	1.6
MS.334         	9.625          	0.972
MS.335         	9.605          	1.512
MS.336         	9.587          	1.11
MS.337         	9.568          	1.641
MS.338         	9.547          	1.746
MS.339         	9.53           	1.807
MS.340         	9.51           	1.633
MS.341         	9.49           	1.425
MS.342         	9.472          	1.508
MS.343         	9.452          	1.115
MS.344         	9.435          	1.008
MS.345         	9.415          	1.069
MS.346         	9.398          	1.027
MS.347         	9.377          	1.001
MS.348         	9.36           	0.72
MS.349         	9.34           	0.906
MS.350         	9.323          	1.101
MS.351         	9.302          	0.691
MS.352         	9.285          	0.901
MS.353         	9.265          	0.728
MS.354         	9.247          	0.778
MS.355         	9.23           	0.947
MS.356         	9.21           	0.708
MS.357         	9.193          	0.753
MS.358         	9.175          	0.668
MS.359         	9.155          	0.687
MS.360         	9.137          	0.686
MS.361         	9.12           	0.505
MS.362         	9.1            	0.657
MS.363         	9.082          	0.579
MS.364         	9.065          	0.737
MS.365         	9.047          	0.599
MS.366         	9.028          	0.613
MS.367         	9.01           	0.577
MS.368         	8.992          	0.58
MS.369         	8.975          	0.45
MS.370         	8.957          	0.414
MS.371         	8.938          	0.481
MS.372         	8.92           	0.546
MS.373         	8.903          	0.352
MS.374         	8.885          	0.612
MS.375         	8.867          	0.415
MS.376         	8.85           	0.524
MS.377         	8.832          	0.525
MS.378         	8.815          	0.437
MS.379         	8.797          	0.378
MS.380         	8.78           	0.317
MS.381         	8.762          	0.387
MS.382         	8.745          	0.378
MS.383         	8.727          	0.414
MS.384         	8.71           	0.409
MS.385         	8.693          	0.402
MS.386         	8.675          	0.389
MS.387         	8.658          	0.411
MS.388         	8.64           	0.452
MS.389         	8.622          	0.267
MS.390         	8.605          	0.19
MS.391         	8.587          	0.273
MS.392         	8.57           	0.278
MS.393         	8.552          	0.204
MS.394         	8.537          	0.199
MS.395         	8.52           	0.38
MS.396         	8.502          	0.14
MS.397         	8.485          	0.177
MS.398         	8.467          	0.261
MS.399         	8.452          	0.221
MS.400         	8.435          	0.19
MS.401         	8.417          	0.333
MS.402         	8.4            	0.162
MS.403         	8.385          	0.133
MS.404         	8.367          	0.291
MS.405         	8.35           	0.19
MS.406         	8.335          	0.25
MS.407         	8.318          	0.295
MS.408         	8.3            	0.286
MS.409         	8.285          	0.151
MS.410         	8.267          	0.157
MS.411         	8.252          	0.177
MS.412         	8.235          	0.302
MS.413         	8.217          	0.297
MS.414         	8.202          	0.164
MS.415         	8.185          	0.199
MS.416         	8.17           	0.154
MS.417         	8.153          	0.14
MS.418         	8.137          	0.153
MS.419         	8.12           	0.168
MS.420         	8.105          	0.133
MS.421         	8.087          	0.148
MS.422         	8.073          	0.122
MS.423         	8.055          	0.161
MS.424         	8.04           	0.101
MS.425         	8.023          	0.145
MS.426         	8.007          	0.089
MS.427         	7.992          	0.115
MS.428         	7.975          	0.126
MS.429         	7.96           	0.106
MS.430         	7.942          	0.087
MS.431         	7.927          	0.127
MS.432         	7.912          	0.107
MS.433         	7.895          	0.101
MS.434         	7.88           	0.107
MS.435         	7.865          	0.087
MS.436         	7.85           	0.071
MS.437         	7.832          	0.038
MS.438         	7.817          	0.038
MS.439         	7.802          	0.056
MS.440         	7.787          	0.044
MS.441         	7.77           	0.042
MS.442         	7.755          	0.072
MS.443         	7.74           	0.039
MS.444         	7.725          	0.033
MS.445         	7.71           	0.056
MS.446         	7.692          	0.02
MS.447         	7.677          	0.077
MS.448         	7.662          	0.039
MS.449         	7.648          	0.073
MS.450         	7.632          	0.011
MS.451         	7.617          	0.005
MS.452         	7.602          	0.01
MS.453         	7.587          	0.011
MS.454         	7.572          	0.011
MS.455         	7.555          	0.024
MS.456         	7.54           	0.026
MS.457         	7.525          	0.007
MS.458         	7.51           	0.01
MS.459         	7.495          	0.024
MS.460         	7.48           	0.009
MS.461         	7.465          	0.007
MS.462         	7.45           	0.029
MS.463         	7.438          	0.005
MS.464         	7.422          	0.011
MS.465         	7.407          	0.02
MS.466         	7.392          	0.026
MS.467         	7.378          	0.007
MS.468         	7.362          	0.012
MS.469         	7.347          	0.011
MS.470         	7.332          	0.015
MS.471         	7.317          	0.022
MS.472         	7.302          	0.004
MS.473         	7.29           	0.007
MS.474         	7.275          	0.017
MS.475         	7.26           	0.007
MS.476         	7.245          	0.006
MS.477         	7.23           	0.004
MS.478         	7.217          	0.009
MS.479         	7.202          	0.004
MS.480         	7.188          	0.006
MS.481         	7.172          	0.007
MS.482         	7.16           	0.007
MS.483         	7.145          	0.005
MS.484         	7.13           	0.009
MS.485         	7.115          	0.004
MS.486         	7.102          	0.005
MS.487         	7.087          	0.007
MS.488         	7.072          	0.006
MS.489         	7.06           	0.000
MS.490         	7.045          	0.009
MS.491         	7.032          	0.005
MS.492         	7.017          	0.006
MS.493         	7.003          	0.006
MS.494         	6.99           	0.007
DERIVED EXCITABILITY VARIABLES
Program = QTracP 3/4/2020
Threshold method = 6 (optimised for CAP, using data for present condition only)
SR method = 1 (using actual data values)
6.                 	0.000               	Peak response\(mV)
17.                	25                  	Age (years)
