File:              	C:\Qtrac\Data\Daniel M Sørensen\MScan multicentre study\Data from centres\Roskilde\Folders with NC-examinations\ROS_N3b\MBC00311A.QZD
Name:              	DK.ROS.NC.3.2
Protocol:          	MSCAN-R2
Date:              	11/3/20
Start time:        	11:44:54
Age:               	22
Sex:               	f
Temperature:       	36.3
S/R sites:         	Median Wr-APB
NC/disease:        	NC
Operator:          	MB
Comments:
M-SCAN DATA (9.3-1.5m)
Scanpts: 217, 224, 795, 816
Stim. (mA)     	Amp. (mV)
MS.1           	16.5           	10.494
MS.2           	16.5           	10.492
MS.3           	16.5           	10.504
MS.4           	16.5           	10.48
MS.5           	16.5           	10.449
MS.6           	16.5           	10.443
MS.7           	16.5           	10.449
MS.8           	16.5           	10.451
MS.9           	16.5           	10.445
MS.10          	16.5           	10.449
MS.11          	16.5           	10.453
MS.12          	16.5           	10.458
MS.13          	16.5           	10.447
MS.14          	16.5           	10.462
MS.15          	16.5           	10.464
MS.16          	16.5           	10.47
MS.17          	16.5           	10.472
MS.18          	16.5           	10.488
MS.19          	16.5           	10.476
MS.20          	16.5           	10.484
MS.21          	16.5           	10.482
MS.22          	16.5           	10.488
MS.23          	16.5           	10.48
MS.24          	16.435         	10.482
MS.25          	16.4           	10.47
MS.26          	16.368         	10.46
MS.27          	16.335         	10.47
MS.28          	16.302         	10.464
MS.29          	16.27          	10.468
MS.30          	16.237         	10.48
MS.31          	16.205         	10.464
MS.32          	16.172         	10.462
MS.33          	16.14          	10.468
MS.34          	16.108         	10.478
MS.35          	16.077         	10.464
MS.36          	16.045         	10.48
MS.37          	16.012         	10.472
MS.38          	15.98          	10.47
MS.39          	15.947         	10.472
MS.40          	15.917         	10.47
MS.41          	15.885         	10.472
MS.42          	15.852         	10.476
MS.43          	15.822         	10.462
MS.44          	15.79          	10.449
MS.45          	15.757         	10.462
MS.46          	15.727         	10.468
MS.47          	15.695         	10.468
MS.48          	15.665         	10.474
MS.49          	15.632         	10.468
MS.50          	15.602         	10.484
MS.51          	15.57          	10.476
MS.52          	15.54          	10.48
MS.53          	15.507         	10.498
MS.54          	15.477         	10.498
MS.55          	15.445         	10.486
MS.56          	15.415         	10.496
MS.57          	15.385         	10.484
MS.58          	15.352         	10.474
MS.59          	15.322         	10.468
MS.60          	15.292         	10.472
MS.61          	15.262         	10.476
MS.62          	15.233         	10.484
MS.63          	15.2           	10.488
MS.64          	15.17          	10.494
MS.65          	15.14          	10.498
MS.66          	15.11          	10.484
MS.67          	15.08          	10.496
MS.68          	15.05          	10.492
MS.69          	15.02          	10.494
MS.70          	14.99          	10.504
MS.71          	14.96          	10.484
MS.72          	14.93          	10.498
MS.73          	14.9           	10.492
MS.74          	14.87          	10.512
MS.75          	14.84          	10.504
MS.76          	14.81          	10.492
MS.77          	14.78          	10.502
MS.78          	14.752         	10.498
MS.79          	14.722         	10.494
MS.80          	14.693         	10.5
MS.81          	14.635         	10.47
MS.82          	14.605         	10.47
MS.83          	14.575         	10.456
MS.84          	14.547         	10.458
MS.85          	14.517         	10.451
MS.86          	14.487         	10.456
MS.87          	14.46          	10.466
MS.88          	14.43          	10.478
MS.89          	14.403         	10.472
MS.90          	14.372         	10.472
MS.91          	14.345         	10.488
MS.92          	14.315         	10.466
MS.93          	14.287         	10.447
MS.94          	14.257         	10.447
MS.95          	14.23          	10.458
MS.96          	14.202         	10.47
MS.97          	14.172         	10.451
MS.98          	14.145         	10.462
MS.99          	14.117         	10.464
MS.100         	14.087         	10.468
MS.101         	14.06          	10.466
MS.102         	14.032         	10.46
MS.103         	14.005         	10.49
MS.104         	13.975         	10.49
MS.105         	13.947         	10.496
MS.106         	13.92          	10.508
MS.107         	13.892         	10.5
MS.108         	13.865         	10.52
MS.109         	13.837         	10.518
MS.110         	13.81          	10.52
MS.111         	13.782         	10.51
MS.112         	13.755         	10.504
MS.113         	13.727         	10.516
MS.114         	13.7           	10.512
MS.115         	13.672         	10.514
MS.116         	13.645         	10.52
MS.117         	13.617         	10.506
MS.118         	13.59          	10.504
MS.119         	13.562         	10.508
MS.120         	13.535         	10.51
MS.121         	13.51          	10.502
MS.122         	13.483         	10.512
MS.123         	13.455         	10.516
MS.124         	13.427         	10.512
MS.125         	13.403         	10.506
MS.126         	13.375         	10.5
MS.127         	13.347         	10.51
MS.128         	13.32          	10.514
MS.129         	13.295         	10.506
MS.130         	13.267         	10.496
MS.131         	13.242         	10.5
MS.132         	13.215         	10.5
MS.133         	13.188         	10.508
MS.134         	13.162         	10.514
MS.135         	13.135         	10.512
MS.136         	13.11          	10.516
MS.137         	13.082         	10.524
MS.138         	13.057         	10.52
MS.139         	13.032         	10.522
MS.140         	13.005         	10.522
MS.141         	12.98          	10.528
MS.142         	12.952         	10.538
MS.143         	12.927         	10.54
MS.144         	12.903         	10.536
MS.145         	12.875         	10.534
MS.146         	12.85          	10.532
MS.147         	12.825         	10.542
MS.148         	12.8           	10.536
MS.149         	12.773         	10.526
MS.150         	12.747         	10.54
MS.151         	12.722         	10.53
MS.152         	12.697         	10.528
MS.153         	12.672         	10.52
MS.154         	12.645         	10.53
MS.155         	12.62          	10.52
MS.156         	12.595         	10.53
MS.157         	12.57          	10.53
MS.158         	12.545         	10.528
MS.159         	12.52          	10.534
MS.160         	12.495         	10.536
MS.161         	12.47          	10.54
MS.162         	12.445         	10.538
MS.163         	12.42          	10.528
MS.164         	12.395         	10.534
MS.165         	12.37          	10.538
MS.166         	12.347         	10.528
MS.167         	12.322         	10.526
MS.168         	12.297         	10.516
MS.169         	12.273         	10.522
MS.170         	12.247         	10.516
MS.171         	12.222         	10.532
MS.172         	12.2           	10.522
MS.173         	12.175         	10.522
MS.174         	12.15          	10.532
MS.175         	12.125         	10.52
MS.176         	12.102         	10.53
MS.177         	12.077         	10.536
MS.178         	12.052         	10.506
MS.179         	12.03          	10.532
MS.180         	12.005         	10.522
MS.181         	11.983         	10.524
MS.182         	11.957         	10.522
MS.183         	11.932         	10.534
MS.184         	11.91          	10.534
MS.185         	11.885         	10.53
MS.186         	11.863         	10.542
MS.187         	11.837         	10.542
MS.188         	11.815         	10.544
MS.189         	11.79          	10.548
MS.190         	11.767         	10.528
MS.191         	11.745         	10.526
MS.192         	11.72          	10.5
MS.193         	11.697         	10.498
MS.194         	11.675         	10.494
MS.195         	11.65          	10.506
MS.196         	11.627         	10.512
MS.197         	11.605         	10.51
MS.198         	11.58          	10.512
MS.199         	11.557         	10.52
MS.200         	11.535         	10.53
MS.201         	11.512         	10.516
MS.202         	11.488         	10.526
MS.203         	11.465         	10.54
MS.204         	11.443         	10.54
MS.205         	11.42          	10.538
MS.206         	11.398         	10.542
MS.207         	11.375         	10.554
MS.208         	11.352         	10.568
MS.209         	11.33          	10.558
MS.210         	11.307         	10.55
MS.211         	11.282         	10.536
MS.212         	11.26          	10.542
MS.213         	11.238         	10.556
MS.214         	11.215         	10.572
MS.215         	11.195         	10.552
MS.216         	11.172         	10.552
MS.217         	11.15          	10.56
MS.218         	11.127         	10.556
MS.219         	11.105         	10.534
MS.220         	11.082         	10.544
MS.221         	11.06          	10.538
MS.222         	11.037         	10.55
MS.223         	11.015         	10.562
MS.224         	10.995         	10.54
MS.225         	10.972         	10.518
MS.226         	10.95          	10.53
MS.227         	10.927         	10.546
MS.228         	10.907         	10.53
MS.229         	10.885         	10.536
MS.230         	10.863         	10.556
MS.231         	10.84          	10.526
MS.232         	10.82          	10.538
MS.233         	10.797         	10.544
MS.234         	10.778         	10.512
MS.235         	10.755         	10.536
MS.236         	10.733         	10.54
MS.237         	10.712         	10.552
MS.238         	10.69          	10.379
MS.239         	10.67          	10.375
MS.240         	10.648         	10.367
MS.241         	10.627         	10.383
MS.242         	10.605         	10.385
MS.243         	10.585         	10.373
MS.244         	10.562         	10.381
MS.245         	10.542         	10.381
MS.246         	10.52          	10.389
MS.247         	10.5           	10.385
MS.248         	10.48          	10.552
MS.249         	10.457         	10.379
MS.250         	10.438         	10.377
MS.251         	10.415         	10.383
MS.252         	10.395         	10.552
MS.253         	10.375         	10.375
MS.254         	10.355         	10.381
MS.255         	10.332         	10.373
MS.256         	10.312         	10.387
MS.257         	10.292         	10.367
MS.258         	10.273         	10.365
MS.259         	10.25          	10.367
MS.260         	10.23          	10.379
MS.261         	10.21          	10.429
MS.262         	10.19          	10.381
MS.263         	10.17          	10.369
MS.264         	10.15          	10.389
MS.265         	10.127         	10.373
MS.266         	10.108         	10.389
MS.267         	10.087         	10.379
MS.268         	10.068         	10.363
MS.269         	10.047         	10.389
MS.270         	10.028         	10.351
MS.271         	10.007         	10.367
MS.272         	9.988          	10.379
MS.273         	9.967          	10.397
MS.274         	9.948          	10.377
MS.275         	9.927          	10.387
MS.276         	9.907          	10.381
MS.277         	9.887          	10.383
MS.278         	9.867          	10.399
MS.279         	9.85           	10.409
MS.280         	9.83           	10.411
MS.281         	9.81           	10.381
MS.282         	9.79           	10.393
MS.283         	9.77           	10.371
MS.284         	9.75           	10.393
MS.285         	9.733          	10.393
MS.286         	9.712          	10.399
MS.287         	9.693          	10.401
MS.288         	9.672          	10.397
MS.289         	9.655          	10.401
MS.290         	9.635          	10.409
MS.291         	9.615          	10.429
MS.292         	9.595          	10.458
MS.293         	9.577          	10.407
MS.294         	9.557          	10.427
MS.295         	9.537          	10.417
MS.296         	9.52           	10.417
MS.297         	9.5            	10.411
MS.298         	9.483          	10.425
MS.299         	9.462          	10.353
MS.300         	9.445          	10.429
MS.301         	9.425          	10.425
MS.302         	9.405          	10.433
MS.303         	9.387          	10.363
MS.304         	9.367          	10.339
MS.305         	9.35           	10.401
MS.306         	9.33           	10.433
MS.307         	9.312          	10.327
MS.308         	9.295          	10.357
MS.309         	9.275          	10.345
MS.310         	9.257          	10.46
MS.311         	9.238          	10.373
MS.312         	9.22           	10.365
MS.313         	9.202          	10.339
MS.314         	9.182          	10.425
MS.315         	9.165          	10.375
MS.316         	9.148          	10.274
MS.317         	9.127          	10.341
MS.318         	9.11           	10.335
MS.319         	9.092          	10.345
MS.320         	9.073          	10.357
MS.321         	9.055          	10.339
MS.322         	9.037          	10.331
MS.323         	9.02           	10.345
MS.324         	9              	10.339
MS.325         	8.983          	10.361
MS.326         	8.965          	10.266
MS.327         	8.948          	10.361
MS.328         	8.93           	10.262
MS.329         	8.912          	10.27
MS.330         	8.895          	10.351
MS.331         	8.875          	10.365
MS.332         	8.858          	10.276
MS.333         	8.84           	10.274
MS.334         	8.823          	10.272
MS.335         	8.805          	10.371
MS.336         	8.787          	10.276
MS.337         	8.77           	10.359
MS.338         	8.752          	10.371
MS.339         	8.735          	10.28
MS.340         	8.717          	10.278
MS.341         	8.7            	10.266
MS.342         	8.682          	10.266
MS.343         	8.665          	10.266
MS.344         	8.648          	10.272
MS.345         	8.63           	10.28
MS.346         	8.613          	10.266
MS.347         	8.597          	10.254
MS.348         	8.58           	10.276
MS.349         	8.562          	10.276
MS.350         	8.545          	10.272
MS.351         	8.528          	10.288
MS.352         	8.51           	10.298
MS.353         	8.495          	10.288
MS.354         	8.477          	10.302
MS.355         	8.46           	10.306
MS.356         	8.443          	10.3
MS.357         	8.427          	10.31
MS.358         	8.41           	10.294
MS.359         	8.392          	10.292
MS.360         	8.375          	10.294
MS.361         	8.36           	10.31
MS.362         	8.342          	10.3
MS.363         	8.325          	10.304
MS.364         	8.31           	10.306
MS.365         	8.292          	10.315
MS.366         	8.275          	10.312
MS.367         	8.26           	10.3
MS.368         	8.242          	10.321
MS.369         	8.227          	10.321
MS.370         	8.21           	10.312
MS.371         	8.193          	10.294
MS.372         	8.177          	10.137
MS.373         	8.16           	10.288
MS.374         	8.145          	10.159
MS.375         	8.127          	10.167
MS.376         	8.113          	10.159
MS.377         	8.095          	10.161
MS.378         	8.08           	10.165
MS.379         	8.062          	10.163
MS.380         	8.047          	10.161
MS.381         	8.033          	10.153
MS.382         	8.015          	10.153
MS.383         	8              	10.296
MS.384         	7.982          	10.161
MS.385         	7.967          	10.157
MS.386         	7.952          	10.167
MS.387         	7.935          	10.167
MS.388         	7.92           	10.174
MS.389         	7.905          	10.178
MS.390         	7.887          	9.626
MS.391         	7.872          	9.789
MS.392         	7.857          	10.161
MS.393         	7.84           	10.004
MS.394         	7.825          	10.155
MS.395         	7.81           	10.024
MS.396         	7.795          	10.174
MS.397         	7.777          	10.031
MS.398         	7.762          	10.184
MS.399         	7.747          	9.9
MS.400         	7.732          	10.093
MS.401         	7.717          	9.908
MS.402         	7.7            	9.944
MS.403         	7.685          	9.952
MS.404         	7.67           	10.069
MS.405         	7.655          	9.859
MS.406         	7.64           	9.922
MS.407         	7.625          	9.938
MS.408         	7.61           	9.535
MS.409         	7.595          	9.483
MS.410         	7.58           	9.62
MS.411         	7.562          	9.696
MS.412         	7.547          	9.688
MS.413         	7.532          	9.408
MS.414         	7.517          	9.529
MS.415         	7.503          	9.442
MS.416         	7.487          	9.424
MS.417         	7.472          	9.438
MS.418         	7.457          	9.418
MS.419         	7.442          	9.324
MS.420         	7.427          	9.418
MS.421         	7.415          	9.368
MS.422         	7.4            	9.307
MS.423         	7.385          	9.305
MS.424         	7.37           	9.322
MS.425         	7.355          	9.279
MS.426         	7.34           	9.239
MS.427         	7.325          	9.259
MS.428         	7.31           	9.217
MS.429         	7.295          	8.999
MS.430         	7.282          	8.864
MS.431         	7.267          	9.177
MS.432         	7.253          	9.215
MS.433         	7.237          	8.566
MS.434         	7.222          	8.882
MS.435         	7.21           	8.919
MS.436         	7.195          	8.965
MS.437         	7.18           	8.369
MS.438         	7.165          	8.546
MS.439         	7.152          	8.512
MS.440         	7.137          	8.933
MS.441         	7.122          	8.292
MS.442         	7.11           	7.93
MS.443         	7.095          	9.134
MS.444         	7.08           	8.339
MS.445         	7.067          	8.357
MS.446         	7.052          	8.655
MS.447         	7.037          	8.443
MS.448         	7.025          	7.914
MS.449         	7.01           	7.924
MS.450         	6.995          	8.202
MS.451         	6.983          	8.675
MS.452         	6.967          	7.734
MS.453         	6.955          	8.131
MS.454         	6.94           	6.864
MS.455         	6.927          	7.664
MS.456         	6.912          	7.986
MS.457         	6.9            	7.446
MS.458         	6.885          	7.471
MS.459         	6.872          	7.585
MS.460         	6.858          	6.739
MS.461         	6.845          	6.739
MS.462         	6.83           	7.257
MS.463         	6.817          	7.525
MS.464         	6.802          	6.23
MS.465         	6.79           	5.974
MS.466         	6.775          	6.762
MS.467         	6.762          	5.996
MS.468         	6.747          	5.698
MS.469         	6.735          	5.585
MS.470         	6.722          	5.555
MS.471         	6.707          	5.317
MS.472         	6.695          	5.95
MS.473         	6.682          	5.41
MS.474         	6.668          	5.14
MS.475         	6.655          	5.682
MS.476         	6.642          	5.295
MS.477         	6.628          	5.765
MS.478         	6.615          	5.217
MS.479         	6.602          	5.09
MS.480         	6.587          	4.909
MS.481         	6.575          	4.693
MS.482         	6.562          	4.731
MS.483         	6.55           	4.786
MS.484         	6.535          	5.142
MS.485         	6.523          	4.461
MS.486         	6.51           	4.731
MS.487         	6.497          	4.395
MS.488         	6.485          	4.653
MS.489         	6.47           	4.367
MS.490         	6.457          	4.057
MS.491         	6.445          	4.111
