File:              	C:\Qtrac\Data\Daniel M Sørensen\MScan multicentre study\Data from centres\Roskilde\Folders with NC-examinations\ROS_N4a\MBC00331C.QZD
Name:              	DK.ROS.NC.4.1
Protocol:          	MSCAN-R2
Date:              	31/3/20
Start time:        	12:57:17
Age:               	40
Sex:               	f
Temperature:       	34.8
S/R sites:         	Median Wr-APB
NC/disease:        	NC
Operator:          	MB
Comments:
M-SCAN DATA (8.2-1.7m)
Scanpts: 224, 232, 604, 619
Stim. (mA)     	Amp. (mV)
MS.1           	17.5           	5.765
MS.2           	17.5           	5.769
MS.3           	17.5           	5.763
MS.4           	17.5           	5.752
MS.5           	17.5           	5.76
MS.6           	17.5           	5.787
MS.7           	17.5           	5.815
MS.8           	17.5           	5.803
MS.9           	17.5           	5.807
MS.10          	17.5           	5.797
MS.11          	17.5           	5.795
MS.12          	17.5           	5.756
MS.13          	17.5           	5.773
MS.14          	17.5           	5.763
MS.15          	17.5           	5.791
MS.16          	17.5           	5.787
MS.17          	17.5           	5.791
MS.18          	17.5           	5.823
MS.19          	17.5           	5.835
MS.20          	17.5           	5.823
MS.21          	17.5           	5.815
MS.22          	17.5           	5.825
MS.23          	17.5           	5.835
MS.24          	17.43          	5.851
MS.25          	17.395         	5.851
MS.26          	17.36          	5.843
MS.27          	17.325         	5.873
MS.28          	17.29          	5.883
MS.29          	17.257         	5.893
MS.30          	17.222         	5.91
MS.31          	17.188         	5.916
MS.32          	17.153         	5.924
MS.33          	17.12          	5.93
MS.34          	17.085         	6.004
MS.35          	17.05          	6.018
MS.36          	17.017         	6.044
MS.37          	16.983         	6.022
MS.38          	16.95          	6.016
MS.39          	16.915         	5.992
MS.40          	16.88          	6.03
MS.41          	16.847         	6.075
MS.42          	16.812         	6.047
MS.43          	16.78          	6.063
MS.44          	16.747         	6.057
MS.45          	16.712         	6.099
MS.46          	16.68          	6.099
MS.47          	16.647         	6.075
MS.48          	16.612         	6.061
MS.49          	16.58          	6.03
MS.50          	16.547         	6.026
MS.51          	16.515         	6.024
MS.52          	16.48          	6
MS.53          	16.448         	6.006
MS.54          	16.415         	6.022
MS.55          	16.382         	6.004
MS.56          	16.35          	6.028
MS.57          	16.317         	5.98
MS.58          	16.285         	5.998
MS.59          	16.253         	6
MS.60          	16.22          	5.988
MS.61          	16.188         	5.97
MS.62          	16.155         	6.008
MS.63          	16.122         	6.032
MS.64          	16.09          	6.036
MS.65          	16.057         	6.034
MS.66          	16.025         	6.014
MS.67          	15.992         	6.028
MS.68          	15.962         	6.053
MS.69          	15.93          	6.018
MS.70          	15.898         	6.01
MS.71          	15.867         	6.044
MS.72          	15.835         	6.026
MS.73          	15.802         	6.006
MS.74          	15.773         	6.022
MS.75          	15.74          	6.036
MS.76          	15.707         	6.042
MS.77          	15.677         	6.034
MS.78          	15.645         	6.028
MS.79          	15.615         	6.047
MS.80          	15.582         	6.047
MS.81          	15.552         	6.02
MS.82          	15.52          	6.032
MS.83          	15.49          	6.04
MS.84          	15.46          	6.03
MS.85          	15.427         	5.982
MS.86          	15.398         	6
MS.87          	15.367         	5.984
MS.88          	15.335         	5.99
MS.89          	15.305         	6.004
MS.90          	15.275         	5.99
MS.91          	15.245         	5.988
MS.92          	15.212         	6.006
MS.93          	15.182         	5.99
MS.94          	15.152         	6.01
MS.95          	15.122         	6.01
MS.96          	15.092         	5.99
MS.97          	15.062         	5.996
MS.98          	15.032         	5.994
MS.99          	15.002         	5.992
MS.100         	14.972         	6.006
MS.101         	14.943         	5.984
MS.102         	14.912         	5.99
MS.103         	14.882         	6
MS.104         	14.852         	6.018
MS.105         	14.822         	6.006
MS.106         	14.792         	6.002
MS.107         	14.765         	5.994
MS.108         	14.735         	5.996
MS.109         	14.705         	5.99
MS.110         	14.675         	5.992
MS.111         	14.648         	5.942
MS.112         	14.617         	5.984
MS.113         	14.587         	5.99
MS.114         	14.56          	5.992
MS.115         	14.53          	5.974
MS.116         	14.5           	5.994
MS.117         	14.472         	5.976
MS.118         	14.443         	5.99
MS.119         	14.415         	5.982
MS.120         	14.385         	5.996
MS.121         	14.358         	5.992
MS.122         	14.327         	5.998
MS.123         	14.3           	6.01
MS.124         	14.27          	5.998
MS.125         	14.242         	6.008
MS.126         	14.212         	6.014
MS.127         	14.185         	5.998
MS.128         	14.157         	6.008
MS.129         	14.127         	6.006
MS.130         	14.1           	6.04
MS.131         	14.072         	6.03
MS.132         	14.045         	6.014
MS.133         	14.015         	6.014
MS.134         	13.987         	6.01
MS.135         	13.96          	6.016
MS.136         	13.932         	6.034
MS.137         	13.905         	6.022
MS.138         	13.877         	6.016
MS.139         	13.85          	6.022
MS.140         	13.82          	6.022
MS.141         	13.792         	6.024
MS.142         	13.765         	6.028
MS.143         	13.737         	6.034
MS.144         	13.71          	6.044
MS.145         	13.682         	6.026
MS.146         	13.655         	6.018
MS.147         	13.63          	6.022
MS.148         	13.602         	6.016
MS.149         	13.575         	6.036
MS.150         	13.547         	6.02
MS.151         	13.52          	6.02
MS.152         	13.492         	6.012
MS.153         	13.467         	6.014
MS.154         	13.44          	6.01
MS.155         	13.412         	6.008
MS.156         	13.385         	6.01
MS.157         	13.36          	6.01
MS.158         	13.332         	6.014
MS.159         	13.305         	6.008
MS.160         	13.28          	6.002
MS.161         	13.252         	6.01
MS.162         	13.225         	6.016
MS.163         	13.2           	6.016
MS.164         	13.172         	6.028
MS.165         	13.148         	6.016
MS.166         	13.12          	6.026
MS.167         	13.095         	6.006
MS.168         	13.068         	6.014
MS.169         	13.042         	6.024
MS.170         	13.015         	6.022
MS.171         	12.99          	6.032
MS.172         	12.965         	6.034
MS.173         	12.938         	6.04
MS.174         	12.912         	6.032
MS.175         	12.887         	6.034
MS.176         	12.86          	6.04
MS.177         	12.835         	6.018
MS.178         	12.81          	6.01
MS.179         	12.785         	6.028
MS.180         	12.757         	6.024
MS.181         	12.733         	6.02
MS.182         	12.707         	6.006
MS.183         	12.682         	6.016
MS.184         	12.657         	6.014
MS.185         	12.632         	6.026
MS.186         	12.608         	6.014
MS.187         	12.58          	6.03
MS.188         	12.555         	6.016
MS.189         	12.53          	6.036
MS.190         	12.505         	6.047
MS.191         	12.48          	6.047
MS.192         	12.455         	6.044
MS.193         	12.43          	6.049
MS.194         	12.405         	6.057
MS.195         	12.382         	6.049
MS.196         	12.358         	6.051
MS.197         	12.332         	6.051
MS.198         	12.307         	6.049
MS.199         	12.282         	6.044
MS.200         	12.257         	6.038
MS.201         	12.233         	6.04
MS.202         	12.21          	6.024
MS.203         	12.185         	6.024
MS.204         	12.16          	6.028
MS.205         	12.135         	6.038
MS.206         	12.113         	6.032
MS.207         	12.087         	6.034
MS.208         	12.062         	6.036
MS.209         	12.04          	6.022
MS.210         	12.015         	6.044
MS.211         	11.992         	6.036
MS.212         	11.967         	6.04
MS.213         	11.943         	6.04
MS.214         	11.92          	6.049
MS.215         	11.895         	6.049
MS.216         	11.872         	6.067
MS.217         	11.847         	6.055
MS.218         	11.825         	6.057
MS.219         	11.8           	6.051
MS.220         	11.778         	6.059
MS.221         	11.755         	6.053
MS.222         	11.73          	6.057
MS.223         	11.707         	6.044
MS.224         	11.682         	6.055
MS.225         	11.66          	6.053
MS.226         	11.637         	6.044
MS.227         	11.615         	6.057
MS.228         	11.59          	6.067
MS.229         	11.568         	6.069
MS.230         	11.545         	6.071
MS.231         	11.523         	6.069
MS.232         	11.497         	6.059
MS.233         	11.475         	6.053
MS.234         	11.452         	6.067
MS.235         	11.43          	6.047
MS.236         	11.407         	6.038
MS.237         	11.385         	6.049
MS.238         	11.36          	6.079
MS.239         	11.337         	6.081
MS.240         	11.315         	6.055
MS.241         	11.292         	6.065
MS.242         	11.27          	6.067
MS.243         	11.247         	6.057
MS.244         	11.225         	6.065
MS.245         	11.202         	6.065
MS.246         	11.18          	6.057
MS.247         	11.157         	6.077
MS.248         	11.135         	6.087
MS.249         	11.115         	6.079
MS.250         	11.092         	6.085
MS.251         	11.07          	6.057
MS.252         	11.047         	6.069
MS.253         	11.025         	6.087
MS.254         	11.002         	6.071
MS.255         	10.983         	6.057
MS.256         	10.96          	6.077
MS.257         	10.938         	6.081
MS.258         	10.915         	6.083
MS.259         	10.895         	6.055
MS.260         	10.872         	6.075
MS.261         	10.85          	6.075
MS.262         	10.827         	6.075
MS.263         	10.807         	6.071
MS.264         	10.785         	6.069
MS.265         	10.765         	6.059
MS.266         	10.742         	6.053
MS.267         	10.72          	5.926
MS.268         	10.7           	5.889
MS.269         	10.677         	6.032
MS.270         	10.657         	5.932
MS.271         	10.635         	5.777
MS.272         	10.615         	6.047
MS.273         	10.592         	5.692
MS.274         	10.573         	5.654
MS.275         	10.55          	5.646
MS.276         	10.53          	5.781
MS.277         	10.507         	5.666
MS.278         	10.488         	5.652
MS.279         	10.467         	5.795
MS.280         	10.445         	5.66
MS.281         	10.425         	5.652
MS.282         	10.405         	5.668
MS.283         	10.382         	5.66
MS.284         	10.363         	5.682
MS.285         	10.342         	5.64
MS.286         	10.32          	5.672
MS.287         	10.3           	5.66
MS.288         	10.28          	5.672
MS.289         	10.26          	5.68
MS.290         	10.24          	5.672
MS.291         	10.217         	5.67
MS.292         	10.198         	5.68
MS.293         	10.177         	5.674
MS.294         	10.157         	5.613
MS.295         	10.137         	5.648
MS.296         	10.117         	5.593
MS.297         	10.097         	5.611
MS.298         	10.077         	5.531
MS.299         	10.057         	5.525
MS.300         	10.035         	5.553
MS.301         	10.015         	5.573
MS.302         	9.995          	5.609
MS.303         	9.975          	5.573
MS.304         	9.955          	5.503
MS.305         	9.938          	5.597
MS.306         	9.917          	5.483
MS.307         	9.898          	5.531
MS.308         	9.877          	5.517
MS.309         	9.858          	5.483
MS.310         	9.837          	5.515
MS.311         	9.818          	5.428
MS.312         	9.797          	5.547
MS.313         	9.778          	5.505
MS.314         	9.76           	5.468
MS.315         	9.74           	5.434
MS.316         	9.72           	5.364
MS.317         	9.7            	5.392
MS.318         	9.682          	5.398
MS.319         	9.662          	5.468
MS.320         	9.642          	5.338
MS.321         	9.622          	5.364
MS.322         	9.605          	5.162
MS.323         	9.585          	5.253
MS.324         	9.565          	5.342
MS.325         	9.547          	5.07
MS.326         	9.528          	5.261
MS.327         	9.507          	5.251
MS.328         	9.49           	5.251
MS.329         	9.47           	5.184
MS.330         	9.452          	4.983
MS.331         	9.432          	5.07
MS.332         	9.415          	4.969
MS.333         	9.395          	4.973
MS.334         	9.377          	4.751
MS.335         	9.358          	4.838
MS.336         	9.34           	4.812
MS.337         	9.32           	4.61
MS.338         	9.302          	4.862
MS.339         	9.283          	4.721
MS.340         	9.265          	4.727
MS.341         	9.245          	4.717
MS.342         	9.227          	4.639
MS.343         	9.21           	4.532
MS.344         	9.19           	4.437
MS.345         	9.172          	4.548
MS.346         	9.155          	4.616
MS.347         	9.135          	4.3
MS.348         	9.117          	4.282
MS.349         	9.1            	4.179
MS.350         	9.08           	4.21
MS.351         	9.062          	4.308
MS.352         	9.045          	4.27
MS.353         	9.028          	4.222
MS.354         	9.01           	3.549
MS.355         	8.99           	3.984
MS.356         	8.972          	3.75
MS.357         	8.955          	3.638
MS.358         	8.938          	3.978
MS.359         	8.92           	3.541
MS.360         	8.903          	3.474
MS.361         	8.882          	3.918
MS.362         	8.865          	3.712
MS.363         	8.847          	3.184
MS.364         	8.83           	3.178
MS.365         	8.812          	3.321
MS.366         	8.795          	3.341
MS.367         	8.778          	3.11
MS.368         	8.76           	3.09
MS.369         	8.742          	3.126
MS.370         	8.725          	2.919
MS.371         	8.707          	2.941
MS.372         	8.69           	3.511
MS.373         	8.672          	2.759
MS.374         	8.655          	2.902
MS.375         	8.637          	2.741
MS.376         	8.62           	2.993
MS.377         	8.602          	2.786
MS.378         	8.587          	2.745
MS.379         	8.57           	2.651
MS.380         	8.552          	2.592
MS.381         	8.535          	2.598
MS.382         	8.517          	2.483
MS.383         	8.5            	2.532
MS.384         	8.485          	2.584
MS.385         	8.467          	2.459
MS.386         	8.45           	2.334
MS.387         	8.432          	2.447
MS.388         	8.417          	2.437
MS.389         	8.4            	2.401
MS.390         	8.382          	2.157
MS.391         	8.365          	2.165
MS.392         	8.35           	2.167
MS.393         	8.332          	2.228
MS.394         	8.315          	2.423
MS.395         	8.3            	2.282
MS.396         	8.283          	2.147
MS.397         	8.267          	2.157
MS.398         	8.25           	2.23
MS.399         	8.233          	2.087
MS.400         	8.217          	2.173
MS.401         	8.2            	2.073
MS.402         	8.185          	2.203
MS.403         	8.167          	2.01
MS.404         	8.153          	2.014
MS.405         	8.135          	2.006
MS.406         	8.12           	1.928
MS.407         	8.102          	1.875
MS.408         	8.087          	1.962
MS.409         	8.07           	1.956
MS.410         	8.055          	1.791
MS.411         	8.037          	1.855
MS.412         	8.023          	1.837
MS.413         	8.005          	1.708
MS.414         	7.99           	1.915
MS.415         	7.975          	1.839
MS.416         	7.957          	1.785
MS.417         	7.942          	1.819
MS.418         	7.927          	1.714
MS.419         	7.91           	1.704
MS.420         	7.895          	1.583
MS.421         	7.88           	1.686
MS.422         	7.862          	1.605
MS.423         	7.847          	1.448
MS.424         	7.832          	1.559
MS.425         	7.815          	1.539
MS.426         	7.8            	1.414
MS.427         	7.785          	1.402
MS.428         	7.77           	1.352
MS.429         	7.755          	1.285
MS.430         	7.737          	1.486
MS.431         	7.722          	1.291
MS.432         	7.707          	1.196
MS.433         	7.692          	1.255
MS.434         	7.677          	1.202
MS.435         	7.662          	1.211
MS.436         	7.645          	1.18
MS.437         	7.63           	1.231
MS.438         	7.615          	1.206
MS.439         	7.6            	1.041
MS.440         	7.585          	1.154
MS.441         	7.57           	1.084
MS.442         	7.555          	1.14
MS.443         	7.54           	1.118
MS.444         	7.525          	0.906
MS.445         	7.51           	1.098
MS.446         	7.495          	0.908
MS.447         	7.48           	1.092
MS.448         	7.465          	0.985
MS.449         	7.45           	0.914
MS.450         	7.435          	0.91
MS.451         	7.42           	0.84
MS.452         	7.405          	0.79
MS.453         	7.39           	0.969
MS.454         	7.375          	0.858
MS.455         	7.36           	0.87
MS.456         	7.347          	0.659
MS.457         	7.332          	0.707
MS.458         	7.317          	0.701
MS.459         	7.302          	0.556
MS.460         	7.287          	0.689
MS.461         	7.273          	0.63
MS.462         	7.257          	0.556
MS.463         	7.245          	0.719
MS.464         	7.23           	0.649
MS.465         	7.215          	0.506
MS.466         	7.2            	0.469
MS.467         	7.188          	0.447
MS.468         	7.172          	0.504
MS.469         	7.157          	0.485
MS.470         	7.142          	0.439
MS.471         	7.13           	0.457
MS.472         	7.115          	0.407
MS.473         	7.1            	0.387
MS.474         	7.087          	0.413
MS.475         	7.072          	0.381
MS.476         	7.057          	0.308
MS.477         	7.045          	0.463
MS.478         	7.03           	0.33
MS.479         	7.015          	0.403
MS.480         	7.003          	0.423
MS.481         	6.987          	0.385
MS.482         	6.975          	0.209
MS.483         	6.96           	0.191
MS.484         	6.945          	0.326
MS.485         	6.932          	0.234
MS.486         	6.918          	0.185
MS.487         	6.905          	0.33
MS.488         	6.89           	0.354
MS.489         	6.878          	0.276
MS.490         	6.862          	0.207
MS.491         	6.85           	0.306
MS.492         	6.835          	0.181
MS.493         	6.822          	0.179
MS.494         	6.807          	0.328
MS.495         	6.795          	0.177
MS.496         	6.782          	0.163
MS.497         	6.767          	0.175
MS.498         	6.755          	0.185
MS.499         	6.74           	0.179
MS.500         	6.727          	0.177
MS.501         	6.715          	0.183
