File:              	C:\Qtrac\Data\Daniel M Sørensen\MScan multicentre study\Data from centres\Toronto\Processed data\MSCC01203A.QZD
Name:              	CA.TOR.NC.8.1
Protocol:          	MSCAN-R2
Date:              	3/12/20
Start time:        	14:41:30
Age:               	29
Sex:               	F
Temperature:       	32.1
S/R sites:         	APB
NC/disease:        	NC
Operator:          	LP
Comments:          	difficulty relaxing
M-SCAN DATA (7.8-1.8m)
Scanpts: 13, 27, 618, 639
Stim. (mA)     	Amp. (mV)
MS.1           	15.5           	15.06
MS.2           	15.5           	15.054
MS.3           	15.5           	15.044
MS.4           	15.5           	15.048
MS.5           	15.5           	15.034
MS.6           	15.5           	15.038
MS.7           	15.5           	15.07
MS.8           	15.5           	15.062
MS.9           	15.5           	15.048
MS.10          	15.5           	15.036
MS.11          	15.5           	15.064
MS.12          	15.5           	15.056
MS.13          	15.5           	15.064
MS.14          	15.5           	15.078
MS.15          	15.5           	15.052
MS.16          	15.5           	15.076
MS.17          	15.5           	15.068
MS.18          	15.5           	15.078
MS.19          	15.5           	15.078
MS.20          	15.5           	15.078
MS.21          	15.5           	15.078
MS.22          	15.5           	15.116
MS.23          	15.5           	15.12
MS.24          	15.438         	15.108
MS.25          	15.407         	15.108
MS.26          	15.377         	15.118
MS.27          	15.345         	15.096
MS.28          	15.315         	15.076
MS.29          	15.285         	15.076
MS.30          	15.255         	15.064
MS.31          	15.222         	15.076
MS.32          	15.193         	15.028
MS.33          	15.162         	15.056
MS.34          	15.132         	15.064
MS.35          	15.102         	15.06
MS.36          	15.072         	15.05
MS.37          	15.042         	15.074
MS.38          	15.012         	15.076
MS.39          	14.983         	15.106
MS.40          	14.952         	15.1
MS.41          	14.922         	15.068
MS.42          	14.892         	15.06
MS.43          	14.862         	15.084
MS.44          	14.832         	14.949
MS.45          	14.802         	14.943
MS.46          	14.773         	14.917
MS.47          	14.745         	15.022
MS.48          	14.715         	14.997
MS.49          	14.685         	15.012
MS.50          	14.655         	14.961
MS.51          	14.627         	15.028
MS.52          	14.597         	14.826
MS.53          	14.568         	14.862
MS.54          	14.54          	14.796
MS.55          	14.51          	14.788
MS.56          	14.48          	14.836
MS.57          	14.452         	14.778
MS.58          	14.422         	14.736
MS.59          	14.395         	14.78
MS.60          	14.365         	14.784
MS.61          	14.337         	14.719
MS.62          	14.307         	14.683
MS.63          	14.28          	14.766
MS.64          	14.25          	14.74
MS.65          	14.222         	14.719
MS.66          	14.195         	14.758
MS.67          	14.165         	14.826
MS.68          	14.137         	14.744
MS.69          	14.11          	14.693
MS.70          	14.08          	14.639
MS.71          	14.052         	14.689
MS.72          	14.025         	14.73
MS.73          	13.997         	14.689
MS.74          	13.97          	14.707
MS.75          	13.94          	14.675
MS.76          	13.912         	14.585
MS.77          	13.885         	14.736
MS.78          	13.858         	14.728
MS.79          	13.83          	14.685
MS.80          	13.802         	14.699
MS.81          	13.775         	14.615
MS.82          	13.747         	14.758
MS.83          	13.72          	14.726
MS.84          	13.693         	14.653
MS.85          	13.665         	14.587
MS.86          	13.637         	14.607
MS.87          	13.61          	14.593
MS.88          	13.582         	14.587
MS.89          	13.555         	14.581
MS.90          	13.53          	14.623
MS.91          	13.502         	14.415
MS.92          	13.475         	14.528
MS.93          	13.447         	14.748
MS.94          	13.42          	14.576
MS.95          	13.395         	14.556
MS.96          	13.367         	14.631
MS.97          	13.34          	14.512
MS.98          	13.315         	14.456
MS.99          	13.287         	14.427
MS.100         	13.26          	14.303
MS.101         	13.235         	14.288
MS.102         	13.207         	14.305
MS.103         	13.182         	14.274
MS.104         	13.155         	14.482
MS.105         	13.13          	14.137
MS.106         	13.102         	14.212
MS.107         	13.077         	14.037
MS.108         	13.05          	14.037
MS.109         	13.025         	14.204
MS.110         	12.997         	14.224
MS.111         	12.972         	14.192
MS.112         	12.947         	13.956
MS.113         	12.92          	14.19
MS.114         	12.895         	14.002
MS.115         	12.87          	13.855
MS.116         	12.842         	13.952
MS.117         	12.818         	13.928
MS.118         	12.792         	13.811
MS.119         	12.767         	13.668
MS.120         	12.74          	13.771
MS.121         	12.715         	13.537
MS.122         	12.69          	13.438
MS.123         	12.665         	13.749
MS.124         	12.64          	13.632
MS.125         	12.615         	13.61
MS.126         	12.59          	13.473
MS.127         	12.565         	13.43
MS.128         	12.54          	13.654
MS.129         	12.515         	13.662
MS.130         	12.49          	13.761
MS.131         	12.465         	13.422
MS.132         	12.44          	13.636
MS.133         	12.415         	13.559
MS.134         	12.39          	13.692
MS.135         	12.365         	13.217
MS.136         	12.34          	13.654
MS.137         	12.315         	13.312
MS.138         	12.29          	12.971
MS.139         	12.265         	13.344
MS.140         	12.242         	13.364
MS.141         	12.217         	13.239
MS.142         	12.193         	13.392
MS.143         	12.167         	13.11
MS.144         	12.145         	13.352
MS.145         	12.12          	12.937
MS.146         	12.095         	13.362
MS.147         	12.072         	12.985
MS.148         	12.047         	13.14
MS.149         	12.023         	13.646
MS.150         	12             	12.967
MS.151         	11.975         	13.001
MS.152         	11.95          	12.991
MS.153         	11.927         	13.034
MS.154         	11.903         	13.154
MS.155         	11.88          	13.616
MS.156         	11.855         	13.521
MS.157         	11.832         	13.636
MS.158         	11.807         	13.898
MS.159         	11.785         	13.686
MS.160         	11.762         	13.64
MS.161         	11.738         	13.708
MS.162         	11.715         	13.646
MS.163         	11.69          	13.61
MS.164         	11.667         	13.747
MS.165         	11.645         	13.493
MS.166         	11.622         	13.575
MS.167         	11.597         	13.553
MS.168         	11.575         	13.189
MS.169         	11.552         	13.684
MS.170         	11.528         	13.179
MS.171         	11.505         	13.211
MS.172         	11.483         	13.449
MS.173         	11.46          	13.193
MS.174         	11.438         	13.308
MS.175         	11.415         	13.142
MS.176         	11.39          	13.362
MS.177         	11.367         	13.022
MS.178         	11.345         	13.011
MS.179         	11.322         	12.925
MS.180         	11.3           	13.132
MS.181         	11.278         	12.963
MS.182         	11.255         	13.199
MS.183         	11.233         	13.12
MS.184         	11.21          	12.927
MS.185         	11.188         	12.949
MS.186         	11.165         	12.879
MS.187         	11.142         	12.858
MS.188         	11.12          	12.794
MS.189         	11.1           	12.766
MS.190         	11.077         	12.84
MS.191         	11.055         	12.713
MS.192         	11.032         	12.669
MS.193         	11.01          	12.603
MS.194         	10.988         	12.738
MS.195         	10.967         	12.647
MS.196         	10.945         	12.651
MS.197         	10.922         	12.52
MS.198         	10.9           	12.742
MS.199         	10.88          	12.689
MS.200         	10.858         	12.528
MS.201         	10.835         	12.641
MS.202         	10.815         	12.504
MS.203         	10.792         	12.488
MS.204         	10.77          	12.5
MS.205         	10.75          	12.452
MS.206         	10.727         	12.454
MS.207         	10.707         	12.48
MS.208         	10.685         	12.5
MS.209         	10.662         	12.456
MS.210         	10.642         	12.435
MS.211         	10.62          	12.49
MS.212         	10.6           	12.458
MS.213         	10.577         	12.417
MS.214         	10.557         	12.448
MS.215         	10.537         	12.435
MS.216         	10.515         	12.464
MS.217         	10.495         	12.466
MS.218         	10.472         	12.468
MS.219         	10.452         	12.371
MS.220         	10.432         	12.435
MS.221         	10.41          	12.448
MS.222         	10.39          	12.464
MS.223         	10.37          	12.46
MS.224         	10.347         	12.331
MS.225         	10.327         	12.425
MS.226         	10.307         	12.458
MS.227         	10.287         	12.329
MS.228         	10.265         	12.313
MS.229         	10.245         	12.319
MS.230         	10.225         	12.315
MS.231         	10.205         	12.276
MS.232         	10.185         	12.315
MS.233         	10.165         	12.305
MS.234         	10.142         	12.371
MS.235         	10.122         	12.309
MS.236         	10.102         	12.296
MS.237         	10.082         	12.415
MS.238         	10.062         	12.244
MS.239         	10.042         	12.331
MS.240         	10.023         	12.29
MS.241         	10.002         	12.236
MS.242         	9.983          	12.226
MS.243         	9.962          	12.337
MS.244         	9.943          	12.307
MS.245         	9.922          	12.294
MS.246         	9.903          	12.321
MS.247         	9.882          	12.302
MS.248         	9.863          	12.288
MS.249         	9.842          	12.236
MS.250         	9.825          	12.238
MS.251         	9.805          	12.262
MS.252         	9.785          	12.198
MS.253         	9.765          	12.2
MS.254         	9.745          	12.264
MS.255         	9.727          	12.206
MS.256         	9.707          	12.194
MS.257         	9.688          	12.234
MS.258         	9.667          	12.204
MS.259         	9.65           	12.17
MS.260         	9.63           	12.202
MS.261         	9.61           	12.208
MS.262         	9.59           	11.896
MS.263         	9.573          	12.18
MS.264         	9.552          	12.147
MS.265         	9.532          	12.168
MS.266         	9.515          	12.155
MS.267         	9.495          	12.198
MS.268         	9.477          	12.153
MS.269         	9.457          	11.875
MS.270         	9.44           	12.196
MS.271         	9.42           	11.908
MS.272         	9.4            	12.168
MS.273         	9.382          	12.155
MS.274         	9.363          	12.145
MS.275         	9.345          	11.71
MS.276         	9.327          	12.131
MS.277         	9.307          	11.875
MS.278         	9.29           	11.914
MS.279         	9.27           	11.698
MS.280         	9.252          	11.928
MS.281         	9.233          	11.801
MS.282         	9.215          	11.928
MS.283         	9.198          	11.936
MS.284         	9.177          	11.761
MS.285         	9.16           	11.734
MS.286         	9.142          	11.728
MS.287         	9.122          	11.934
MS.288         	9.105          	11.728
MS.289         	9.087          	11.71
MS.290         	9.07           	11.718
MS.291         	9.05           	11.726
MS.292         	9.033          	11.72
MS.293         	9.015          	11.902
MS.294         	8.997          	11.714
MS.295         	8.977          	11.71
MS.296         	8.96           	11.686
MS.297         	8.943          	11.696
MS.298         	8.925          	11.694
MS.299         	8.908          	11.696
MS.300         	8.89           	11.7
MS.301         	8.872          	11.726
MS.302         	8.852          	11.726
MS.303         	8.835          	11.724
MS.304         	8.818          	11.712
MS.305         	8.8            	11.684
MS.306         	8.783          	11.882
MS.307         	8.765          	11.684
MS.308         	8.747          	11.702
MS.309         	8.73           	11.702
MS.310         	8.712          	11.7
MS.311         	8.695          	11.654
MS.312         	8.677          	11.71
MS.313         	8.66           	11.739
MS.314         	8.642          	11.714
MS.315         	8.627          	11.326
MS.316         	8.61           	11.636
MS.317         	8.592          	11.634
MS.318         	8.575          	11.549
MS.319         	8.557          	11.628
MS.320         	8.54           	11.571
MS.321         	8.523          	11.271
MS.322         	8.507          	11.495
MS.323         	8.49           	11.461
MS.324         	8.472          	11.205
MS.325         	8.455          	11.314
MS.326         	8.44           	11.481
MS.327         	8.422          	11.481
MS.328         	8.405          	11.533
MS.329         	8.387          	11.213
MS.330         	8.372          	11.342
MS.331         	8.355          	11.187
MS.332         	8.337          	11.205
MS.333         	8.323          	11.316
MS.334         	8.305          	11.241
MS.335         	8.287          	11.434
MS.336         	8.273          	11.173
MS.337         	8.255          	11.14
MS.338         	8.238          	11.138
MS.339         	8.222          	10.733
MS.340         	8.205          	11.078
MS.341         	8.19           	10.733
MS.342         	8.172          	10.405
MS.343         	8.158          	10.967
MS.344         	8.14           	10.292
MS.345         	8.125          	10.816
MS.346         	8.108          	10.721
MS.347         	8.092          	10.294
MS.348         	8.075          	10.26
MS.349         	8.06           	10.633
MS.350         	8.042          	10.433
MS.351         	8.028          	10.647
MS.352         	8.01           	9.807
MS.353         	7.995          	9.841
MS.354         	7.98           	10.059
MS.355         	7.962          	9.95
MS.356         	7.947          	9.851
MS.357         	7.932          	9.928
MS.358         	7.915          	9.763
MS.359         	7.9            	9.678
MS.360         	7.885          	9.74
MS.361         	7.867          	9.765
MS.362         	7.852          	9.783
MS.363         	7.837          	9.479
MS.364         	7.82           	9.96
MS.365         	7.805          	9.507
MS.366         	7.79           	9.438
MS.367         	7.775          	9.461
MS.368         	7.76           	9.801
MS.369         	7.742          	9.432
MS.370         	7.727          	9.35
MS.371         	7.712          	9.388
MS.372         	7.697          	9.448
MS.373         	7.682          	9.017
MS.374         	7.668          	9.424
MS.375         	7.65           	9.154
MS.376         	7.635          	9.197
MS.377         	7.62           	9.031
MS.378         	7.605          	9.251
MS.379         	7.59           	8.496
MS.380         	7.575          	8.715
MS.381         	7.56           	8.288
MS.382         	7.545          	8.488
MS.383         	7.53           	8.75
MS.384         	7.515          	8.349
MS.385         	7.5            	8.854
MS.386         	7.485          	8.965
MS.387         	7.47           	8.256
MS.388         	7.455          	8.212
MS.389         	7.44           	7.843
MS.390         	7.425          	8.47
MS.391         	7.41           	8.079
MS.392         	7.395          	7.891
MS.393         	7.38           	7.783
MS.394         	7.365          	7.966
MS.395         	7.35           	7.45
MS.396         	7.337          	8.03
MS.397         	7.322          	7.583
MS.398         	7.307          	7.831
MS.399         	7.293          	7.757
MS.400         	7.277          	7.94
MS.401         	7.262          	7.4
MS.402         	7.25           	7.303
MS.403         	7.235          	7.297
MS.404         	7.22           	6.832
MS.405         	7.205          	7.058
MS.406         	7.19           	6.927
MS.407         	7.177          	7.517
MS.408         	7.162          	6.913
MS.409         	7.148          	6.659
MS.410         	7.132          	7.094
MS.411         	7.12           	6.689
MS.412         	7.105          	6.49
MS.413         	7.09           	6.254
MS.414         	7.077          	6.075
MS.415         	7.062          	5.74
MS.416         	7.047          	5.489
MS.417         	7.035          	5.684
MS.418         	7.02           	5.783
MS.419         	7.007          	5.966
MS.420         	6.992          	5.418
MS.421         	6.977          	5.098
MS.422         	6.965          	5.39
MS.423         	6.95           	5.136
MS.424         	6.938          	5.305
MS.425         	6.922          	4.822
MS.426         	6.91           	5.076
MS.427         	6.895          	5.16
MS.428         	6.882          	5.005
MS.429         	6.867          	4.842
MS.430         	6.855          	4.242
MS.431         	6.84           	4.32
MS.432         	6.827          	4.326
MS.433         	6.812          	4.925
MS.434         	6.8            	4.532
MS.435         	6.785          	3.905
MS.436         	6.773          	3.879
MS.437         	6.757          	3.613
MS.438         	6.745          	3.243
MS.439         	6.733          	3.605
MS.440         	6.717          	3.456
MS.441         	6.705          	3.694
MS.442         	6.692          	3.597
MS.443         	6.677          	3.505
MS.444         	6.665          	3.406
MS.445         	6.652          	3.176
MS.446         	6.637          	3.259
MS.447         	6.625          	3.223
MS.448         	6.612          	3.406
MS.449         	6.597          	2.941
MS.450         	6.585          	2.902
MS.451         	6.572          	2.709
MS.452         	6.56           	2.556
MS.453         	6.545          	2.79
MS.454         	6.532          	2.598
MS.455         	6.52           	2.397
MS.456         	6.507          	2.554
MS.457         	6.492          	2.572
MS.458         	6.48           	2.697
MS.459         	6.467          	2.566
MS.460         	6.455          	2.346
MS.461         	6.442          	2.435
MS.462         	6.43           	2.27
MS.463         	6.418          	2.264
MS.464         	6.402          	1.881
MS.465         	6.39           	2.054
MS.466         	6.378          	2.002
MS.467         	6.365          	1.77
MS.468         	6.352          	1.863
MS.469         	6.34           	1.968
MS.470         	6.327          	1.895
MS.471         	6.315          	1.74
MS.472         	6.302          	1.523
MS.473         	6.29           	1.728
MS.474         	6.277          	1.779
MS.475         	6.265          	1.535
MS.476         	6.253          	1.547
MS.477         	6.24           	1.642
MS.478         	6.227          	1.235
MS.479         	6.215          	1.535
MS.480         	6.202          	1.529
MS.481         	6.19           	1.47
MS.482         	6.177          	1.428
MS.483         	6.165          	1.468
MS.484         	6.152          	1.412
MS.485         	6.14           	1.188
MS.486         	6.128          	1.241
MS.487         	6.115          	1.446
MS.488         	6.102          	1.386
MS.489         	6.09           	1.194
MS.490         	6.08           	0.935
MS.491         	6.067          	1.354
MS.492         	6.055          	1.043
