File:              	C:\Qtrac\Data\Daniel M Sørensen\MScan multicentre study\Data from centres\Toronto\Processed data\MSCC01113E.QZD
Name:              	CA.TOR.NC.5.1
Protocol:          	MSCAN-R2
Date:              	13/11/20
Start time:        	17:04:37
Age:               	53
Sex:               	M
Temperature:       	31.3
S/R sites:         	APB
NC/disease:        	NC
Operator:          	LP
Comments:
M-SCAN DATA (10-4m)
Scanpts: 4, 19, 625, 640
Stim. (mA)     	Amp. (mV)
MS.1           	24.5           	7.988
MS.2           	24.5           	7.992
MS.3           	24.5           	8
MS.4           	24.5           	7.992
MS.5           	24.5           	7.976
MS.6           	24.5           	7.986
MS.7           	24.5           	7.99
MS.8           	24.5           	7.978
MS.9           	24.5           	7.952
MS.10          	24.5           	7.948
MS.11          	24.5           	7.968
MS.12          	24.5           	7.952
MS.13          	24.5           	7.958
MS.14          	24.5           	8.032
MS.15          	24.5           	7.978
MS.16          	24.5           	7.96
MS.17          	24.5           	7.92
MS.18          	24.5           	7.964
MS.19          	24.5           	7.96
MS.20          	24.5           	7.978
MS.21          	24.5           	7.962
MS.22          	24.5           	7.978
MS.23          	24.5           	7.958
MS.24          	24.403         	7.962
MS.25          	24.352         	7.952
MS.26          	24.305         	7.994
MS.27          	24.255         	7.958
MS.28          	24.207         	7.928
MS.29          	24.16          	7.962
MS.30          	24.11          	7.962
MS.31          	24.062         	7.968
MS.32          	24.015         	7.97
MS.33          	23.967         	7.956
MS.34          	23.92          	7.962
MS.35          	23.87          	7.946
MS.36          	23.823         	7.968
MS.37          	23.775         	7.934
MS.38          	23.727         	7.942
MS.39          	23.68          	7.94
MS.40          	23.632         	7.958
MS.41          	23.587         	7.797
MS.42          	23.54          	7.944
MS.43          	23.493         	7.956
MS.44          	23.445         	7.964
MS.45          	23.397         	7.958
MS.46          	23.352         	7.787
MS.47          	23.305         	7.781
MS.48          	23.257         	7.95
MS.49          	23.212         	7.763
MS.50          	23.165         	7.771
MS.51          	23.12          	7.783
MS.52          	23.073         	7.748
MS.53          	23.028         	7.771
MS.54          	22.98          	7.759
MS.55          	22.935         	7.769
MS.56          	22.89          	7.771
MS.57          	22.842         	7.765
MS.58          	22.797         	7.781
MS.59          	22.752         	7.748
MS.60          	22.707         	7.767
MS.61          	22.663         	7.753
MS.62          	22.618         	7.755
MS.63          	22.57          	7.759
MS.64          	22.525         	7.75
MS.65          	22.48          	7.763
MS.66          	22.435         	7.753
MS.67          	22.39          	7.759
MS.68          	22.347         	7.612
MS.69          	22.302         	7.783
MS.70          	22.257         	7.781
MS.71          	22.212         	7.738
MS.72          	22.167         	7.765
MS.73          	22.125         	7.783
MS.74          	22.08          	7.734
MS.75          	22.035         	7.634
MS.76          	21.993         	7.728
MS.77          	21.948         	7.612
MS.78          	21.905         	7.64
MS.79          	21.86          	7.62
MS.80          	21.817         	7.742
MS.81          	21.772         	7.71
MS.82          	21.73          	7.62
MS.83          	21.685         	7.646
MS.84          	21.642         	7.607
MS.85          	21.6           	7.622
MS.86          	21.557         	7.605
MS.87          	21.512         	7.43
MS.88          	21.47          	7.599
MS.89          	21.427         	7.46
MS.90          	21.385         	7.448
MS.91          	21.342         	7.462
MS.92          	21.3           	7.44
MS.93          	21.257         	7.456
MS.94          	21.215         	7.438
MS.95          	21.172         	7.434
MS.96          	21.13          	7.442
MS.97          	21.087         	7.448
MS.98          	21.045         	7.426
MS.99          	21.002         	7.444
MS.100         	20.96          	7.4
MS.101         	20.92          	7.418
MS.102         	20.877         	7.43
MS.103         	20.835         	7.39
MS.104         	20.795         	7.452
MS.105         	20.752         	7.416
MS.106         	20.71          	7.42
MS.107         	20.67          	7.356
MS.108         	20.627         	7.422
MS.109         	20.587         	7.372
MS.110         	20.545         	7.364
MS.111         	20.505         	7.354
MS.112         	20.465         	7.364
MS.113         	20.422         	7.36
MS.114         	20.382         	7.388
MS.115         	20.342         	7.372
MS.116         	20.3           	7.342
MS.117         	20.26          	7.358
MS.118         	20.22          	7.348
MS.119         	20.18          	7.315
MS.120         	20.14          	7.265
MS.121         	20.1           	7.313
MS.122         	20.06          	7.299
MS.123         	20.017         	7.338
MS.124         	19.977         	7.287
MS.125         	19.94          	7.35
MS.126         	19.9           	7.321
MS.127         	19.86          	7.307
MS.128         	19.82          	7.309
MS.129         	19.78          	7.241
MS.130         	19.74          	7.235
MS.131         	19.7           	7.275
MS.132         	19.663         	7.269
MS.133         	19.622         	7.267
MS.134         	19.583         	7.277
MS.135         	19.545         	7.275
MS.136         	19.505         	7.199
MS.137         	19.465         	7.247
MS.138         	19.427         	7.261
MS.139         	19.387         	7.249
MS.140         	19.35          	7.261
MS.141         	19.31          	7.265
MS.142         	19.272         	6.975
MS.143         	19.235         	7.148
MS.144         	19.195         	7.172
MS.145         	19.157         	7.261
MS.146         	19.118         	7.17
MS.147         	19.08          	6.985
MS.148         	19.042         	7.213
MS.149         	19.005         	7.044
MS.150         	18.967         	7.191
MS.151         	18.927         	6.979
MS.152         	18.89          	6.933
MS.153         	18.852         	6.959
MS.154         	18.815         	6.939
MS.155         	18.778         	6.911
MS.156         	18.74          	6.937
MS.157         	18.702         	6.933
MS.158         	18.665         	6.931
MS.159         	18.628         	6.941
MS.160         	18.59          	6.945
MS.161         	18.552         	6.935
MS.162         	18.517         	6.939
MS.163         	18.48          	6.905
MS.164         	18.442         	6.844
MS.165         	18.405         	6.888
MS.166         	18.37          	6.882
MS.167         	18.333         	6.84
MS.168         	18.295         	6.898
MS.169         	18.26          	6.925
MS.170         	18.222         	6.882
MS.171         	18.188         	6.909
MS.172         	18.15          	6.751
MS.173         	18.112         	6.846
MS.174         	18.077         	6.846
MS.175         	18.042         	6.703
MS.176         	18.005         	6.85
MS.177         	17.97          	6.729
MS.178         	17.932         	6.733
MS.179         	17.897         	6.737
MS.180         	17.862         	6.737
MS.181         	17.825         	6.753
MS.182         	17.79          	6.741
MS.183         	17.755         	6.619
MS.184         	17.72          	6.564
MS.185         	17.685         	6.663
MS.186         	17.65          	6.667
MS.187         	17.612         	6.451
MS.188         	17.577         	6.409
MS.189         	17.542         	6.365
MS.190         	17.507         	6.379
MS.191         	17.472         	6.653
MS.192         	17.438         	6.151
MS.193         	17.403         	6.465
MS.194         	17.368         	6.415
MS.195         	17.335         	6.284
MS.196         	17.3           	6.24
MS.197         	17.265         	6.036
MS.198         	17.23          	6.159
MS.199         	17.195         	6.063
MS.200         	17.163         	6.083
MS.201         	17.128         	6.161
MS.202         	17.092         	6.135
MS.203         	17.06          	5.974
MS.204         	17.025         	5.924
MS.205         	16.99          	5.924
MS.206         	16.958         	5.871
MS.207         	16.922         	6.01
MS.208         	16.89          	6.177
MS.209         	16.855         	5.899
MS.210         	16.823         	5.956
MS.211         	16.788         	5.783
MS.212         	16.755         	5.855
MS.213         	16.72          	5.72
MS.214         	16.688         	5.779
MS.215         	16.655         	5.797
MS.216         	16.62          	5.684
MS.217         	16.587         	5.601
MS.218         	16.555         	5.843
MS.219         	16.522         	5.579
MS.220         	16.487         	5.724
MS.221         	16.455         	5.617
MS.222         	16.422         	5.462
MS.223         	16.39          	5.587
MS.224         	16.358         	5.529
MS.225         	16.325         	5.382
MS.226         	16.292         	5.446
MS.227         	16.26          	5.561
MS.228         	16.227         	5.404
MS.229         	16.195         	5.412
MS.230         	16.163         	5.313
MS.231         	16.13          	5.41
MS.232         	16.097         	5.313
MS.233         	16.065         	5.303
MS.234         	16.032         	5.144
MS.235         	16.003         	5.164
MS.236         	15.97          	5.273
MS.237         	15.938         	5.096
MS.238         	15.905         	5.148
MS.239         	15.875         	5.16
MS.240         	15.842         	5.215
MS.241         	15.81          	5.172
MS.242         	15.78          	5.144
MS.243         	15.747         	5.052
MS.244         	15.715         	5.154
MS.245         	15.685         	5.178
MS.246         	15.652         	5.144
MS.247         	15.622         	4.9
MS.248         	15.59          	5.007
MS.249         	15.56          	4.886
MS.250         	15.527         	4.963
MS.251         	15.497         	5.039
MS.252         	15.467         	4.995
MS.253         	15.435         	5.054
MS.254         	15.405         	4.818
MS.255         	15.375         	4.751
MS.256         	15.342         	4.753
MS.257         	15.312         	4.737
MS.258         	15.282         	4.89
MS.259         	15.252         	4.739
MS.260         	15.22          	4.735
MS.261         	15.19          	4.681
MS.262         	15.16          	4.703
MS.263         	15.13          	4.659
MS.264         	15.1           	4.58
MS.265         	15.07          	4.766
MS.266         	15.04          	4.673
MS.267         	15.01          	4.796
MS.268         	14.98          	4.703
MS.269         	14.95          	4.55
MS.270         	14.92          	4.594
MS.271         	14.89          	4.631
MS.272         	14.86          	4.693
MS.273         	14.83          	4.687
MS.274         	14.8           	4.711
MS.275         	14.77          	4.598
MS.276         	14.742         	4.528
MS.277         	14.712         	4.465
MS.278         	14.682         	4.614
MS.279         	14.652         	4.465
MS.280         	14.625         	4.536
MS.281         	14.595         	4.508
MS.282         	14.565         	4.451
MS.283         	14.537         	4.278
MS.284         	14.507         	4.371
MS.285         	14.477         	4.3
MS.286         	14.45          	4.29
MS.287         	14.42          	4.475
MS.288         	14.392         	4.512
MS.289         	14.362         	4.341
MS.290         	14.335         	4.26
MS.291         	14.305         	4.353
MS.292         	14.278         	4.238
MS.293         	14.247         	4.24
MS.294         	14.22          	4.294
MS.295         	14.193         	4.2
MS.296         	14.162         	4.103
MS.297         	14.135         	4.2
MS.298         	14.108         	4.161
MS.299         	14.08          	4.169
MS.300         	14.05          	4.173
MS.301         	14.023         	4.175
MS.302         	13.995         	4.206
MS.303         	13.967         	4.052
MS.304         	13.938         	4.061
MS.305         	13.91          	4.103
MS.306         	13.882         	3.992
MS.307         	13.855         	4.006
MS.308         	13.827         	4.065
MS.309         	13.8           	4.008
MS.310         	13.773         	3.768
MS.311         	13.745         	3.982
MS.312         	13.717         	3.843
MS.313         	13.69          	4.036
MS.314         	13.662         	3.68
MS.315         	13.635         	3.976
MS.316         	13.608         	3.948
MS.317         	13.58          	3.867
MS.318         	13.555         	3.801
MS.319         	13.528         	3.521
MS.320         	13.5           	3.829
MS.321         	13.472         	3.579
MS.322         	13.445         	3.47
MS.323         	13.42          	3.722
MS.324         	13.392         	3.758
MS.325         	13.365         	3.368
MS.326         	13.337         	3.426
MS.327         	13.312         	3.392
MS.328         	13.285         	3.813
MS.329         	13.26          	3.595
MS.330         	13.233         	3.462
MS.331         	13.205         	3.319
MS.332         	13.18          	3.444
MS.333         	13.153         	3.344
MS.334         	13.127         	3.615
MS.335         	13.1           	3.283
MS.336         	13.075         	3.476
MS.337         	13.047         	3.279
MS.338         	13.023         	3.275
MS.339         	12.997         	3.327
MS.340         	12.97          	3.39
MS.341         	12.945         	3.321
MS.342         	12.917         	3.267
MS.343         	12.892         	3.253
MS.344         	12.867         	3.257
MS.345         	12.842         	3.261
MS.346         	12.815         	3.215
MS.347         	12.79          	3.215
MS.348         	12.765         	3.253
MS.349         	12.74          	3.267
MS.350         	12.712         	3.277
MS.351         	12.688         	3.217
MS.352         	12.662         	3.166
MS.353         	12.637         	3.18
MS.354         	12.613         	3.253
MS.355         	12.587         	3.188
MS.356         	12.562         	3.192
MS.357         	12.537         	3.154
MS.358         	12.512         	3.207
MS.359         	12.488         	3.148
MS.360         	12.462         	3.19
MS.361         	12.438         	3.16
MS.362         	12.412         	3.134
MS.363         	12.387         	3.18
MS.364         	12.363         	3.068
MS.365         	12.337         	3.138
MS.366         	12.312         	3.134
MS.367         	12.287         	3.184
MS.368         	12.265         	3.11
MS.369         	12.24          	3.076
MS.370         	12.215         	3.106
MS.371         	12.19          	3.106
MS.372         	12.167         	3.06
MS.373         	12.142         	3.06
MS.374         	12.117         	3.062
MS.375         	12.092         	3.082
MS.376         	12.07          	3.07
MS.377         	12.045         	3.064
MS.378         	12.02          	3.031
MS.379         	11.997         	3.051
MS.380         	11.972         	2.886
MS.381         	11.95          	3.045
MS.382         	11.925         	3.09
MS.383         	11.903         	3.039
MS.384         	11.877         	3.029
MS.385         	11.855         	3.084
MS.386         	11.83          	3.06
MS.387         	11.807         	2.862
MS.388         	11.782         	3.037
MS.389         	11.76          	2.999
MS.390         	11.735         	3.011
MS.391         	11.712         	3.039
MS.392         	11.69          	3.057
MS.393         	11.665         	3.033
MS.394         	11.642         	2.991
MS.395         	11.62          	2.991
MS.396         	11.595         	2.9
MS.397         	11.572         	2.866
MS.398         	11.55          	2.848
MS.399         	11.528         	3.007
MS.400         	11.502         	3.051
MS.401         	11.48          	2.856
MS.402         	11.457         	2.836
MS.403         	11.435         	2.854
MS.404         	11.412         	2.834
MS.405         	11.39          	2.83
MS.406         	11.367         	2.84
MS.407         	11.345         	2.755
MS.408         	11.32          	3.009
MS.409         	11.297         	2.626
MS.410         	11.275         	2.755
MS.411         	11.252         	2.727
MS.412         	11.23          	2.765
MS.413         	11.207         	2.731
MS.414         	11.185         	2.776
MS.415         	11.162         	2.751
MS.416         	11.142         	2.725
MS.417         	11.12          	2.536
MS.418         	11.097         	2.554
MS.419         	11.075         	2.564
MS.420         	11.052         	2.564
MS.421         	11.03          	2.56
MS.422         	11.007         	2.566
MS.423         	10.988         	2.639
MS.424         	10.965         	2.546
MS.425         	10.943         	2.365
MS.426         	10.92          	2.558
MS.427         	10.9           	2.481
MS.428         	10.877         	2.542
MS.429         	10.855         	2.56
MS.430         	10.835         	2.56
MS.431         	10.812         	2.55
MS.432         	10.79          	2.369
MS.433         	10.77          	2.532
MS.434         	10.747         	2.387
MS.435         	10.725         	2.475
MS.436         	10.705         	2.467
MS.437         	10.682         	2.302
MS.438         	10.662         	2.389
MS.439         	10.64          	2.363
MS.440         	10.62          	2.008
MS.441         	10.597         	2.165
MS.442         	10.577         	2.071
MS.443         	10.555         	2.371
MS.444         	10.535         	2.165
MS.445         	10.512         	2.266
MS.446         	10.492         	1.952
MS.447         	10.472         	2.097
MS.448         	10.45          	1.99
MS.449         	10.43          	2.25
MS.450         	10.41          	1.966
MS.451         	10.387         	1.879
MS.452         	10.367         	1.938
MS.453         	10.347         	1.962
MS.454         	10.325         	1.966
MS.455         	10.305         	1.958
MS.456         	10.285         	1.97
MS.457         	10.265         	1.956
MS.458         	10.245         	1.974
MS.459         	10.222         	1.988
MS.460         	10.202         	1.932
MS.461         	10.182         	1.96
MS.462         	10.162         	1.825
MS.463         	10.142         	1.966
MS.464         	10.122         	1.662
MS.465         	10.102         	1.664
MS.466         	10.08          	1.97
MS.467         	10.06          	1.875
MS.468         	10.04          	1.827
MS.469         	10.02          	1.811
MS.470         	10             	1.68
MS.471         	9.98           	1.785
MS.472         	9.96           	1.609
MS.473         	9.94           	1.805
MS.474         	9.92           	1.766
MS.475         	9.903          	1.748
MS.476         	9.882          	1.676
MS.477         	9.863          	1.617
MS.478         	9.842          	1.599
MS.479         	9.823          	1.625
MS.480         	9.802          	1.793
MS.481         	9.782          	1.654
MS.482         	9.762          	1.577
MS.483         	9.745          	1.488
MS.484         	9.725          	1.559
MS.485         	9.705          	1.557
MS.486         	9.685          	1.458
MS.487         	9.667          	1.591
MS.488         	9.648          	1.716
MS.489         	9.627          	1.414
MS.490         	9.608          	1.484
MS.491         	9.59           	1.436
MS.492         	9.57           	1.291
MS.493         	9.55           	1.521
MS.494         	9.532          	1.492
MS.495         	9.512          	1.414
MS.496         	9.495          	1.285
MS.497         	9.475          	1.225
MS.498         	9.455          	1.172
MS.499         	9.438          	1.202
MS.500         	9.417          	1.2
MS.501         	9.4            	1.251
MS.502         	9.38           	1.263
