File:              	C:\Qtrac\Data\Daniel M Sørensen\MScan multicentre study\Data from centres\Toronto\Processed data\MSCC01116A.QZD
Name:              	CA.TOR.NC.6.1
Protocol:          	MSCAN-R2
Date:              	16/11/20
Start time:        	14:03:39
Age:               	42
Sex:               	F
Temperature:       	29.9
S/R sites:         	APB
NC/disease:        	NC
Operator:          	LP
Comments:
M-SCAN DATA (7.7-1.6m)
Scanpts: 223, 228, 627, 627
Stim. (mA)     	Amp. (mV)
MS.1           	18.5           	15.312
MS.2           	18.5           	15.332
MS.3           	18.5           	15.348
MS.4           	18.5           	15.334
MS.5           	18.5           	15.318
MS.6           	18.5           	15.326
MS.7           	18.5           	15.352
MS.8           	18.5           	15.298
MS.9           	18.5           	15.285
MS.10          	18.5           	15.3
MS.11          	18.5           	15.3
MS.12          	18.5           	15.326
MS.13          	18.5           	15.348
MS.14          	18.5           	15.342
MS.15          	18.5           	15.346
MS.16          	18.5           	15.342
MS.17          	18.5           	15.358
MS.18          	18.5           	15.338
MS.19          	18.5           	15.265
MS.20          	18.5           	15.36
MS.21          	18.5           	15.336
MS.22          	18.5           	15.346
MS.23          	18.5           	15.38
MS.24          	18.425         	15.394
MS.25          	18.39          	15.4
MS.26          	18.352         	15.39
MS.27          	18.315         	15.358
MS.28          	18.28          	15.344
MS.29          	18.243         	15.348
MS.30          	18.208         	15.304
MS.31          	18.17          	15.346
MS.32          	18.132         	15.31
MS.33          	18.097         	15.404
MS.34          	18.06          	15.37
MS.35          	18.025         	15.348
MS.36          	17.99          	15.342
MS.37          	17.952         	15.396
MS.38          	17.917         	15.428
MS.39          	17.882         	15.366
MS.40          	17.845         	15.328
MS.41          	17.81          	15.294
MS.42          	17.775         	15.338
MS.43          	17.74          	15.366
MS.44          	17.702         	15.277
MS.45          	17.667         	15.31
MS.46          	17.632         	15.414
MS.47          	17.597         	15.328
MS.48          	17.562         	15.283
MS.49          	17.528         	15.294
MS.50          	17.493         	15.318
MS.51          	17.458         	15.302
MS.52          	17.422         	15.324
MS.53          	17.387         	15.302
MS.54          	17.352         	15.304
MS.55          	17.317         	15.306
MS.56          	17.285         	15.283
MS.57          	17.25          	15.292
MS.58          	17.215         	15.287
MS.59          	17.18          	15.292
MS.60          	17.145         	15.304
MS.61          	17.112         	15.294
MS.62          	17.077         	15.326
MS.63          	17.042         	15.322
MS.64          	17.01          	15.342
MS.65          	16.975         	15.342
MS.66          	16.942         	15.334
MS.67          	16.907         	15.328
MS.68          	16.875         	15.324
MS.69          	16.84          	15.277
MS.70          	16.807         	15.243
MS.71          	16.772         	15.233
MS.72          	16.74          	15.221
MS.73          	16.705         	15.235
MS.74          	16.672         	15.239
MS.75          	16.64          	15.281
MS.76          	16.605         	15.287
MS.77          	16.573         	15.287
MS.78          	16.54          	15.285
MS.79          	16.507         	15.31
MS.80          	16.472         	15.269
MS.81          	16.44          	15.14
MS.82          	16.407         	15.173
MS.83          	16.375         	15.265
MS.84          	16.342         	15.314
MS.85          	16.31          	15.302
MS.86          	16.278         	15.31
MS.87          	16.245         	15.314
MS.88          	16.212         	15.32
MS.89          	16.18          	15.324
MS.90          	16.147         	15.275
MS.91          	16.115         	15.281
MS.92          	16.083         	15.292
MS.93          	16.05          	15.251
MS.94          	16.02          	15.275
MS.95          	15.987         	15.255
MS.96          	15.955         	15.249
MS.97          	15.922         	15.251
MS.98          	15.89          	15.225
MS.99          	15.86          	15.225
MS.100         	15.827         	15.181
MS.101         	15.795         	15.181
MS.102         	15.765         	15.241
MS.103         	15.733         	15.255
MS.104         	15.702         	15.35
MS.105         	15.67          	15.376
MS.106         	15.64          	15.346
MS.107         	15.608         	15.332
MS.108         	15.577         	15.231
MS.109         	15.545         	15.235
MS.110         	15.515         	15.243
MS.111         	15.483         	15.233
MS.112         	15.452         	15.251
MS.113         	15.422         	15.243
MS.114         	15.39          	15.253
MS.115         	15.36          	15.219
MS.116         	15.33          	15.207
MS.117         	15.297         	15.229
MS.118         	15.267         	15.209
MS.119         	15.237         	15.203
MS.120         	15.207         	15.175
MS.121         	15.177         	15.259
MS.122         	15.148         	15.253
MS.123         	15.115         	15.283
MS.124         	15.085         	15.378
MS.125         	15.055         	15.394
MS.126         	15.025         	15.378
MS.127         	14.995         	15.402
MS.128         	14.965         	15.368
MS.129         	14.935         	15.32
MS.130         	14.905         	15.296
MS.131         	14.877         	15.376
MS.132         	14.847         	15.352
MS.133         	14.818         	15.338
MS.134         	14.787         	15.35
MS.135         	14.757         	15.35
MS.136         	14.727         	15.358
MS.137         	14.7           	15.336
MS.138         	14.67          	15.364
MS.139         	14.64          	15.35
MS.140         	14.61          	15.364
MS.141         	14.582         	15.394
MS.142         	14.552         	15.414
MS.143         	14.523         	15.376
MS.144         	14.495         	15.414
MS.145         	14.465         	15.364
MS.146         	14.438         	15.396
MS.147         	14.407         	15.408
MS.148         	14.38          	15.406
MS.149         	14.35          	15.4
MS.150         	14.322         	15.388
MS.151         	14.292         	15.279
MS.152         	14.265         	15.422
MS.153         	14.235         	15.469
MS.154         	14.207         	15.463
MS.155         	14.18          	15.467
MS.156         	14.15          	15.334
MS.157         	14.122         	15.461
MS.158         	14.095         	15.39
MS.159         	14.065         	15.253
MS.160         	14.037         	15.267
MS.161         	14.01          	15.277
MS.162         	13.983         	15.285
MS.163         	13.955         	15.277
MS.164         	13.925         	15.225
MS.165         	13.898         	15.279
MS.166         	13.87          	15.33
MS.167         	13.842         	15.332
MS.168         	13.815         	15.316
MS.169         	13.787         	15.336
MS.170         	13.76          	15.392
MS.171         	13.733         	15.422
MS.172         	13.705         	15.437
MS.173         	13.677         	15.424
MS.174         	13.65          	15.422
MS.175         	13.622         	15.428
MS.176         	13.595         	15.451
MS.177         	13.568         	15.445
MS.178         	13.542         	15.396
MS.179         	13.515         	15.356
MS.180         	13.487         	15.449
MS.181         	13.46          	15.469
MS.182         	13.432         	15.439
MS.183         	13.407         	15.42
MS.184         	13.38          	15.428
MS.185         	13.352         	15.418
MS.186         	13.327         	15.435
MS.187         	13.3           	15.43
MS.188         	13.273         	15.428
MS.189         	13.247         	15.414
MS.190         	13.22          	15.424
MS.191         	13.195         	15.406
MS.192         	13.167         	15.358
MS.193         	13.142         	15.378
MS.194         	13.115         	15.424
MS.195         	13.09          	15.426
MS.196         	13.062         	15.41
MS.197         	13.037         	15.412
MS.198         	13.01          	15.418
MS.199         	12.985         	15.449
MS.200         	12.957         	15.457
MS.201         	12.932         	15.426
MS.202         	12.907         	15.487
MS.203         	12.88          	15.422
MS.204         	12.855         	15.461
MS.205         	12.83          	15.449
MS.206         	12.805         	15.416
MS.207         	12.778         	15.41
MS.208         	12.752         	15.376
MS.209         	12.727         	15.392
MS.210         	12.702         	15.368
MS.211         	12.677         	15.378
MS.212         	12.653         	15.374
MS.213         	12.625         	15.39
MS.214         	12.6           	15.37
MS.215         	12.575         	15.37
MS.216         	12.55          	15.406
MS.217         	12.525         	15.346
MS.218         	12.5           	15.449
MS.219         	12.475         	15.471
MS.220         	12.45          	15.435
MS.221         	12.425         	15.471
MS.222         	12.4           	15.43
MS.223         	12.375         	15.437
MS.224         	12.352         	15.439
MS.225         	12.327         	15.426
MS.226         	12.302         	15.42
MS.227         	12.278         	15.439
MS.228         	12.252         	15.443
MS.229         	12.227         	15.439
MS.230         	12.205         	15.43
MS.231         	12.18          	15.418
MS.232         	12.155         	15.439
MS.233         	12.13          	15.441
MS.234         	12.108         	15.439
MS.235         	12.082         	15.441
MS.236         	12.057         	15.437
MS.237         	12.035         	15.366
MS.238         	12.01          	15.408
MS.239         	11.988         	15.398
MS.240         	11.962         	15.42
MS.241         	11.938         	15.392
MS.242         	11.915         	15.404
MS.243         	11.89          	15.38
MS.244         	11.867         	15.374
MS.245         	11.842         	15.404
MS.246         	11.82          	15.352
MS.247         	11.795         	15.445
MS.248         	11.773         	15.39
MS.249         	11.75          	15.352
MS.250         	11.725         	15.368
MS.251         	11.702         	15.406
MS.252         	11.677         	15.352
MS.253         	11.655         	15.3
MS.254         	11.632         	15.306
MS.255         	11.61          	15.324
MS.256         	11.585         	15.217
MS.257         	11.562         	15.35
MS.258         	11.54          	15.189
MS.259         	11.517         	15.167
MS.260         	11.492         	15.191
MS.261         	11.47          	15.225
MS.262         	11.447         	15.324
MS.263         	11.425         	15.342
MS.264         	11.403         	15.289
MS.265         	11.38          	15.292
MS.266         	11.355         	15.296
MS.267         	11.332         	15.153
MS.268         	11.31          	15.128
MS.269         	11.287         	15.136
MS.270         	11.265         	15.114
MS.271         	11.242         	15.11
MS.272         	11.22          	14.937
MS.273         	11.197         	15.122
MS.274         	11.175         	14.901
MS.275         	11.153         	15.122
MS.276         	11.132         	14.107
MS.277         	11.11          	14.224
MS.278         	11.087         	14.456
MS.279         	11.065         	14.027
MS.280         	11.042         	14.371
MS.281         	11.02          	14.151
MS.282         	10.997         	13.92
MS.283         	10.977         	14.653
MS.284         	10.955         	14.411
MS.285         	10.932         	14.079
MS.286         	10.91          	13.958
MS.287         	10.89          	13.807
MS.288         	10.867         	14.008
MS.289         	10.845         	13.825
MS.290         	10.825         	13.932
MS.291         	10.802         	13.581
MS.292         	10.78          	13.716
MS.293         	10.76          	13.602
MS.294         	10.738         	13.809
MS.295         	10.717         	13.789
MS.296         	10.695         	13.859
MS.297         	10.672         	14.651
MS.298         	10.653         	13.487
MS.299         	10.63          	13.473
MS.300         	10.61          	13.487
MS.301         	10.587         	13.217
MS.302         	10.568         	13.328
MS.303         	10.545         	13.269
MS.304         	10.525         	13.134
MS.305         	10.505         	13.116
MS.306         	10.483         	12.675
MS.307         	10.462         	12.832
MS.308         	10.443         	13.281
MS.309         	10.42          	12.691
MS.310         	10.4           	12.202
MS.311         	10.38          	12.643
MS.312         	10.358         	12.161
MS.313         	10.337         	11.892
MS.314         	10.318         	12.268
MS.315         	10.295         	12.296
MS.316         	10.275         	11.813
MS.317         	10.255         	11.088
MS.318         	10.235         	12.117
MS.319         	10.215         	11.821
MS.320         	10.193         	11.378
MS.321         	10.172         	11.386
MS.322         	10.153         	11.455
MS.323         	10.132         	10.874
MS.324         	10.113         	10.343
MS.325         	10.092         	10.609
MS.326         	10.073         	10.929
MS.327         	10.052         	10.631
MS.328         	10.032         	10.306
MS.329         	10.012         	9.811
MS.330         	9.992          	10.29
MS.331         	9.972          	10.657
MS.332         	9.952          	10.089
MS.333         	9.932          	9.573
MS.334         	9.912          	9.247
MS.335         	9.892          	9.225
MS.336         	9.872          	8.931
MS.337         	9.852          	9.293
MS.338         	9.832          	9.307
MS.339         	9.812          	8.804
MS.340         	9.795          	8.494
MS.341         	9.775          	9.027
MS.342         	9.755          	8.844
MS.343         	9.735          	8.298
MS.344         	9.715          	8.834
MS.345         	9.698          	8.486
MS.346         	9.677          	7.887
MS.347         	9.657          	8.3
MS.348         	9.637          	7.771
MS.349         	9.62           	7.37
MS.350         	9.6            	7.464
MS.351         	9.58           	7.118
MS.352         	9.562          	7.537
MS.353         	9.542          	7.757
MS.354         	9.523          	7.112
MS.355         	9.505          	7.622
MS.356         	9.485          	7.235
MS.357         	9.467          	6.598
MS.358         	9.448          	7.479
MS.359         	9.43           	6.294
MS.360         	9.41           	6.276
MS.361         	9.39           	6.792
MS.362         	9.372          	6.369
MS.363         	9.352          	6.602
MS.364         	9.335          	6.169
MS.365         	9.318          	6.208
MS.366         	9.297          	6.512
MS.367         	9.28           	6.516
MS.368         	9.26           	6.105
MS.369         	9.242          	6.089
MS.370         	9.222          	6.355
MS.371         	9.205          	6.171
MS.372         	9.188          	5.986
MS.373         	9.167          	5.549
MS.374         	9.15           	5.62
MS.375         	9.132          	5.869
MS.376         	9.113          	5.374
MS.377         	9.095          	5.718
MS.378         	9.077          	5.281
MS.379         	9.06           	5.531
MS.380         	9.04           	4.737
MS.381         	9.023          	4.647
MS.382         	9.005          	4.641
MS.383         	8.988          	4.749
MS.384         	8.97           	4.441
MS.385         	8.95           	4.51
MS.386         	8.932          	4.471
MS.387         	8.915          	3.686
MS.388         	8.898          	4.445
MS.389         	8.88           	4.065
MS.390         	8.863          	3.893
MS.391         	8.845          	3.926
MS.392         	8.827          	3.879
MS.393         	8.81           	3.734
MS.394         	8.792          	3.581
MS.395         	8.775          	3.348
MS.396         	8.755          	3.523
MS.397         	8.74           	3.563
MS.398         	8.722          	3.19
MS.399         	8.705          	2.983
MS.400         	8.688          	3.021
MS.401         	8.67           	3.293
MS.402         	8.653          	3.031
MS.403         	8.635          	3.293
MS.404         	8.617          	3.19
MS.405         	8.6            	3.358
MS.406         	8.582          	3.08
MS.407         	8.565          	2.431
MS.408         	8.547          	2.872
MS.409         	8.533          	2.635
MS.410         	8.515          	3.174
MS.411         	8.497          	2.385
MS.412         	8.48           	2.044
MS.413         	8.462          	2.093
MS.414         	8.448          	1.809
MS.415         	8.43           	2.157
MS.416         	8.412          	2.01
MS.417         	8.395          	1.974
MS.418         	8.38           	2.135
MS.419         	8.363          	2.109
MS.420         	8.345          	1.877
MS.421         	8.33           	1.529
MS.422         	8.312          	1.515
MS.423         	8.295          	1.313
MS.424         	8.28           	1.815
MS.425         	8.262          	1.462
MS.426         	8.247          	1.259
MS.427         	8.23           	1.46
MS.428         	8.212          	1.384
MS.429         	8.198          	1.65
MS.430         	8.18           	1.307
MS.431         	8.165          	1.325
MS.432         	8.148          	0.983
MS.433         	8.132          	1.172
MS.434         	8.115          	0.979
MS.435         	8.1            	1.017
MS.436         	8.082          	1.269
MS.437         	8.068          	0.864
MS.438         	8.05           	1.152
MS.439         	8.035          	1.37
MS.440         	8.017          	0.858
MS.441         	8.002          	0.757
MS.442         	7.987          	0.711
MS.443         	7.97           	0.794
MS.444         	7.955          	0.634
MS.445         	7.94           	0.679
MS.446         	7.922          	0.636
MS.447         	7.907          	0.485
MS.448         	7.892          	0.554
MS.449         	7.875          	0.574
MS.450         	7.86           	0.546
MS.451         	7.845          	0.491
MS.452         	7.827          	0.421
MS.453         	7.812          	0.409
MS.454         	7.797          	0.391
MS.455         	7.782          	0.296
MS.456         	7.765          	0.375
MS.457         	7.75           	0.417
MS.458         	7.735          	0.359
MS.459         	7.72           	0.393
MS.460         	7.705          	0.346
MS.461         	7.69           	0.361
MS.462         	7.672          	0.318
MS.463         	7.657          	0.354
MS.464         	7.642          	0.24
MS.465         	7.628          	0.298
MS.466         	7.612          	0.268
MS.467         	7.597          	0.248
MS.468         	7.582          	0.155
MS.469         	7.567          	0.115
MS.470         	7.552          	0.357
MS.471         	7.537          	0.193
MS.472         	7.523          	0.137
MS.473         	7.507          	0.177
MS.474         	7.492          	0.169
MS.475         	7.477          	0.113
MS.476         	7.462          	0.117
MS.477         	7.447          	0.117
MS.478         	7.432          	0.119
MS.479         	7.418          	0.183
MS.480         	7.402          	0.123
MS.481         	7.387          	0.121
MS.482         	7.372          	0.123
MS.483         	7.357          	0.121
MS.484         	7.342          	0.131
MS.485         	7.327          	0.119
MS.486         	7.315          	0.121
MS.487         	7.3            	0.121
MS.488         	7.285          	0.119
MS.489         	7.27           	0.119
MS.490         	7.255          	0.121
MS.491         	7.24           	0.117
MS.492         	7.227          	0.117
MS.493         	7.212          	0.121
