File:              	C:\Qtrac\Data\Daniel M Sørensen\MScan multicentre study\Data from centres\Toronto\Processed data\MSCC01118A.QZD
Name:              	CA.TOR.NC.3.1
Protocol:          	MSCAN-R2
Date:              	18/11/20
Start time:        	12:23:09
Age:               	25
Sex:               	M
Temperature:       	31.6
S/R sites:         	APB
NC/disease:        	NC
Operator:          	LP
Comments:
M-SCAN DATA (Repeat 2/2, 12.7-3m)
Scanpts: 7, 12, 458, 504
Stim. (mA)     	Amp. (mV)
MS.1           	19.5           	12.816
MS.2           	19.5           	12.83
MS.3           	19.46          	12.838
MS.4           	19.422         	12.838
MS.5           	19.382         	12.846
MS.6           	19.345         	12.844
MS.7           	19.305         	12.842
MS.8           	19.267         	12.834
MS.9           	19.23          	12.844
MS.10          	19.19          	12.838
MS.11          	19.153         	12.83
MS.12          	19.115         	12.834
MS.13          	19.075         	12.848
MS.14          	19.038         	12.85
MS.15          	19             	12.671
MS.16          	18.962         	12.862
MS.17          	18.922         	12.77
MS.18          	18.885         	12.84
MS.19          	18.847         	12.848
MS.20          	18.81          	12.854
MS.21          	18.772         	12.758
MS.22          	18.735         	12.844
MS.23          	18.698         	12.87
MS.24          	18.66          	12.838
MS.25          	18.622         	12.558
MS.26          	18.585         	12.762
MS.27          	18.55          	12.663
MS.28          	18.512         	12.464
MS.29          	18.475         	12.478
MS.30          	18.438         	12.637
MS.31          	18.4           	12.631
MS.32          	18.365         	12.351
MS.33          	18.327         	12.478
MS.34          	18.29          	12.361
MS.35          	18.255         	12.351
MS.36          	18.217         	12.347
MS.37          	18.182         	12.113
MS.38          	18.145         	12.47
MS.39          	18.11          	12.472
MS.40          	18.073         	12.365
MS.41          	18.038         	12.365
MS.42          	18             	12.361
MS.43          	17.965         	12.099
MS.44          	17.93          	12.105
MS.45          	17.892         	12.242
MS.46          	17.858         	11.841
MS.47          	17.823         	11.958
MS.48          	17.785         	12.095
MS.49          	17.75          	11.841
MS.50          	17.715         	11.861
MS.51          	17.68          	11.767
MS.52          	17.645         	11.783
MS.53          	17.61          	11.751
MS.54          	17.575         	11.763
MS.55          	17.54          	11.7
MS.56          	17.503         	11.809
MS.57          	17.47          	11.741
MS.58          	17.435         	11.467
MS.59          	17.4           	11.791
MS.60          	17.365         	11.612
MS.61          	17.33          	11.35
MS.62          	17.295         	11.275
MS.63          	17.26          	11.459
MS.64          	17.225         	11.326
MS.65          	17.192         	11.442
MS.66          	17.157         	11.35
MS.67          	17.122         	10.931
MS.68          	17.087         	11.346
MS.69          	17.055         	11.009
MS.70          	17.02          	11.136
MS.71          	16.987         	11.092
MS.72          	16.952         	11.005
MS.73          	16.917         	10.506
MS.74          	16.885         	11.088
MS.75          	16.85          	10.937
MS.76          	16.817         	10.733
MS.77          	16.785         	10.286
MS.78          	16.75          	10.552
MS.79          	16.717         	10.359
MS.80          	16.682         	10.427
MS.81          	16.65          	10.143
MS.82          	16.618         	10.401
MS.83          	16.583         	10.339
MS.84          	16.55          	10.522
MS.85          	16.517         	10.349
MS.86          	16.485         	10.125
MS.87          	16.452         	10.014
MS.88          	16.417         	9.988
MS.89          	16.385         	9.98
MS.90          	16.352         	10.101
MS.91          	16.32          	9.767
MS.92          	16.288         	9.928
MS.93          	16.255         	9.873
MS.94          	16.222         	9.589
MS.95          	16.19          	9.585
MS.96          	16.157         	9.819
MS.97          	16.125         	9.16
MS.98          	16.092         	9.438
MS.99          	16.062         	9.259
MS.100         	16.03          	9.05
MS.101         	15.997         	9.031
MS.102         	15.965         	9.06
MS.103         	15.932         	8.951
MS.104         	15.902         	8.872
MS.105         	15.87          	8.842
MS.106         	15.837         	8.768
MS.107         	15.807         	8.657
MS.108         	15.775         	8.55
MS.109         	15.742         	8.75
MS.110         	15.712         	8.173
MS.111         	15.68          	8.52
MS.112         	15.65          	8.419
MS.113         	15.617         	8.345
MS.114         	15.587         	8.314
MS.115         	15.555         	7.887
MS.116         	15.525         	7.871
MS.117         	15.492         	8.202
MS.118         	15.462         	8.109
MS.119         	15.432         	8.018
MS.120         	15.4           	7.861
MS.121         	15.37          	7.513
MS.122         	15.34          	7.543
MS.123         	15.307         	7.938
MS.124         	15.277         	7.344
MS.125         	15.247         	7.497
MS.126         	15.217         	7.396
MS.127         	15.188         	7.229
MS.128         	15.157         	7.354
MS.129         	15.125         	7.255
MS.130         	15.095         	7.241
MS.131         	15.065         	7.182
MS.132         	15.035         	7.191
MS.133         	15.005         	7.203
MS.134         	14.975         	6.935
MS.135         	14.945         	7.13
MS.136         	14.915         	7.245
MS.137         	14.885         	6.963
MS.138         	14.855         	7.007
MS.139         	14.827         	6.965
MS.140         	14.797         	7.102
MS.141         	14.767         	6.729
MS.142         	14.737         	6.939
MS.143         	14.707         	6.854
MS.144         	14.68          	6.85
MS.145         	14.65          	6.584
MS.146         	14.62          	6.625
MS.147         	14.59          	6.685
MS.148         	14.562         	6.729
MS.149         	14.532         	6.431
MS.150         	14.505         	6.53
MS.151         	14.475         	6.254
MS.152         	14.445         	6.318
MS.153         	14.417         	6.339
MS.154         	14.387         	6.097
MS.155         	14.36          	5.904
MS.156         	14.33          	5.787
MS.157         	14.302         	5.841
MS.158         	14.273         	5.738
MS.159         	14.245         	5.624
MS.160         	14.217         	5.114
MS.161         	14.188         	5.313
MS.162         	14.16          	5.245
MS.163         	14.132         	5.205
MS.164         	14.102         	5.178
MS.165         	14.075         	5.025
MS.166         	14.047         	4.983
MS.167         	14.02          	4.633
MS.168         	13.99          	4.774
MS.169         	13.962         	4.89
MS.170         	13.935         	4.725
MS.171         	13.907         	4.669
MS.172         	13.88          	4.544
MS.173         	13.852         	4.459
MS.174         	13.825         	4.417
MS.175         	13.797         	4.697
MS.176         	13.77          	4.339
MS.177         	13.742         	4.427
MS.178         	13.715         	4.461
MS.179         	13.688         	4.379
MS.180         	13.66          	4.224
MS.181         	13.632         	4.103
MS.182         	13.605         	4.463
MS.183         	13.577         	4.008
MS.184         	13.55          	3.956
MS.185         	13.523         	3.996
MS.186         	13.497         	4.01
MS.187         	13.47          	4.373
MS.188         	13.443         	4.107
MS.189         	13.415         	3.801
MS.190         	13.387         	3.464
MS.191         	13.362         	3.39
MS.192         	13.335         	4.083
MS.193         	13.307         	3.742
MS.194         	13.282         	3.648
MS.195         	13.255         	3.45
MS.196         	13.23          	3.938
MS.197         	13.202         	3.368
MS.198         	13.175         	3.911
MS.199         	13.15          	3.17
MS.200         	13.122         	3.529
MS.201         	13.097         	2.963
MS.202         	13.07          	3.211
MS.203         	13.045         	3.704
MS.204         	13.02          	3.203
MS.205         	12.992         	3.358
MS.206         	12.967         	3.168
MS.207         	12.94          	3.223
MS.208         	12.915         	2.828
MS.209         	12.89          	2.653
MS.210         	12.865         	2.701
MS.211         	12.837         	2.816
MS.212         	12.812         	2.594
MS.213         	12.787         	2.528
MS.214         	12.762         	2.33
MS.215         	12.735         	2.377
MS.216         	12.71          	2.5
MS.217         	12.685         	2.052
MS.218         	12.66          	2.157
MS.219         	12.635         	2.546
MS.220         	12.61          	2.145
MS.221         	12.585         	2.224
MS.222         	12.557         	2.149
MS.223         	12.532         	2.228
MS.224         	12.507         	2.187
MS.225         	12.483         	1.942
MS.226         	12.457         	2.018
MS.227         	12.432         	1.905
MS.228         	12.41          	1.805
MS.229         	12.385         	1.96
MS.230         	12.36          	1.708
MS.231         	12.335         	1.69
MS.232         	12.31          	1.652
MS.233         	12.285         	1.484
MS.234         	12.26          	1.738
MS.235         	12.238         	1.587
MS.236         	12.212         	1.388
MS.237         	12.188         	1.619
MS.238         	12.162         	1.416
MS.239         	12.14          	1.388
MS.240         	12.115         	1.603
MS.241         	12.09          	1.642
MS.242         	12.068         	1.488
MS.243         	12.042         	1.305
MS.244         	12.017         	1.382
MS.245         	11.995         	1.456
MS.246         	11.97          	1.251
MS.247         	11.945         	1.194
MS.248         	11.922         	1.305
MS.249         	11.898         	1.184
MS.250         	11.875         	1.198
MS.251         	11.85          	0.999
MS.252         	11.827         	1.108
MS.253         	11.802         	1.017
MS.254         	11.78          	1.18
MS.255         	11.757         	0.993
MS.256         	11.733         	0.967
MS.257         	11.71          	1.112
MS.258         	11.688         	0.959
MS.259         	11.662         	0.993
MS.260         	11.64          	1.116
MS.261         	11.617         	1.11
MS.262         	11.592         	0.967
MS.263         	11.57          	1.074
MS.264         	11.547         	1.104
MS.265         	11.525         	0.977
MS.266         	11.5           	0.836
MS.267         	11.477         	0.818
MS.268         	11.455         	0.822
MS.269         	11.432         	0.848
MS.270         	11.41          	0.711
MS.271         	11.387         	0.669
MS.272         	11.363         	0.735
MS.273         	11.34          	0.705
MS.274         	11.318         	0.842
MS.275         	11.295         	0.689
MS.276         	11.273         	0.649
MS.277         	11.25          	0.691
MS.278         	11.227         	0.663
MS.279         	11.205         	0.651
MS.280         	11.182         	0.663
MS.281         	11.16          	0.661
MS.282         	11.137         	0.634
MS.283         	11.117         	0.419
MS.284         	11.095         	0.671
MS.285         	11.073         	0.578
MS.286         	11.05          	0.407
MS.287         	11.028         	0.429
MS.288         	11.005         	0.443
MS.289         	10.983         	0.401
MS.290         	10.962         	0.367
MS.291         	10.94          	0.576
MS.292         	10.917         	0.359
MS.293         	10.895         	0.397
MS.294         	10.875         	0.377
MS.295         	10.852         	0.336
MS.296         	10.83          	0.365
MS.297         	10.81          	0.377
MS.298         	10.787         	0.373
MS.299         	10.765         	0.415
MS.300         	10.745         	0.375
MS.301         	10.722         	0.369
MS.302         	10.702         	0.375
MS.303         	10.68          	0.298
MS.304         	10.66          	0.375
MS.305         	10.637         	0.3
MS.306         	10.617         	0.312
MS.307         	10.595         	0.306
MS.308         	10.575         	0.359
MS.309         	10.552         	0.369
MS.310         	10.532         	0.365
MS.311         	10.51          	0.375
MS.312         	10.49          	0.377
MS.313         	10.47          	0.294
MS.314         	10.448         	0.306
MS.315         	10.427         	0.3
MS.316         	10.407         	0.365
MS.317         	10.385         	0.284
MS.318         	10.365         	0.296
MS.319         	10.345         	0.359
MS.320         	10.323         	0.306
MS.321         	10.302         	0.3
MS.322         	10.282         	0.306
MS.323         	10.262         	0.304
MS.324         	10.24          	0.29
MS.325         	10.22          	0.304
MS.326         	10.2           	0.304
MS.327         	10.18          	0.296
MS.328         	10.16          	0.296
MS.329         	10.14          	0.294
MS.330         	10.12          	0.29
MS.331         	10.1           	0.3
MS.332         	10.077         	0.302
MS.333         	10.057         	0.31
MS.334         	10.037         	0.302
MS.335         	10.017         	0.304
MS.336         	9.997          	0.294
MS.337         	9.977          	0.359
MS.338         	9.957          	0.294
MS.339         	9.938          	0.292
MS.340         	9.917          	0.282
MS.341         	9.9            	0.28
MS.342         	9.88           	0.294
MS.343         	9.86           	0.274
MS.344         	9.84           	0.28
MS.345         	9.82           	0.28
MS.346         	9.8            	0.276
MS.347         	9.78           	0.278
MS.348         	9.76           	0.294
MS.349         	9.742          	0.274
MS.350         	9.722          	0.28
MS.351         	9.702          	0.28
MS.352         	9.682          	0.294
MS.353         	9.665          	0.292
MS.354         	9.645          	0.276
MS.355         	9.625          	0.276
MS.356         	9.608          	0.278
MS.357         	9.587          	0.28
MS.358         	9.568          	0.276
MS.359         	9.55           	0.276
MS.360         	9.53           	0.28
MS.361         	9.51           	0.274
MS.362         	9.492          	0.272
MS.363         	9.472          	0.278
MS.364         	9.455          	0.28
MS.365         	9.435          	0.272
MS.366         	9.415          	0.274
MS.367         	9.398          	0.276
MS.368         	9.377          	0.262
MS.369         	9.36           	0.292
MS.370         	9.34           	0.278
MS.371         	9.323          	0.278
MS.372         	9.302          	0.274
MS.373         	9.285          	0.262
MS.374         	9.267          	0.274
MS.375         	9.247          	0.26
MS.376         	9.23           	0.26
MS.377         	9.21           	0.256
MS.378         	9.193          	0.28
MS.379         	9.175          	0.272
MS.380         	9.155          	0.26
MS.381         	9.137          	0.26
MS.382         	9.12           	0.26
MS.383         	9.102          	0.26
MS.384         	9.082          	0.26
MS.385         	9.065          	0.26
MS.386         	9.047          	0.258
MS.387         	9.03           	0.254
MS.388         	9.01           	0.254
MS.389         	8.992          	0.26
MS.390         	8.975          	0.278
MS.391         	8.957          	0.256
MS.392         	8.94           	0.256
MS.393         	8.92           	0.256
MS.394         	8.903          	0.256
MS.395         	8.885          	0.224
MS.396         	8.867          	0.256
MS.397         	8.85           	0.258
MS.398         	8.832          	0.276
MS.399         	8.815          	0.222
MS.400         	8.797          	0.222
MS.401         	8.78           	0.254
MS.402         	8.762          	0.258
MS.403         	8.745          	0.151
MS.404         	8.727          	0.222
MS.405         	8.71           	0.222
MS.406         	8.693          	0.205
MS.407         	8.675          	0.151
MS.408         	8.658          	0.242
MS.409         	8.64           	0.185
MS.410         	8.622          	0.22
MS.411         	8.605          	0.24
MS.412         	8.587          	0.167
MS.413         	8.573          	0.238
MS.414         	8.555          	0.22
MS.415         	8.537          	0.173
MS.416         	8.52           	0.169
MS.417         	8.502          	0.159
MS.418         	8.485          	0.171
MS.419         	8.47           	0.167
MS.420         	8.452          	0.167
MS.421         	8.435          	0.167
MS.422         	8.417          	0.167
MS.423         	8.403          	0.171
MS.424         	8.385          	0.171
MS.425         	8.367          	0.169
MS.426         	8.352          	0.171
MS.427         	8.335          	0.171
MS.428         	8.318          	0.169
MS.429         	8.302          	0.171
MS.430         	8.285          	0.169
MS.431         	8.267          	0.169
MS.432         	8.252          	0.167
MS.433         	8.235          	0.169
MS.434         	8.217          	0.167
MS.435         	8.202          	0.165
MS.436         	8.185          	0.169
MS.437         	8.17           	0.165
MS.438         	8.153          	0.165
MS.439         	8.137          	0.163
MS.440         	8.12           	0.167
MS.441         	8.105          	0.167
MS.442         	8.087          	0.167
MS.443         	8.073          	0.165
MS.444         	8.055          	0.163
MS.445         	8.04           	0.167
MS.446         	8.025          	0.167
MS.447         	8.007          	0.165
MS.448         	7.992          	0.165
MS.449         	7.975          	0.165
MS.450         	7.96           	0.163
MS.451         	7.945          	0.167
MS.452         	7.927          	0.165
MS.453         	7.912          	0.165
MS.454         	7.898          	0.159
MS.455         	7.88           	0.163
MS.456         	7.865          	0.165
MS.457         	7.85           	0.161
MS.458         	7.832          	0.163
MS.459         	7.817          	0.165
MS.460         	7.802          	0.163
MS.461         	7.787          	0.163
MS.462         	7.77           	0.163
MS.463         	7.755          	0.163
MS.464         	7.74           	0.157
MS.465         	7.725          	0.153
MS.466         	7.71           	0.159
MS.467         	7.695          	0.163
MS.468         	7.677          	0.157
MS.469         	7.662          	0.157
MS.470         	7.648          	0.153
MS.471         	7.632          	0.157
MS.472         	7.617          	0.157
MS.473         	7.602          	0.167
MS.474         	7.587          	0.165
MS.475         	7.572          	0.155
MS.476         	7.557          	0.159
MS.477         	7.543          	0.157
MS.478         	7.527          	0.159
MS.479         	7.512          	0.155
MS.480         	7.497          	0.159
MS.481         	7.482          	0.159
MS.482         	7.467          	0.161
MS.483         	7.452          	0.155
MS.484         	7.438          	0.155
MS.485         	7.422          	0.165
MS.486         	7.407          	0.159
MS.487         	7.392          	0.153
MS.488         	7.378          	0.157
MS.489         	7.362          	0.159
MS.490         	7.347          	0.155
MS.491         	7.332          	0.155
MS.492         	7.317          	0.157
MS.493         	7.305          	0.157
MS.494         	7.29           	0.155
MS.495         	7.275          	0.155
MS.496         	7.26           	0.159
MS.497         	7.245          	0.161
MS.498         	7.233          	0.161
MS.499         	7.217          	0.161
