File:              	C:\Qtrac\Data\Daniel M Sørensen\MScan multicentre study\Data from centres\Oulu\Processed data\OUHC01105A.QZD
Name:              	FL.OUL.NC.5.1
Protocol:          	MSCAN-R2
Date:              	5/11/20
Start time:        	10:40:25
Age:               	61
Sex:               	M
Temperature:       	34,2
S/R sites:         	APB
NC/disease:        	NC
Operator:          	MK
Comments:
M-SCAN DATA (5.9-0.0m)
Scanpts: 13, 25, 813, 832
Stim. (mA)     	Amp. (mV)
MS.1           	27.5           	9.481
MS.2           	27.445         	9.471
MS.3           	27.39          	9.479
MS.4           	27.335         	9.477
MS.5           	27.28          	9.485
MS.6           	27.227         	9.499
MS.7           	27.172         	9.501
MS.8           	27.118         	9.489
MS.9           	27.062         	9.491
MS.10          	27.01          	9.497
MS.11          	26.955         	9.497
MS.12          	26.903         	9.493
MS.13          	26.847         	9.491
MS.14          	26.795         	9.475
MS.15          	26.74          	9.493
MS.16          	26.688         	9.487
MS.17          	26.635         	9.499
MS.18          	26.58          	9.501
MS.19          	26.528         	9.485
MS.20          	26.475         	9.501
MS.21          	26.422         	9.495
MS.22          	26.37          	9.499
MS.23          	26.315         	9.503
MS.24          	26.262         	9.513
MS.25          	26.21          	9.517
MS.26          	26.16          	9.509
MS.27          	26.108         	9.493
MS.28          	26.055         	9.527
MS.29          	26.002         	9.523
MS.30          	25.95          	9.499
MS.31          	25.897         	9.505
MS.32          	25.847         	9.513
MS.33          	25.795         	9.519
MS.34          	25.743         	9.509
MS.35          	25.692         	9.531
MS.36          	25.64          	9.509
MS.37          	25.59          	9.519
MS.38          	25.538         	9.523
MS.39          	25.487         	9.402
MS.40          	25.438         	9.529
MS.41          	25.385         	9.392
MS.42          	25.335         	9.541
MS.43          	25.285         	9.372
MS.44          	25.235         	9.408
MS.45          	25.182         	9.519
MS.46          	25.132         	9.507
MS.47          	25.082         	9.338
MS.48          	25.032         	9.374
MS.49          	24.983         	9.37
MS.50          	24.932         	9.406
MS.51          	24.882         	9.547
MS.52          	24.832         	9.038
MS.53          	24.782         	9.416
MS.54          	24.735         	9.054
MS.55          	24.685         	9.42
MS.56          	24.635         	9.406
MS.57          	24.585         	9.076
MS.58          	24.538         	9.036
MS.59          	24.487         	9.362
MS.60          	24.44          	9.408
MS.61          	24.39          	9.394
MS.62          	24.342         	9.4
MS.63          	24.292         	9.07
MS.64          	24.245         	9.034
MS.65          	24.195         	9.386
MS.66          	24.147         	8.806
MS.67          	24.1           	8.866
MS.68          	24.05          	8.8
MS.69          	24.002         	8.947
MS.70          	23.955         	8.957
MS.71          	23.907         	8.604
MS.72          	23.86          	8.459
MS.73          	23.812         	8.512
MS.74          	23.765         	8.711
MS.75          	23.717         	8.588
MS.76          	23.67          	8.419
MS.77          	23.622         	8.518
MS.78          	23.575         	8.323
MS.79          	23.528         	8.337
MS.80          	23.48          	8.032
MS.81          	23.435         	8.161
MS.82          	23.387         	8.153
MS.83          	23.34          	8.204
MS.84          	23.295         	8.186
MS.85          	23.247         	8.133
MS.86          	23.2           	7.815
MS.87          	23.155         	7.805
MS.88          	23.108         	7.849
MS.89          	23.062         	8.004
MS.90          	23.015         	7.944
MS.91          	22.97          	7.753
MS.92          	22.925         	7.769
MS.93          	22.877         	7.597
MS.94          	22.832         	7.607
MS.95          	22.788         	7.767
MS.96          	22.743         	7.523
MS.97          	22.695         	7.336
MS.98          	22.65          	7.539
MS.99          	22.605         	7.271
MS.100         	22.56          	7.444
MS.101         	22.515         	7.342
MS.102         	22.47          	7.086
MS.103         	22.425         	7.307
MS.104         	22.38          	7.187
MS.105         	22.335         	7.295
MS.106         	22.29          	7.205
MS.107         	22.247         	7.255
MS.108         	22.202         	7.112
MS.109         	22.157         	7.313
MS.110         	22.112         	6.927
MS.111         	22.07          	6.864
MS.112         	22.025         	6.802
MS.113         	21.98          	6.923
MS.114         	21.938         	6.81
MS.115         	21.892         	6.743
MS.116         	21.85          	6.709
MS.117         	21.805         	6.659
MS.118         	21.762         	6.836
MS.119         	21.72          	6.935
MS.120         	21.675         	6.832
MS.121         	21.632         	6.673
MS.122         	21.59          	6.691
MS.123         	21.545         	6.659
MS.124         	21.502         	6.719
MS.125         	21.46          	6.512
MS.126         	21.417         	6.619
MS.127         	21.375         	6.518
MS.128         	21.333         	6.568
MS.129         	21.29          	6.643
MS.130         	21.247         	6.516
MS.131         	21.205         	6.2
MS.132         	21.163         	6.212
MS.133         	21.12          	6.331
MS.134         	21.077         	6.047
MS.135         	21.035         	6.061
MS.136         	20.993         	5.813
MS.137         	20.95          	6.181
MS.138         	20.91          	6.047
MS.139         	20.868         	6.21
MS.140         	20.825         	5.847
MS.141         	20.785         	6
MS.142         	20.743         	5.883
MS.143         	20.7           	5.62
MS.144         	20.66          	5.593
MS.145         	20.618         	5.803
MS.146         	20.577         	5.587
MS.147         	20.535         	5.636
MS.148         	20.495         	5.414
MS.149         	20.455         	5.448
MS.150         	20.413         	5.225
MS.151         	20.372         	5.269
MS.152         	20.333         	5.239
MS.153         	20.29          	5.315
MS.154         	20.25          	5.221
MS.155         	20.21          	5.14
MS.156         	20.17          	4.987
MS.157         	20.13          	5.211
MS.158         	20.09          	5.086
MS.159         	20.05          	4.921
MS.160         	20.01          	4.904
MS.161         	19.97          	4.884
MS.162         	19.93          	4.687
MS.163         	19.89          	4.749
MS.164         	19.85          	4.651
MS.165         	19.81          	4.576
MS.166         	19.77          	4.542
MS.167         	19.73          	4.772
MS.168         	19.692         	4.564
MS.169         	19.653         	4.582
MS.170         	19.612         	4.651
MS.171         	19.573         	4.387
MS.172         	19.535         	4.534
MS.173         	19.495         	4.455
MS.174         	19.458         	4.459
MS.175         	19.417         	4.407
MS.176         	19.38          	4.212
MS.177         	19.34          	4.119
MS.178         	19.302         	4.091
MS.179         	19.262         	4.202
MS.180         	19.225         	4.185
MS.181         	19.185         	4.26
MS.182         	19.147         	4.131
MS.183         	19.11          	4.133
MS.184         	19.073         	3.938
MS.185         	19.032         	4.089
MS.186         	18.995         	3.775
MS.187         	18.958         	3.668
MS.188         	18.92          	3.563
MS.189         	18.882         	3.99
MS.190         	18.845         	3.587
MS.191         	18.805         	3.422
MS.192         	18.767         	3.652
MS.193         	18.73          	3.374
MS.194         	18.692         	3.243
MS.195         	18.657         	3.41
MS.196         	18.62          	3.011
MS.197         	18.583         	3.249
MS.198         	18.545         	2.778
MS.199         	18.507         	2.858
MS.200         	18.47          	2.753
MS.201         	18.435         	2.87
MS.202         	18.397         	2.987
MS.203         	18.36          	2.755
MS.204         	18.323         	2.987
MS.205         	18.288         	2.473
MS.206         	18.25          	2.421
MS.207         	18.215         	2.389
MS.208         	18.177         	2.185
MS.209         	18.14          	2.387
MS.210         	18.105         	1.984
MS.211         	18.07          	2.069
MS.212         	18.032         	1.992
MS.213         	17.997         	1.779
MS.214         	17.96          	1.845
MS.215         	17.925         	2.02
MS.216         	17.89          	1.853
MS.217         	17.852         	1.728
MS.218         	17.817         	1.863
MS.219         	17.782         	1.686
MS.220         	17.747         	1.724
MS.221         	17.71          	1.696
MS.222         	17.675         	1.825
MS.223         	17.64          	1.682
MS.224         	17.605         	1.575
MS.225         	17.57          	1.593
MS.226         	17.535         	1.676
MS.227         	17.5           	1.698
MS.228         	17.465         	1.333
MS.229         	17.43          	1.577
MS.230         	17.395         	1.223
MS.231         	17.36          	1.194
MS.232         	17.325         	1.059
MS.233         	17.29          	1.515
MS.234         	17.257         	1.563
MS.235         	17.222         	1.204
MS.236         	17.188         	1.509
MS.237         	17.153         	1.476
MS.238         	17.12          	1.078
MS.239         	17.085         	0.618
MS.240         	17.05          	1.148
MS.241         	17.017         	1.509
MS.242         	16.983         	0.997
MS.243         	16.948         	0.62
MS.244         	16.915         	1.122
MS.245         	16.88          	0.679
MS.246         	16.847         	0.576
MS.247         	16.812         	0.655
MS.248         	16.78          	0.955
MS.249         	16.747         	0.598
MS.250         	16.712         	0.584
MS.251         	16.68          	0.651
MS.252         	16.647         	0.606
MS.253         	16.612         	0.6
MS.254         	16.58          	0.588
MS.255         	16.547         	0.592
MS.256         	16.512         	0.576
MS.257         	16.48          	0.566
MS.258         	16.448         	0.578
MS.259         	16.415         	0.59
MS.260         	16.382         	0.586
MS.261         	16.35          	0.592
MS.262         	16.317         	0.58
MS.263         	16.285         	0.594
MS.264         	16.253         	0.564
MS.265         	16.22          	0.58
MS.266         	16.188         	0.568
MS.267         	16.155         	0.582
MS.268         	16.122         	0.568
MS.269         	16.09          	0.582
MS.270         	16.057         	0.556
MS.271         	16.025         	0.55
MS.272         	15.992         	0.554
MS.273         	15.962         	0.55
MS.274         	15.93          	0.56
MS.275         	15.898         	0.54
MS.276         	15.865         	0.568
MS.277         	15.835         	0.56
MS.278         	15.802         	0.562
MS.279         	15.77          	0.558
MS.280         	15.74          	0.55
MS.281         	15.707         	0.546
MS.282         	15.677         	0.54
MS.283         	15.645         	0.542
MS.284         	15.615         	0.534
MS.285         	15.582         	0.538
MS.286         	15.552         	0.534
MS.287         	15.52          	0.538
MS.288         	15.49          	0.546
MS.289         	15.46          	0.53
MS.290         	15.427         	0.544
MS.291         	15.398         	0.542
MS.292         	15.367         	0.54
MS.293         	15.335         	0.558
MS.294         	15.305         	0.544
MS.295         	15.275         	0.546
MS.296         	15.245         	0.536
MS.297         	15.212         	0.544
MS.298         	15.182         	0.473
MS.299         	15.152         	0.54
MS.300         	15.122         	0.536
MS.301         	15.092         	0.473
MS.302         	15.062         	0.479
MS.303         	15.032         	0.544
MS.304         	15.002         	0.473
MS.305         	14.972         	0.475
MS.306         	14.943         	0.445
MS.307         	14.912         	0.471
MS.308         	14.882         	0.419
MS.309         	14.852         	0.475
MS.310         	14.822         	0.417
MS.311         	14.792         	0.459
MS.312         	14.765         	0.431
MS.313         	14.735         	0.367
MS.314         	14.705         	0.445
MS.315         	14.675         	0.371
MS.316         	14.648         	0.431
MS.317         	14.617         	0.375
MS.318         	14.587         	0.369
MS.319         	14.557         	0.369
MS.320         	14.53          	0.379
MS.321         	14.5           	0.427
MS.322         	14.472         	0.373
MS.323         	14.443         	0.375
MS.324         	14.415         	0.375
MS.325         	14.385         	0.375
MS.326         	14.358         	0.371
MS.327         	14.327         	0.371
MS.328         	14.3           	0.373
MS.329         	14.27          	0.369
MS.330         	14.242         	0.369
MS.331         	14.212         	0.379
MS.332         	14.185         	0.369
MS.333         	14.157         	0.367
MS.334         	14.127         	0.375
MS.335         	14.1           	0.371
MS.336         	14.072         	0.371
MS.337         	14.045         	0.373
MS.338         	14.015         	0.375
MS.339         	13.987         	0.375
MS.340         	13.96          	0.375
MS.341         	13.932         	0.379
MS.342         	13.905         	0.371
MS.343         	13.877         	0.375
MS.344         	13.847         	0.375
MS.345         	13.82          	0.375
MS.346         	13.792         	0.379
MS.347         	13.765         	0.379
MS.348         	13.737         	0.369
MS.349         	13.71          	0.385
MS.350         	13.682         	0.377
MS.351         	13.655         	0.389
MS.352         	13.63          	0.377
MS.353         	13.602         	0.387
MS.354         	13.575         	0.373
MS.355         	13.547         	0.373
MS.356         	13.52          	0.381
MS.357         	13.492         	0.377
MS.358         	13.467         	0.393
MS.359         	13.44          	0.387
MS.360         	13.412         	0.391
MS.361         	13.385         	0.385
MS.362         	13.36          	0.389
MS.363         	13.332         	0.385
MS.364         	13.305         	0.389
MS.365         	13.28          	0.387
MS.366         	13.252         	0.393
MS.367         	13.225         	0.379
MS.368         	13.2           	0.389
MS.369         	13.172         	0.395
MS.370         	13.148         	0.387
MS.371         	13.12          	0.387
MS.372         	13.095         	0.387
MS.373         	13.068         	0.391
MS.374         	13.042         	0.395
MS.375         	13.015         	0.395
MS.376         	12.99          	0.387
MS.377         	12.965         	0.387
MS.378         	12.938         	0.387
MS.379         	12.912         	0.389
MS.380         	12.887         	0.389
MS.381         	12.86          	0.387
MS.382         	12.835         	0.389
MS.383         	12.81          	0.391
MS.384         	12.785         	0.387
MS.385         	12.757         	0.389
MS.386         	12.733         	0.387
MS.387         	12.707         	0.391
MS.388         	12.682         	0.385
MS.389         	12.657         	0.387
MS.390         	12.632         	0.389
MS.391         	12.605         	0.391
MS.392         	12.58          	0.385
MS.393         	12.555         	0.389
MS.394         	12.53          	0.389
MS.395         	12.505         	0.391
MS.396         	12.48          	0.389
MS.397         	12.455         	0.389
MS.398         	12.43          	0.389
MS.399         	12.405         	0.391
MS.400         	12.382         	0.389
MS.401         	12.358         	0.389
MS.402         	12.332         	0.383
MS.403         	12.307         	0.391
MS.404         	12.282         	0.389
MS.405         	12.257         	0.385
MS.406         	12.233         	0.385
MS.407         	12.21          	0.393
MS.408         	12.185         	0.393
MS.409         	12.16          	0.385
MS.410         	12.135         	0.389
MS.411         	12.113         	0.389
MS.412         	12.087         	0.379
MS.413         	12.062         	0.385
MS.414         	12.04          	0.389
MS.415         	12.015         	0.381
MS.416         	11.992         	0.383
MS.417         	11.967         	0.385
MS.418         	11.943         	0.387
MS.419         	11.92          	0.389
MS.420         	11.895         	0.381
MS.421         	11.872         	0.383
MS.422         	11.847         	0.385
MS.423         	11.825         	0.387
MS.424         	11.8           	0.391
MS.425         	11.778         	0.387
MS.426         	11.755         	0.387
MS.427         	11.73          	0.389
MS.428         	11.707         	0.387
MS.429         	11.682         	0.387
MS.430         	11.66          	0.385
MS.431         	11.637         	0.387
MS.432         	11.613         	0.391
MS.433         	11.59          	0.389
MS.434         	11.568         	0.387
MS.435         	11.545         	0.387
MS.436         	11.52          	0.391
MS.437         	11.497         	0.383
MS.438         	11.475         	0.381
MS.439         	11.452         	0.383
MS.440         	11.43          	0.383
MS.441         	11.407         	0.387
MS.442         	11.382         	0.383
MS.443         	11.36          	0.387
MS.444         	11.337         	0.383
MS.445         	11.315         	0.391
MS.446         	11.292         	0.385
MS.447         	11.27          	0.389
MS.448         	11.247         	0.395
MS.449         	11.225         	0.383
MS.450         	11.202         	0.383
MS.451         	11.18          	0.385
MS.452         	11.157         	0.385
MS.453         	11.135         	0.387
MS.454         	11.115         	0.387
MS.455         	11.092         	0.385
MS.456         	11.07          	0.389
MS.457         	11.047         	0.383
MS.458         	11.025         	0.387
MS.459         	11.002         	0.391
MS.460         	10.98          	0.385
MS.461         	10.96          	0.391
MS.462         	10.938         	0.391
MS.463         	10.915         	0.385
MS.464         	10.892         	0.389
MS.465         	10.872         	0.385
MS.466         	10.85          	0.389
MS.467         	10.827         	0.387
MS.468         	10.807         	0.383
MS.469         	10.785         	0.381
MS.470         	10.765         	0.385
MS.471         	10.742         	0.391
MS.472         	10.72          	0.387
MS.473         	10.7           	0.387
MS.474         	10.677         	0.383
MS.475         	10.657         	0.387
MS.476         	10.635         	0.391
MS.477         	10.615         	0.393
MS.478         	10.592         	0.389
MS.479         	10.573         	0.387
MS.480         	10.55          	0.387
MS.481         	10.53          	0.397
MS.482         	10.507         	0.393
MS.483         	10.488         	0.391
MS.484         	10.467         	0.387
MS.485         	10.445         	0.389
MS.486         	10.425         	0.395
MS.487         	10.405         	0.395
MS.488         	10.382         	0.395
MS.489         	10.363         	0.389
MS.490         	10.342         	0.391
MS.491         	10.32          	0.387
MS.492         	10.3           	0.387
MS.493         	10.28          	0.387
MS.494         	10.26          	0.387
MS.495         	10.24          	0.387
MS.496         	10.217         	0.387
MS.497         	10.198         	0.389
MS.498         	10.177         	0.385
MS.499         	10.157         	0.389
MS.500         	10.137         	0.391
MS.501         	10.117         	0.387
