File:              	C:\Qtrac\Data\Daniel M Sørensen\MScan multicentre study\Data from centres\Oulu\Processed data\OUHC01211A.QZD
Name:              	FL.OUL.NC.6.2
Protocol:          	MSCAN-R2
Date:              	11/12/20
Start time:        	08:42:32
Age:               	34
Sex:               	M
Temperature:       	33,6
S/R sites:         	APB
NC/disease:        	NC
Operator:          	MK
Comments:
M-SCAN DATA (2.4-0.0m)
Scanpts: 50, 63, 500, 518
Stim. (mA)     	Amp. (mV)
MS.1           	21.5           	10.609
MS.2           	21.5           	10.621
MS.3           	21.458         	10.619
MS.4           	21.415         	10.57
MS.5           	21.372         	10.572
MS.6           	21.327         	10.58
MS.7           	21.285         	10.617
MS.8           	21.243         	10.621
MS.9           	21.2           	10.576
MS.10          	21.157         	10.57
MS.11          	21.118         	10.562
MS.12          	21.075         	10.568
MS.13          	21.032         	10.576
MS.14          	20.99          	10.586
MS.15          	20.948         	10.623
MS.16          	20.907         	10.586
MS.17          	20.865         	10.586
MS.18          	20.823         	10.584
MS.19          	20.782         	10.59
MS.20          	20.74          	10.582
MS.21          	20.698         	10.588
MS.22          	20.657         	10.582
MS.23          	20.615         	10.572
MS.24          	20.575         	10.59
MS.25          	20.532         	10.57
MS.26          	20.493         	10.572
MS.27          	20.452         	10.544
MS.28          	20.41          	10.538
MS.29          	20.37          	10.552
MS.30          	20.33          	10.548
MS.31          	20.288         	10.558
MS.32          	20.247         	10.558
MS.33          	20.208         	10.556
MS.34          	20.167         	10.542
MS.35          	20.127         	10.56
MS.36          	20.087         	10.554
MS.37          	20.047         	10.554
MS.38          	20.007         	10.552
MS.39          	19.967         	10.53
MS.40          	19.927         	10.56
MS.41          	19.887         	10.564
MS.42          	19.847         	10.556
MS.43          	19.807         	10.546
MS.44          	19.767         	10.566
MS.45          	19.727         	10.544
MS.46          	19.69          	10.556
MS.47          	19.65          	10.538
MS.48          	19.61          	10.558
MS.49          	19.57          	10.55
MS.50          	19.532         	10.54
MS.51          	19.493         	10.556
MS.52          	19.455         	10.55
MS.53          	19.415         	10.56
MS.54          	19.377         	10.554
MS.55          	19.337         	10.57
MS.56          	19.3           	10.572
MS.57          	19.26          	10.568
MS.58          	19.222         	10.564
MS.59          	19.182         	10.55
MS.60          	19.145         	10.546
MS.61          	19.108         	10.558
MS.62          	19.07          	10.584
MS.63          	19.03          	10.568
MS.64          	18.993         	10.554
MS.65          	18.955         	10.544
MS.66          	18.917         	10.54
MS.67          	18.88          	10.548
MS.68          	18.842         	10.542
MS.69          	18.802         	10.578
MS.70          	18.765         	10.544
MS.71          	18.727         	10.564
MS.72          	18.69          	10.554
MS.73          	18.655         	10.558
MS.74          	18.618         	10.562
MS.75          	18.58          	10.572
MS.76          	18.542         	10.594
MS.77          	18.505         	10.58
MS.78          	18.467         	10.576
MS.79          	18.432         	10.576
MS.80          	18.395         	10.546
MS.81          	18.358         	10.548
MS.82          	18.32          	10.554
MS.83          	18.285         	10.55
MS.84          	18.247         	10.558
MS.85          	18.212         	10.59
MS.86          	18.175         	10.56
MS.87          	18.14          	10.556
MS.88          	18.102         	10.54
MS.89          	18.067         	10.544
MS.90          	18.03          	10.566
MS.91          	17.995         	10.56
MS.92          	17.958         	10.578
MS.93          	17.922         	10.56
MS.94          	17.887         	10.568
MS.95          	17.85          	10.427
MS.96          	17.815         	10.56
MS.97          	17.78          	10.574
MS.98          	17.745         	10.433
MS.99          	17.708         	10.466
MS.100         	17.672         	10.59
MS.101         	17.637         	10.433
MS.102         	17.602         	10.458
MS.103         	17.567         	10.439
MS.104         	17.532         	10.443
MS.105         	17.497         	10.447
MS.106         	17.462         	10.451
MS.107         	17.427         	10.468
MS.108         	17.392         	10.453
MS.109         	17.358         	10.466
MS.110         	17.323         	10.246
MS.111         	17.288         	10.482
MS.112         	17.255         	10.478
MS.113         	17.22          	10.292
MS.114         	17.185         	10.329
MS.115         	17.15          	10.451
MS.116         	17.118         	10.312
MS.117         	17.083         	10.254
MS.118         	17.047         	10.26
MS.119         	17.015         	10.139
MS.120         	16.98          	10.264
MS.121         	16.948         	10.268
MS.122         	16.913         	10.308
MS.123         	16.878         	10.204
MS.124         	16.845         	10.19
MS.125         	16.812         	10.216
MS.126         	16.778         	10.252
MS.127         	16.745         	10.202
MS.128         	16.71          	10.192
MS.129         	16.677         	10.212
MS.130         	16.645         	10.2
MS.131         	16.61          	10.218
MS.132         	16.577         	10.204
MS.133         	16.545         	10.053
MS.134         	16.512         	10.089
MS.135         	16.477         	10.23
MS.136         	16.445         	10.109
MS.137         	16.413         	10.097
MS.138         	16.38          	10.234
MS.139         	16.347         	10.109
MS.140         	16.315         	10.101
MS.141         	16.282         	10.035
MS.142         	16.25          	10.095
MS.143         	16.217         	10.049
MS.144         	16.185         	10.043
MS.145         	16.153         	10.004
MS.146         	16.12          	10
MS.147         	16.087         	10.047
MS.148         	16.055         	10.081
MS.149         	16.022         	10
MS.150         	15.992         	10.01
MS.151         	15.96          	10
MS.152         	15.927         	9.898
MS.153         	15.895         	9.94
MS.154         	15.865         	10.018
MS.155         	15.832         	9.944
MS.156         	15.8           	9.825
MS.157         	15.77          	9.879
MS.158         	15.737         	9.871
MS.159         	15.705         	9.728
MS.160         	15.675         	9.702
MS.161         	15.642         	9.809
MS.162         	15.612         	9.72
MS.163         	15.58          	9.801
MS.164         	15.55          	9.722
MS.165         	15.52          	9.684
MS.166         	15.487         	9.706
MS.167         	15.457         	9.714
MS.168         	15.425         	9.704
MS.169         	15.395         	9.686
MS.170         	15.365         	9.656
MS.171         	15.332         	9.696
MS.172         	15.302         	9.682
MS.173         	15.273         	9.712
MS.174         	15.242         	9.64
MS.175         	15.212         	9.626
MS.176         	15.18          	9.61
MS.177         	15.15          	9.593
MS.178         	15.12          	9.638
MS.179         	15.09          	9.517
MS.180         	15.06          	9.529
MS.181         	15.03          	9.519
MS.182         	15             	9.529
MS.183         	14.97          	9.569
MS.184         	14.94          	9.398
MS.185         	14.91          	9.535
MS.186         	14.88          	9.485
MS.187         	14.85          	9.41
MS.188         	14.82          	9.346
MS.189         	14.792         	9.366
MS.190         	14.762         	9.41
MS.191         	14.733         	9.287
MS.192         	14.702         	9.311
MS.193         	14.672         	9.338
MS.194         	14.645         	9.15
MS.195         	14.615         	9.154
MS.196         	14.585         	8.973
MS.197         	14.557         	8.989
MS.198         	14.527         	9.1
MS.199         	14.497         	9.038
MS.200         	14.47          	9.128
MS.201         	14.44          	8.927
MS.202         	14.412         	9.021
MS.203         	14.382         	8.945
MS.204         	14.355         	8.888
MS.205         	14.325         	8.913
MS.206         	14.297         	9.056
MS.207         	14.267         	8.886
MS.208         	14.24          	9.031
MS.209         	14.212         	8.87
MS.210         	14.182         	8.739
MS.211         	14.155         	8.854
MS.212         	14.127         	8.858
MS.213         	14.097         	8.895
MS.214         	14.07          	8.858
MS.215         	14.042         	8.782
MS.216         	14.015         	8.901
MS.217         	13.985         	8.874
MS.218         	13.957         	8.584
MS.219         	13.93          	8.794
MS.220         	13.903         	8.576
MS.221         	13.875         	8.687
MS.222         	13.847         	8.679
MS.223         	13.82          	8.558
MS.224         	13.792         	8.635
MS.225         	13.765         	8.488
MS.226         	13.737         	8.623
MS.227         	13.71          	8.488
MS.228         	13.682         	8.504
MS.229         	13.655         	8.429
MS.230         	13.627         	8.351
MS.231         	13.6           	8.542
MS.232         	13.572         	8.335
MS.233         	13.545         	8.433
MS.234         	13.517         	8.355
MS.235         	13.492         	8.252
MS.236         	13.465         	8.184
MS.237         	13.438         	8.258
MS.238         	13.41          	8.228
MS.239         	13.385         	8.182
MS.240         	13.358         	8.135
MS.241         	13.33          	8.169
MS.242         	13.305         	8.063
MS.243         	13.278         	8.163
MS.244         	13.25          	8.041
MS.245         	13.225         	8.041
MS.246         	13.197         	7.924
MS.247         	13.172         	7.632
MS.248         	13.145         	7.593
MS.249         	13.12          	7.612
MS.250         	13.092         	7.861
MS.251         	13.068         	7.972
MS.252         	13.04          	7.174
MS.253         	13.015         	7.307
MS.254         	12.987         	7.017
MS.255         	12.962         	6.814
MS.256         	12.938         	7.007
MS.257         	12.91          	6.911
MS.258         	12.885         	7.033
MS.259         	12.86          	6.894
MS.260         	12.832         	6.862
MS.261         	12.807         	6.395
MS.262         	12.782         	6.49
MS.263         	12.757         	6.439
MS.264         	12.73          	6.268
MS.265         	12.705         	6.129
MS.266         	12.68          	6.328
MS.267         	12.655         	6.101
MS.268         	12.63          	6.59
MS.269         	12.605         	6.188
MS.270         	12.58          	5.984
MS.271         	12.555         	6.02
MS.272         	12.53          	6.101
MS.273         	12.505         	5.901
MS.274         	12.48          	5.948
MS.275         	12.455         	5.867
MS.276         	12.43          	5.825
MS.277         	12.405         	5.787
MS.278         	12.38          	5.527
MS.279         	12.355         	5.603
MS.280         	12.33          	5.386
MS.281         	12.305         	5.505
MS.282         	12.28          	5.201
MS.283         	12.257         	5.257
MS.284         	12.233         	5.299
MS.285         	12.207         	5.142
MS.286         	12.182         	5.052
MS.287         	12.16          	5.376
MS.288         	12.135         	5.386
MS.289         	12.11          	5.164
MS.290         	12.085         	5.08
MS.291         	12.062         	5.019
MS.292         	12.037         	5.092
MS.293         	12.015         	5.023
MS.294         	11.99          	4.902
MS.295         	11.965         	4.685
MS.296         	11.943         	4.915
MS.297         	11.917         	4.393
MS.298         	11.895         	4.328
MS.299         	11.87          	4.252
MS.300         	11.847         	4.598
MS.301         	11.822         	4.395
MS.302         	11.8           	4.522
MS.303         	11.775         	4.284
MS.304         	11.752         	4.204
MS.305         	11.73          	4.324
MS.306         	11.705         	4.115
MS.307         	11.682         	4.008
MS.308         	11.657         	3.918
MS.309         	11.635         	4.326
MS.310         	11.613         	4.125
MS.311         	11.59          	4
MS.312         	11.565         	3.609
MS.313         	11.542         	3.968
MS.314         	11.52          	3.682
MS.315         	11.497         	3.507
MS.316         	11.472         	3.537
MS.317         	11.45          	3.563
MS.318         	11.427         	3.394
MS.319         	11.405         	3.38
MS.320         	11.382         	3.313
MS.321         	11.36          	3.128
MS.322         	11.337         	3.184
MS.323         	11.315         	3.168
MS.324         	11.292         	2.999
MS.325         	11.27          	3.039
MS.326         	11.247         	2.925
MS.327         	11.225         	3.057
MS.328         	11.202         	2.874
MS.329         	11.18          	2.967
MS.330         	11.157         	2.769
MS.331         	11.135         	2.812
MS.332         	11.113         	2.675
MS.333         	11.09          	2.838
MS.334         	11.068         	2.745
MS.335         	11.045         	2.554
MS.336         	11.025         	2.63
MS.337         	11.002         	2.604
MS.338         	10.98          	2.232
MS.339         	10.957         	2.453
MS.340         	10.935         	2.379
MS.341         	10.915         	2.105
MS.342         	10.892         	2.306
MS.343         	10.87          	2.316
MS.344         	10.85          	2.419
MS.345         	10.827         	2.284
MS.346         	10.805         	2.254
MS.347         	10.785         	2.264
MS.348         	10.762         	1.95
MS.349         	10.74          	1.774
MS.350         	10.72          	1.706
MS.351         	10.698         	1.774
MS.352         	10.677         	2.046
MS.353         	10.655         	1.432
MS.354         	10.635         	1.607
MS.355         	10.613         	1.573
MS.356         	10.592         	1.503
MS.357         	10.57          	1.412
MS.358         	10.55          	1.202
MS.359         	10.528         	1.539
MS.360         	10.507         	1.412
MS.361         	10.485         	1.2
MS.362         	10.465         	1.325
MS.363         	10.445         	1.184
MS.364         	10.422         	1.031
MS.365         	10.403         	1.059
MS.366         	10.382         	1.096
MS.367         	10.36          	0.84
MS.368         	10.34          	1.033
MS.369         	10.32          	0.848
MS.370         	10.3           	0.846
MS.371         	10.278         	0.931
MS.372         	10.257         	0.874
MS.373         	10.238         	0.963
MS.374         	10.217         	0.945
MS.375         	10.198         	0.959
MS.376         	10.175         	0.902
MS.377         	10.155         	0.92
MS.378         	10.135         	0.931
MS.379         	10.115         	0.733
MS.380         	10.095         	0.874
MS.381         	10.075         	0.794
MS.382         	10.055         	0.876
MS.383         	10.035         	0.578
MS.384         	10.015         	0.796
MS.385         	9.995          	0.578
MS.386         	9.975          	0.759
MS.387         	9.955          	0.576
MS.388         	9.935          	0.862
MS.389         	9.915          	0.693
MS.390         	9.895          	0.741
MS.391         	9.875          	0.56
MS.392         	9.855          	0.582
MS.393         	9.835          	0.58
MS.394         	9.818          	0.485
MS.395         	9.797          	0.514
MS.396         	9.778          	0.602
MS.397         	9.757          	0.638
MS.398         	9.738          	0.512
MS.399         	9.717          	0.421
MS.400         	9.7            	0.381
MS.401         	9.68           	0.363
MS.402         	9.66           	0.443
MS.403         	9.642          	0.383
MS.404         	9.622          	0.383
MS.405         	9.602          	0.379
MS.406         	9.582          	0.298
MS.407         	9.565          	0.407
MS.408         	9.545          	0.278
MS.409         	9.528          	0.294
MS.410         	9.507          	0.346
MS.411         	9.488          	0.278
MS.412         	9.47           	0.22
MS.413         	9.45           	0.228
MS.414         	9.432          	0.328
MS.415         	9.412          	0.137
MS.416         	9.395          	0.226
MS.417         	9.375          	0.135
MS.418         	9.358          	0.137
MS.419         	9.337          	0.135
MS.420         	9.32           	0.095
MS.421         	9.3            	0.079
MS.422         	9.283          	0.137
MS.423         	9.262          	0.081
MS.424         	9.245          	0.085
MS.425         	9.227          	0.083
MS.426         	9.207          	0.083
MS.427         	9.19           	0.133
MS.428         	9.17           	0.05
MS.429         	9.153          	0.093
MS.430         	9.135          	0.081
MS.431         	9.115          	0.05
MS.432         	9.097          	0.091
MS.433         	9.08           	0.052
MS.434         	9.062          	0.052
MS.435         	9.042          	0.085
MS.436         	9.025          	0.052
MS.437         	9.007          	0.081
MS.438         	8.99           	0.048
MS.439         	8.972          	0.05
MS.440         	8.952          	0.052
MS.441         	8.935          	0.095
MS.442         	8.917          	0.05
MS.443         	8.9            	0.05
MS.444         	8.882          	0.056
MS.445         	8.865          	0.052
MS.446         	8.847          	0.048
MS.447         	8.83           	0.052
MS.448         	8.812          	0.05
MS.449         	8.795          	0.048
MS.450         	8.778          	0.052
MS.451         	8.76           	0.052
MS.452         	8.742          	0.05
MS.453         	8.725          	0.046
MS.454         	8.707          	0.052
MS.455         	8.69           	0.044
MS.456         	8.672          	0.042
MS.457         	8.655          	0.042
MS.458         	8.637          	0.046
MS.459         	8.62           	0.052
MS.460         	8.602          	0.046
MS.461         	8.585          	0.046
MS.462         	8.568          	0.054
MS.463         	8.55           	0.042
MS.464         	8.535          	0.042
MS.465         	8.517          	0.046
MS.466         	8.5            	0.046
MS.467         	8.483          	0.042
MS.468         	8.465          	0.044
MS.469         	8.45           	0.044
MS.470         	8.432          	0.042
MS.471         	8.415          	0.042
MS.472         	8.398          	0.044
MS.473         	8.382          	0.048
MS.474         	8.365          	0.046
MS.475         	8.347          	0.044
MS.476         	8.332          	0.042
MS.477         	8.315          	0.044
MS.478         	8.297          	0.042
MS.479         	8.283          	0.044
MS.480         	8.265          	0.02
MS.481         	8.247          	0.02
MS.482         	8.233          	0.022
MS.483         	8.215          	0.02
MS.484         	8.2            	0.046
MS.485         	8.182          	0.044
MS.486         	8.167          	0.024
MS.487         	8.15           	0.02
MS.488         	8.135          	0.022
MS.489         	8.117          	0.044
MS.490         	8.102          	0.02
MS.491         	8.085          	0.02
MS.492         	8.07           	0.02
MS.493         	8.052          	0.02
MS.494         	8.037          	0.026
MS.495         	8.02           	0.02
MS.496         	8.005          	0.02
MS.497         	7.99           	0.024
MS.498         	7.972          	0.024
