File:              	C:\Qtrac\Data\Daniel M Sørensen\MScan multicentre study\Data from centres\Oulu\Processed data\OUHC01117A.QZD
Name:              	FL.OUL.NC.5.2
Protocol:          	MSCAN-R2
Date:              	17/11/20
Start time:        	10:18:14
Age:               	61
Sex:               	M
Temperature:       	34,4
S/R sites:         	APB
NC/disease:        	NC
Operator:          	MK
Comments:
M-SCAN DATA (2-0.0m)
Scanpts: 62, 71, 646, 659
Stim. (mA)     	Amp. (mV)
MS.1           	23.5           	8.756
MS.2           	23.5           	8.741
MS.3           	23.452         	8.729
MS.4           	23.405         	8.743
MS.5           	23.36          	8.735
MS.6           	23.312         	8.758
MS.7           	23.265         	8.741
MS.8           	23.22          	8.752
MS.9           	23.172         	8.745
MS.10          	23.127         	8.723
MS.11          	23.08          	8.752
MS.12          	23.035         	8.739
MS.13          	22.987         	8.737
MS.14          	22.942         	8.725
MS.15          	22.897         	8.754
MS.16          	22.85          	8.745
MS.17          	22.805         	8.737
MS.18          	22.76          	8.745
MS.19          	22.715         	8.741
MS.20          	22.67          	8.731
MS.21          	22.625         	8.743
MS.22          	22.577         	8.754
MS.23          	22.532         	8.756
MS.24          	22.487         	8.741
MS.25          	22.442         	8.743
MS.26          	22.397         	8.741
MS.27          	22.355         	8.737
MS.28          	22.31          	8.727
MS.29          	22.265         	8.762
MS.30          	22.22          	8.747
MS.31          	22.175         	8.778
MS.32          	22.132         	8.754
MS.33          	22.087         	8.754
MS.34          	22.042         	8.743
MS.35          	22             	8.727
MS.36          	21.955         	8.747
MS.37          	21.913         	8.731
MS.38          	21.868         	8.737
MS.39          	21.825         	8.758
MS.40          	21.78          	8.752
MS.41          	21.737         	8.747
MS.42          	21.692         	8.743
MS.43          	21.65          	8.75
MS.44          	21.608         	8.727
MS.45          	21.562         	8.739
MS.46          	21.52          	8.754
MS.47          	21.477         	8.766
MS.48          	21.435         	8.75
MS.49          	21.392         	8.762
MS.50          	21.35          	8.758
MS.51          	21.305         	8.758
MS.52          	21.262         	8.75
MS.53          	21.22          	8.754
MS.54          	21.18          	8.768
MS.55          	21.137         	8.756
MS.56          	21.095         	8.743
MS.57          	21.052         	8.762
MS.58          	21.01          	8.743
MS.59          	20.967         	8.776
MS.60          	20.925         	8.758
MS.61          	20.885         	8.762
MS.62          	20.842         	8.764
MS.63          	20.8           	8.752
MS.64          	20.76          	8.754
MS.65          	20.717         	8.754
MS.66          	20.677         	8.75
MS.67          	20.635         	8.739
MS.68          	20.595         	8.762
MS.69          	20.552         	8.754
MS.70          	20.512         	8.768
MS.71          	20.47          	8.75
MS.72          	20.43          	8.77
MS.73          	20.39          	8.772
MS.74          	20.347         	8.758
MS.75          	20.307         	8.772
MS.76          	20.267         	8.794
MS.77          	20.227         	8.764
MS.78          	20.185         	8.752
MS.79          	20.145         	8.77
MS.80          	20.105         	8.764
MS.81          	20.065         	8.756
MS.82          	20.025         	8.766
MS.83          	19.985         	8.778
MS.84          	19.945         	8.786
MS.85          	19.905         	8.51
MS.86          	19.865         	8.756
MS.87          	19.825         	8.782
MS.88          	19.788         	8.802
MS.89          	19.747         	8.772
MS.90          	19.708         	8.78
MS.91          	19.667         	8.784
MS.92          	19.63          	8.796
MS.93          	19.59          	8.494
MS.94          	19.55          	8.794
MS.95          	19.512         	8.464
MS.96          	19.472         	8.784
MS.97          	19.432         	8.808
MS.98          	19.395         	8.77
MS.99          	19.355         	8.792
MS.100         	19.317         	8.78
MS.101         	19.278         	8.504
MS.102         	19.24          	8.528
MS.103         	19.202         	8.129
MS.104         	19.163         	8.538
MS.105         	19.125         	8.768
MS.106         	19.087         	8.504
MS.107         	19.047         	8.057
MS.108         	19.01          	8.059
MS.109         	18.972         	8.337
MS.110         	18.935         	8.039
MS.111         	18.897         	8.488
MS.112         	18.86          	8.053
MS.113         	18.823         	8.057
MS.114         	18.785         	8.512
MS.115         	18.747         	8.059
MS.116         	18.71          	8.063
MS.117         	18.672         	7.942
MS.118         	18.635         	7.843
MS.119         	18.597         	8.101
MS.120         	18.56          	8.087
MS.121         	18.522         	7.706
MS.122         	18.485         	7.748
MS.123         	18.45          	7.706
MS.124         	18.413         	7.65
MS.125         	18.375         	7.811
MS.126         	18.337         	7.591
MS.127         	18.302         	7.469
MS.128         	18.265         	7.537
MS.129         	18.23          	7.835
MS.130         	18.192         	7.658
MS.131         	18.155         	7.626
MS.132         	18.12          	7.432
MS.133         	18.083         	7.869
MS.134         	18.047         	7.654
MS.135         	18.012         	7.454
MS.136         	17.975         	7.189
MS.137         	17.94          	7.229
MS.138         	17.903         	7.144
MS.139         	17.868         	7.225
MS.140         	17.833         	7.217
MS.141         	17.797         	6.995
MS.142         	17.76          	7.154
MS.143         	17.725         	7.128
MS.144         	17.69          	7.144
MS.145         	17.655         	7.009
MS.146         	17.62          	6.911
MS.147         	17.585         	7.096
MS.148         	17.55          	6.935
MS.149         	17.515         	6.907
MS.150         	17.48          	6.935
MS.151         	17.445         	6.86
MS.152         	17.41          	6.796
MS.153         	17.375         	6.755
MS.154         	17.34          	6.703
MS.155         	17.305         	6.594
MS.156         	17.27          	6.455
MS.157         	17.235         	6.502
MS.158         	17.202         	6.333
MS.159         	17.167         	6.725
MS.160         	17.132         	6.453
MS.161         	17.097         	6.25
MS.162         	17.065         	6.139
MS.163         	17.03          	6.109
MS.164         	16.997         	6.32
MS.165         	16.962         	5.938
MS.166         	16.927         	6.081
MS.167         	16.895         	5.901
MS.168         	16.86          	6.228
MS.169         	16.827         	6.107
MS.170         	16.792         	6.012
MS.171         	16.76          	5.918
MS.172         	16.727         	5.813
MS.173         	16.692         	6.087
MS.174         	16.66          	5.771
MS.175         	16.628         	5.853
MS.176         	16.592         	5.807
MS.177         	16.56          	5.758
MS.178         	16.528         	5.847
MS.179         	16.495         	5.706
MS.180         	16.46          	5.688
MS.181         	16.427         	5.704
MS.182         	16.395         	5.611
MS.183         	16.362         	5.861
MS.184         	16.33          	5.595
MS.185         	16.297         	5.505
MS.186         	16.265         	5.477
MS.187         	16.233         	5.549
MS.188         	16.2           	5.438
MS.189         	16.167         	5.368
MS.190         	16.135         	5.37
MS.191         	16.102         	5.362
MS.192         	16.07          	5.261
MS.193         	16.038         	5.293
MS.194         	16.007         	5.261
MS.195         	15.975         	5.257
MS.196         	15.943         	5.317
MS.197         	15.91          	5.255
MS.198         	15.88          	5.005
MS.199         	15.847         	5.164
MS.200         	15.815         	4.977
MS.201         	15.785         	4.854
MS.202         	15.752         	4.923
MS.203         	15.72          	4.876
MS.204         	15.69          	4.848
MS.205         	15.657         	4.745
MS.206         	15.627         	4.693
MS.207         	15.595         	4.812
MS.208         	15.565         	4.77
MS.209         	15.532         	4.6
MS.210         	15.502         	4.848
MS.211         	15.472         	4.532
MS.212         	15.44          	4.753
MS.213         	15.41          	4.377
MS.214         	15.38          	4.606
MS.215         	15.347         	4.528
MS.216         	15.318         	4.508
MS.217         	15.287         	4.383
MS.218         	15.257         	4.532
MS.219         	15.225         	4.018
MS.220         	15.195         	4.05
MS.221         	15.165         	4.334
MS.222         	15.135         	3.893
MS.223         	15.105         	4.022
MS.224         	15.075         	3.672
MS.225         	15.045         	3.688
MS.226         	15.015         	3.807
MS.227         	14.985         	3.835
MS.228         	14.955         	3.178
MS.229         	14.925         	3.72
MS.230         	14.895         	3.203
MS.231         	14.865         	3.325
MS.232         	14.835         	3.388
MS.233         	14.805         	3.102
MS.234         	14.775         	2.979
MS.235         	14.747         	3.082
MS.236         	14.717         	2.673
MS.237         	14.688         	3.172
MS.238         	14.657         	3.176
MS.239         	14.63          	2.753
MS.240         	14.6           	2.524
MS.241         	14.57          	2.699
MS.242         	14.542         	2.594
MS.243         	14.512         	3.003
MS.244         	14.483         	2.564
MS.245         	14.455         	2.681
MS.246         	14.425         	2.054
MS.247         	14.398         	2.51
MS.248         	14.367         	1.972
MS.249         	14.34          	2.01
MS.250         	14.31          	2.111
MS.251         	14.282         	2.089
MS.252         	14.252         	1.998
MS.253         	14.225         	2.304
MS.254         	14.197         	1.817
MS.255         	14.167         	1.728
MS.256         	14.14          	1.891
MS.257         	14.112         	2.058
MS.258         	14.082         	1.692
MS.259         	14.055         	2.046
MS.260         	14.028         	1.73
MS.261         	14             	1.132
MS.262         	13.97          	1.785
MS.263         	13.943         	1.734
MS.264         	13.915         	1.708
MS.265         	13.887         	1.688
MS.266         	13.86          	1.011
MS.267         	13.832         	1.646
MS.268         	13.805         	1.074
MS.269         	13.778         	1.013
MS.270         	13.75          	1.148
MS.271         	13.722         	0.991
MS.272         	13.695         	0.604
MS.273         	13.667         	0.983
MS.274         	13.64          	0.55
MS.275         	13.612         	0.512
MS.276         	13.585         	0.508
MS.277         	13.557         	0.52
MS.278         	13.53          	0.524
MS.279         	13.505         	0.949
MS.280         	13.477         	0.53
MS.281         	13.45          	0.508
MS.282         	13.422         	0.516
MS.283         	13.398         	0.489
MS.284         	13.37          	0.504
MS.285         	13.342         	0.504
MS.286         	13.318         	0.514
MS.287         	13.29          	0.493
MS.288         	13.262         	0.487
MS.289         	13.237         	0.491
MS.290         	13.21          	0.479
MS.291         	13.185         	0.483
MS.292         	13.157         	0.495
MS.293         	13.132         	0.493
MS.294         	13.105         	0.483
MS.295         	13.08          	0.451
MS.296         	13.052         	0.439
MS.297         	13.028         	0.447
MS.298         	13             	0.479
MS.299         	12.975         	0.443
MS.300         	12.95          	0.451
MS.301         	12.922         	0.445
MS.302         	12.898         	0.445
MS.303         	12.872         	0.435
MS.304         	12.845         	0.459
MS.305         	12.82          	0.449
MS.306         	12.795         	0.437
MS.307         	12.767         	0.431
MS.308         	12.742         	0.393
MS.309         	12.717         	0.413
MS.310         	12.693         	0.409
MS.311         	12.667         	0.397
MS.312         	12.642         	0.403
MS.313         	12.617         	0.387
MS.314         	12.59          	0.411
MS.315         	12.565         	0.391
MS.316         	12.54          	0.393
MS.317         	12.515         	0.407
MS.318         	12.49          	0.411
MS.319         	12.465         	0.387
MS.320         	12.44          	0.385
MS.321         	12.415         	0.387
MS.322         	12.392         	0.385
MS.323         	12.367         	0.381
MS.324         	12.342         	0.381
MS.325         	12.318         	0.346
MS.326         	12.292         	0.34
MS.327         	12.267         	0.381
MS.328         	12.242         	0.383
MS.329         	12.22          	0.371
MS.330         	12.195         	0.375
MS.331         	12.17          	0.381
MS.332         	12.145         	0.365
MS.333         	12.122         	0.342
MS.334         	12.097         	0.342
MS.335         	12.072         	0.34
MS.336         	12.05          	0.344
MS.337         	12.025         	0.352
MS.338         	12             	0.35
MS.339         	11.977         	0.342
MS.340         	11.952         	0.379
MS.341         	11.93          	0.344
MS.342         	11.905         	0.292
MS.343         	11.882         	0.344
MS.344         	11.858         	0.338
MS.345         	11.835         	0.292
MS.346         	11.81          	0.298
MS.347         	11.787         	0.344
MS.348         	11.762         	0.344
MS.349         	11.74          	0.344
MS.350         	11.717         	0.338
MS.351         	11.693         	0.298
MS.352         	11.67          	0.296
MS.353         	11.648         	0.344
MS.354         	11.622         	0.342
MS.355         	11.6           	0.338
MS.356         	11.577         	0.298
MS.357         	11.552         	0.29
MS.358         	11.53          	0.292
MS.359         	11.507         	0.25
MS.360         	11.485         	0.296
MS.361         	11.462         	0.294
MS.362         	11.438         	0.342
MS.363         	11.415         	0.296
MS.364         	11.392         	0.246
MS.365         	11.37          	0.29
MS.366         	11.347         	0.298
MS.367         	11.325         	0.25
MS.368         	11.302         	0.254
MS.369         	11.28          	0.25
MS.370         	11.257         	0.254
MS.371         	11.235         	0.252
MS.372         	11.212         	0.244
MS.373         	11.19          	0.248
MS.374         	11.167         	0.294
MS.375         	11.145         	0.244
MS.376         	11.122         	0.252
MS.377         	11.1           	0.252
MS.378         	11.077         	0.25
MS.379         	11.057         	0.246
MS.380         	11.035         	0.246
MS.381         	11.012         	0.294
MS.382         	10.99          	0.252
MS.383         	10.967         	0.248
MS.384         	10.948         	0.244
MS.385         	10.925         	0.244
MS.386         	10.903         	0.244
MS.387         	10.88          	0.246
MS.388         	10.86          	0.248
MS.389         	10.837         	0.244
MS.390         	10.815         	0.248
MS.391         	10.795         	0.248
MS.392         	10.773         	0.248
MS.393         	10.75          	0.244
MS.394         	10.73          	0.252
MS.395         	10.707         	0.246
MS.396         	10.688         	0.246
MS.397         	10.665         	0.246
MS.398         	10.645         	0.248
MS.399         	10.622         	0.244
MS.400         	10.602         	0.242
MS.401         	10.58          	0.246
MS.402         	10.56          	0.248
MS.403         	10.537         	0.23
MS.404         	10.517         	0.228
MS.405         	10.495         	0.252
MS.406         	10.475         	0.252
MS.407         	10.455         	0.242
MS.408         	10.432         	0.246
MS.409         	10.412         	0.248
MS.410         	10.392         	0.244
MS.411         	10.37          	0.244
MS.412         	10.35          	0.224
MS.413         	10.33          	0.244
MS.414         	10.31          	0.248
MS.415         	10.287         	0.244
MS.416         	10.267         	0.24
MS.417         	10.247         	0.24
MS.418         	10.227         	0.246
MS.419         	10.205         	0.24
MS.420         	10.185         	0.228
MS.421         	10.165         	0.242
MS.422         	10.145         	0.226
MS.423         	10.125         	0.232
MS.424         	10.105         	0.244
MS.425         	10.085         	0.228
MS.426         	10.065         	0.23
MS.427         	10.045         	0.234
MS.428         	10.025         	0.234
MS.429         	10.005         	0.224
MS.430         	9.985          	0.23
MS.431         	9.965          	0.226
MS.432         	9.945          	0.226
MS.433         	9.925          	0.232
MS.434         	9.905          	0.232
MS.435         	9.885          	0.23
MS.436         	9.865          	0.228
MS.437         	9.845          	0.224
MS.438         	9.825          	0.23
MS.439         	9.805          	0.234
MS.440         	9.787          	0.226
MS.441         	9.767          	0.228
MS.442         	9.747          	0.228
MS.443         	9.727          	0.23
MS.444         	9.707          	0.228
MS.445         	9.69           	0.23
MS.446         	9.67           	0.236
MS.447         	9.65           	0.226
MS.448         	9.63           	0.226
MS.449         	9.613          	0.23
MS.450         	9.592          	0.226
MS.451         	9.573          	0.232
MS.452         	9.555          	0.232
MS.453         	9.535          	0.226
MS.454         	9.515          	0.232
MS.455         	9.497          	0.23
MS.456         	9.477          	0.226
MS.457         	9.46           	0.234
MS.458         	9.44           	0.226
MS.459         	9.422          	0.23
MS.460         	9.403          	0.226
MS.461         	9.385          	0.226
MS.462         	9.365          	0.23
MS.463         	9.347          	0.224
MS.464         	9.327          	0.23
MS.465         	9.31           	0.232
MS.466         	9.29           	0.23
MS.467         	9.273          	0.23
MS.468         	9.252          	0.23
MS.469         	9.235          	0.226
MS.470         	9.217          	0.228
MS.471         	9.198          	0.23
MS.472         	9.18           	0.232
MS.473         	9.162          	0.23
MS.474         	9.142          	0.232
MS.475         	9.125          	0.226
MS.476         	9.108          	0.224
MS.477         	9.087          	0.232
MS.478         	9.07           	0.226
MS.479         	9.052          	0.224
MS.480         	9.035          	0.234
MS.481         	9.015          	0.228
MS.482         	8.997          	0.226
MS.483         	8.98           	0.23
MS.484         	8.962          	0.228
MS.485         	8.945          	0.232
MS.486         	8.927          	0.226
MS.487         	8.908          	0.226
MS.488         	8.89           	0.232
MS.489         	8.872          	0.23
MS.490         	8.855          	0.228
MS.491         	8.837          	0.23
MS.492         	8.82           	0.23
MS.493         	8.802          	0.23
MS.494         	8.785          	0.236
MS.495         	8.767          	0.228
MS.496         	8.75           	0.228
MS.497         	8.733          	0.234
MS.498         	8.715          	0.234
MS.499         	8.698          	0.23
MS.500         	8.68           	0.23
MS.501         	8.662          	0.23
