File:              	C:\Qtrac\Data\Daniel M Sørensen\MScan multicentre study\Data from centres\Oulu\Processed data\OUHC01030A.QZD
Name:              	FL.OUL.NC.2.1
Protocol:          	MSCAN-R2
Date:              	30/10/20
Start time:        	08:38:50
Age:               	63
Sex:               	F
Temperature:       	34,8
S/R sites:         	APB
NC/disease:        	NC
Operator:          	MK
Comments:
M-SCAN DATA (1.8-0.0m)
Scanpts: 6, 14, 916, 927
Stim. (mA)     	Amp. (mV)
MS.1           	19             	8.337
MS.2           	18.962         	8.284
MS.3           	18.925         	8.246
MS.4           	18.887         	8.236
MS.5           	18.847         	8.218
MS.6           	18.81          	8.2
MS.7           	18.772         	8.19
MS.8           	18.735         	8.184
MS.9           	18.698         	8.155
MS.10          	18.66          	8.135
MS.11          	18.625         	8.105
MS.12          	18.587         	8.071
MS.13          	18.55          	8.069
MS.14          	18.512         	8.055
MS.15          	18.475         	8.036
MS.16          	18.438         	8.036
MS.17          	18.403         	8.024
MS.18          	18.365         	8.022
MS.19          	18.327         	8.004
MS.20          	18.292         	7.99
MS.21          	18.255         	7.972
MS.22          	18.217         	7.928
MS.23          	18.182         	7.952
MS.24          	18.145         	7.946
MS.25          	18.11          	7.918
MS.26          	18.073         	7.91
MS.27          	18.038         	7.877
MS.28          	18             	7.851
MS.29          	17.965         	7.855
MS.30          	17.93          	7.857
MS.31          	17.892         	7.849
MS.32          	17.858         	7.809
MS.33          	17.823         	7.807
MS.34          	17.788         	7.783
MS.35          	17.75          	7.763
MS.36          	17.715         	7.74
MS.37          	17.68          	7.726
MS.38          	17.645         	7.702
MS.39          	17.61          	7.694
MS.40          	17.575         	7.662
MS.41          	17.54          	7.674
MS.42          	17.505         	7.658
MS.43          	17.47          	7.632
MS.44          	17.435         	7.624
MS.45          	17.4           	7.622
MS.46          	17.365         	7.607
MS.47          	17.33          	7.589
MS.48          	17.295         	7.573
MS.49          	17.26          	7.575
MS.50          	17.227         	7.555
MS.51          	17.192         	7.535
MS.52          	17.157         	7.543
MS.53          	17.122         	7.521
MS.54          	17.09          	7.509
MS.55          	17.055         	7.487
MS.56          	17.02          	7.469
MS.57          	16.987         	7.456
MS.58          	16.952         	7.46
MS.59          	16.92          	7.464
MS.60          	16.885         	7.438
MS.61          	16.852         	7.422
MS.62          	16.817         	7.398
MS.63          	16.785         	7.364
MS.64          	16.75          	7.348
MS.65          	16.717         	7.36
MS.66          	16.685         	7.336
MS.67          	16.65          	7.33
MS.68          	16.618         	7.293
MS.69          	16.585         	7.283
MS.70          	16.55          	7.271
MS.71          	16.517         	7.283
MS.72          	16.485         	7.229
MS.73          	16.452         	7.241
MS.74          	16.42          	7.213
MS.75          	16.385         	7.185
MS.76          	16.352         	7.178
MS.77          	16.32          	7.17
MS.78          	16.288         	7.154
MS.79          	16.255         	7.154
MS.80          	16.222         	7.112
MS.81          	16.19          	7.064
MS.82          	16.157         	7.072
MS.83          	16.125         	7.078
MS.84          	16.095         	7.054
MS.85          	16.062         	7.054
MS.86          	16.03          	7.044
MS.87          	15.997         	7.015
MS.88          	15.965         	7.005
MS.89          	15.932         	7.005
MS.90          	15.902         	6.983
MS.91          	15.87          	6.963
MS.92          	15.837         	6.939
MS.93          	15.807         	6.921
MS.94          	15.775         	6.921
MS.95          	15.742         	6.919
MS.96          	15.712         	6.892
MS.97          	15.68          	6.866
MS.98          	15.65          	6.828
MS.99          	15.617         	6.824
MS.100         	15.587         	6.818
MS.101         	15.555         	6.802
MS.102         	15.525         	6.79
MS.103         	15.495         	6.774
MS.104         	15.462         	6.758
MS.105         	15.432         	6.731
MS.106         	15.4           	6.719
MS.107         	15.37          	6.707
MS.108         	15.34          	6.683
MS.109         	15.31          	6.679
MS.110         	15.277         	6.665
MS.111         	15.247         	6.641
MS.112         	15.217         	6.629
MS.113         	15.188         	6.627
MS.114         	15.157         	6.61
MS.115         	15.127         	6.596
MS.116         	15.095         	6.574
MS.117         	15.065         	6.576
MS.118         	15.035         	6.554
MS.119         	15.005         	6.55
MS.120         	14.975         	6.53
MS.121         	14.945         	6.514
MS.122         	14.915         	6.502
MS.123         	14.887         	6.494
MS.124         	14.858         	6.482
MS.125         	14.827         	6.459
MS.126         	14.797         	6.461
MS.127         	14.767         	6.431
MS.128         	14.737         	6.431
MS.129         	14.707         	6.427
MS.130         	14.68          	6.407
MS.131         	14.65          	6.389
MS.132         	14.62          	6.375
MS.133         	14.592         	6.355
MS.134         	14.562         	6.353
MS.135         	14.532         	6.341
MS.136         	14.505         	6.328
MS.137         	14.475         	6.3
MS.138         	14.447         	6.298
MS.139         	14.417         	6.28
MS.140         	14.387         	6.258
MS.141         	14.36          	6.26
MS.142         	14.33          	6.242
MS.143         	14.302         	6.222
MS.144         	14.275         	6.216
MS.145         	14.245         	6.206
MS.146         	14.217         	6.194
MS.147         	14.188         	6.185
MS.148         	14.16          	6.173
MS.149         	14.132         	6.153
MS.150         	14.102         	6.127
MS.151         	14.075         	6.109
MS.152         	14.047         	6.109
MS.153         	14.02          	6.091
MS.154         	13.992         	6.067
MS.155         	13.962         	6.067
MS.156         	13.935         	6.051
MS.157         	13.907         	6.032
MS.158         	13.88          	6.016
MS.159         	13.852         	6.006
MS.160         	13.825         	5.994
MS.161         	13.797         	5.982
MS.162         	13.77          	5.964
MS.163         	13.742         	5.95
MS.164         	13.715         	5.932
MS.165         	13.688         	5.92
MS.166         	13.66          	5.91
MS.167         	13.632         	5.906
MS.168         	13.605         	5.881
MS.169         	13.577         	5.877
MS.170         	13.55          	5.851
MS.171         	13.523         	5.837
MS.172         	13.497         	5.825
MS.173         	13.47          	5.821
MS.174         	13.443         	5.803
MS.175         	13.415         	5.783
MS.176         	13.39          	5.787
MS.177         	13.362         	5.777
MS.178         	13.335         	5.754
MS.179         	13.31          	5.748
MS.180         	13.282         	5.732
MS.181         	13.255         	5.716
MS.182         	13.23          	5.706
MS.183         	13.202         	5.714
MS.184         	13.177         	5.696
MS.185         	13.15          	5.684
MS.186         	13.125         	5.67
MS.187         	13.097         	5.66
MS.188         	13.072         	5.646
MS.189         	13.045         	5.636
MS.190         	13.02          	5.638
MS.191         	12.992         	5.613
MS.192         	12.967         	5.601
MS.193         	12.943         	5.585
MS.194         	12.915         	5.577
MS.195         	12.89          	5.571
MS.196         	12.865         	5.573
MS.197         	12.837         	5.555
MS.198         	12.812         	5.529
MS.199         	12.787         	5.523
MS.200         	12.762         	5.509
MS.201         	12.735         	5.517
MS.202         	12.71          	5.493
MS.203         	12.685         	5.483
MS.204         	12.66          	5.468
MS.205         	12.635         	5.462
MS.206         	12.61          	5.454
MS.207         	12.585         	5.45
MS.208         	12.56          	5.434
MS.209         	12.535         	5.408
MS.210         	12.51          	5.404
MS.211         	12.485         	5.4
MS.212         	12.46          	5.386
MS.213         	12.435         	5.384
MS.214         	12.41          	5.37
MS.215         	12.385         	5.36
MS.216         	12.36          	5.348
MS.217         	12.335         	5.336
MS.218         	12.31          	5.325
MS.219         	12.285         	5.313
MS.220         	12.26          	5.317
MS.221         	12.238         	5.291
MS.222         	12.212         	5.279
MS.223         	12.188         	5.271
MS.224         	12.162         	5.265
MS.225         	12.14          	5.257
MS.226         	12.115         	5.257
MS.227         	12.09          	5.243
MS.228         	12.068         	5.231
MS.229         	12.042         	5.219
MS.230         	12.017         	5.178
MS.231         	11.995         	5.195
MS.232         	11.97          	5.193
MS.233         	11.947         	5.168
MS.234         	11.922         	5.16
MS.235         	11.9           	5.154
MS.236         	11.875         	5.132
MS.237         	11.852         	5.138
MS.238         	11.827         	5.13
MS.239         	11.805         	5.112
MS.240         	11.78          	5.104
MS.241         	11.757         	5.082
MS.242         	11.733         	5.07
MS.243         	11.71          	5.07
MS.244         	11.688         	5.068
MS.245         	11.662         	5.052
MS.246         	11.64          	5.041
MS.247         	11.617         	5.052
MS.248         	11.592         	5.025
MS.249         	11.57          	5.021
MS.250         	11.547         	5.013
MS.251         	11.525         	4.997
MS.252         	11.5           	4.993
MS.253         	11.477         	4.999
MS.254         	11.455         	4.975
MS.255         	11.432         	4.959
MS.256         	11.41          	4.959
MS.257         	11.387         	4.951
MS.258         	11.365         	4.943
MS.259         	11.34          	4.931
MS.260         	11.318         	4.919
MS.261         	11.295         	4.913
MS.262         	11.273         	4.904
MS.263         	11.25          	4.89
MS.264         	11.227         	4.888
MS.265         	11.205         	4.874
MS.266         	11.182         	4.86
MS.267         	11.16          	4.85
MS.268         	11.14          	4.858
MS.269         	11.117         	4.84
MS.270         	11.095         	4.832
MS.271         	11.073         	4.826
MS.272         	11.05          	4.816
MS.273         	11.028         	4.808
MS.274         	11.005         	4.792
MS.275         	10.985         	4.798
MS.276         	10.962         	4.788
MS.277         	10.94          	4.763
MS.278         	10.917         	4.757
MS.279         	10.898         	4.749
MS.280         	10.875         	4.745
MS.281         	10.852         	4.745
MS.282         	10.832         	4.733
MS.283         	10.81          	4.725
MS.284         	10.787         	4.727
MS.285         	10.767         	4.701
MS.286         	10.745         	4.701
MS.287         	10.722         	4.693
MS.288         	10.702         	4.697
MS.289         	10.68          	4.671
MS.290         	10.66          	4.655
MS.291         	10.637         	4.651
MS.292         	10.617         	4.643
MS.293         	10.595         	4.645
MS.294         	10.575         	4.625
MS.295         	10.552         	4.606
MS.296         	10.532         	4.627
MS.297         	10.51          	4.61
MS.298         	10.49          	4.596
MS.299         	10.47          	4.608
MS.300         	10.448         	4.592
MS.301         	10.427         	4.588
MS.302         	10.407         	4.56
MS.303         	10.385         	4.564
MS.304         	10.365         	4.546
MS.305         	10.345         	4.538
MS.306         	10.323         	4.532
MS.307         	10.302         	4.528
MS.308         	10.282         	4.52
MS.309         	10.262         	4.506
MS.310         	10.242         	4.5
MS.311         	10.22          	4.488
MS.312         	10.2           	4.492
MS.313         	10.18          	4.477
MS.314         	10.16          	4.465
MS.315         	10.14          	4.461
MS.316         	10.12          	4.449
MS.317         	10.1           	4.449
MS.318         	10.08          	4.433
MS.319         	10.057         	4.427
MS.320         	10.037         	4.415
MS.321         	10.017         	4.407
MS.322         	9.997          	4.397
MS.323         	9.977          	4.383
MS.324         	9.957          	4.385
MS.325         	9.938          	4.379
MS.326         	9.92           	4.357
MS.327         	9.9            	4.365
MS.328         	9.88           	4.353
MS.329         	9.86           	4.334
MS.330         	9.84           	4.347
MS.331         	9.82           	4.328
MS.332         	9.8            	4.322
MS.333         	9.78           	4.306
MS.334         	9.762          	4.294
MS.335         	9.742          	4.294
MS.336         	9.722          	4.274
MS.337         	9.702          	4.268
MS.338         	9.682          	4.266
MS.339         	9.665          	4.252
MS.340         	9.645          	4.236
MS.341         	9.625          	4.246
MS.342         	9.608          	4.248
MS.343         	9.587          	4.226
MS.344         	9.568          	4.216
MS.345         	9.55           	4.216
MS.346         	9.53           	4.198
MS.347         	9.51           	4.193
MS.348         	9.492          	4.202
MS.349         	9.472          	4.179
MS.350         	9.455          	4.163
MS.351         	9.435          	4.161
MS.352         	9.417          	4.151
MS.353         	9.398          	4.139
MS.354         	9.377          	4.137
MS.355         	9.36           	4.137
MS.356         	9.34           	4.125
MS.357         	9.323          	4.111
MS.358         	9.305          	4.105
MS.359         	9.285          	4.089
MS.360         	9.267          	4.081
MS.361         	9.247          	4.079
MS.362         	9.23           	4.067
MS.363         	9.212          	4.057
MS.364         	9.193          	4.061
MS.365         	9.175          	4.034
MS.366         	9.158          	4.028
MS.367         	9.137          	4.038
MS.368         	9.12           	4.028
MS.369         	9.102          	4.014
MS.370         	9.082          	4.002
MS.371         	9.065          	3.994
MS.372         	9.047          	3.978
MS.373         	9.03           	3.988
MS.374         	9.01           	3.982
MS.375         	8.992          	3.96
MS.376         	8.975          	3.97
MS.377         	8.957          	3.96
MS.378         	8.94           	3.954
MS.379         	8.922          	3.948
MS.380         	8.903          	3.936
MS.381         	8.885          	3.926
MS.382         	8.867          	3.924
MS.383         	8.85           	3.922
MS.384         	8.832          	3.897
MS.385         	8.815          	3.893
MS.386         	8.797          	3.899
MS.387         	8.78           	3.887
MS.388         	8.762          	3.883
MS.389         	8.745          	3.871
MS.390         	8.727          	3.865
MS.391         	8.71           	3.857
MS.392         	8.693          	3.849
MS.393         	8.675          	3.845
MS.394         	8.658          	3.831
MS.395         	8.64           	3.833
MS.396         	8.622          	3.819
MS.397         	8.605          	3.811
MS.398         	8.587          	3.807
MS.399         	8.573          	3.793
MS.400         	8.555          	3.791
MS.401         	8.537          	3.789
MS.402         	8.52           	3.791
MS.403         	8.502          	3.773
MS.404         	8.485          	3.777
MS.405         	8.47           	3.775
MS.406         	8.452          	3.746
MS.407         	8.435          	3.756
MS.408         	8.417          	3.744
MS.409         	8.403          	3.754
MS.410         	8.385          	3.726
MS.411         	8.367          	3.726
MS.412         	8.352          	3.714
MS.413         	8.335          	3.706
MS.414         	8.318          	3.686
MS.415         	8.302          	3.69
MS.416         	8.285          	3.686
MS.417         	8.267          	3.682
MS.418         	8.252          	3.674
MS.419         	8.235          	3.67
MS.420         	8.22           	3.652
MS.421         	8.202          	3.648
MS.422         	8.185          	3.652
MS.423         	8.17           	3.648
MS.424         	8.153          	3.65
MS.425         	8.137          	3.623
MS.426         	8.12           	3.625
MS.427         	8.105          	3.63
MS.428         	8.087          	3.609
MS.429         	8.073          	3.581
MS.430         	8.055          	3.589
MS.431         	8.04           	3.579
MS.432         	8.025          	3.577
MS.433         	8.007          	3.573
MS.434         	7.992          	3.561
MS.435         	7.975          	3.557
MS.436         	7.96           	3.557
MS.437         	7.945          	3.543
MS.438         	7.927          	3.545
MS.439         	7.912          	3.531
MS.440         	7.898          	3.521
MS.441         	7.88           	3.513
MS.442         	7.865          	3.519
MS.443         	7.85           	3.497
MS.444         	7.832          	3.503
MS.445         	7.817          	3.468
MS.446         	7.802          	3.478
MS.447         	7.787          	3.482
MS.448         	7.773          	3.484
MS.449         	7.755          	3.452
MS.450         	7.74           	3.454
MS.451         	7.725          	3.436
MS.452         	7.71           	3.436
MS.453         	7.695          	3.43
MS.454         	7.677          	3.422
MS.455         	7.662          	3.424
MS.456         	7.648          	3.422
MS.457         	7.632          	3.4
MS.458         	7.617          	3.4
MS.459         	7.602          	3.398
MS.460         	7.587          	3.39
MS.461         	7.572          	3.382
MS.462         	7.557          	3.378
MS.463         	7.543          	3.382
MS.464         	7.527          	3.364
MS.465         	7.512          	3.35
MS.466         	7.497          	3.35
MS.467         	7.482          	3.348
MS.468         	7.467          	3.331
MS.469         	7.452          	3.319
MS.470         	7.438          	3.319
MS.471         	7.422          	3.303
MS.472         	7.407          	3.309
MS.473         	7.392          	3.299
MS.474         	7.378          	3.283
MS.475         	7.362          	3.285
MS.476         	7.347          	3.277
MS.477         	7.332          	3.271
MS.478         	7.317          	3.267
MS.479         	7.305          	3.265
MS.480         	7.29           	3.261
MS.481         	7.275          	3.255
MS.482         	7.26           	3.237
MS.483         	7.245          	3.237
MS.484         	7.233          	3.221
MS.485         	7.217          	3.223
MS.486         	7.202          	3.219
MS.487         	7.188          	3.211
MS.488         	7.175          	3.213
MS.489         	7.16           	3.207
MS.490         	7.145          	3.186
MS.491         	7.13           	3.174
MS.492         	7.117          	3.18
MS.493         	7.102          	3.172
MS.494         	7.087          	3.172
MS.495         	7.075          	3.166
MS.496         	7.06           	3.16
MS.497         	7.045          	3.152
MS.498         	7.032          	3.136
MS.499         	7.017          	3.136
MS.500         	7.003          	3.13
MS.501         	6.99           	3.124
