File:              	C:\Qtrac\Data\Daniel M Sørensen\MScan multicentre study\Data from centres\Oulu\Processed data\OUHC01119A.QZD
Name:              	FL.OUL.NC.3.2
Protocol:          	MSCAN-R2
Date:              	19/11/20
Start time:        	13:03:23
Age:               	78
Sex:               	M
Temperature:       	32,8
S/R sites:         	APB
NC/disease:        	NC
Operator:          	MK
Comments:
M-SCAN DATA (6.9-1.9m)
Scanpts: 249, 255, 524, 545
Stim. (mA)     	Amp. (mV)
MS.1           	12             	9.606
MS.2           	12             	9.597
MS.3           	12             	9.602
MS.4           	12             	9.585
MS.5           	12             	9.575
MS.6           	12             	9.587
MS.7           	12             	9.589
MS.8           	12             	9.595
MS.9           	12             	9.593
MS.10          	12             	9.587
MS.11          	12             	9.622
MS.12          	12             	9.61
MS.13          	12             	9.614
MS.14          	12             	9.616
MS.15          	12             	9.765
MS.16          	12             	9.795
MS.17          	12             	9.742
MS.18          	12             	9.606
MS.19          	12             	9.646
MS.20          	12             	9.606
MS.21          	12             	9.626
MS.22          	12             	9.644
MS.23          	11.975         	9.606
MS.24          	11.952         	9.604
MS.25          	11.927         	9.608
MS.26          	11.905         	9.602
MS.27          	11.88          	9.602
MS.28          	11.858         	9.614
MS.29          	11.832         	9.597
MS.30          	11.81          	9.61
MS.31          	11.785         	9.614
MS.32          	11.762         	9.61
MS.33          	11.74          	9.602
MS.34          	11.715         	9.602
MS.35          	11.693         	9.608
MS.36          	11.667         	9.571
MS.37          	11.645         	9.583
MS.38          	11.622         	9.599
MS.39          	11.6           	9.604
MS.40          	11.575         	9.616
MS.41          	11.552         	9.577
MS.42          	11.53          	9.589
MS.43          	11.507         	9.577
MS.44          	11.483         	9.595
MS.45          	11.46          	9.589
MS.46          	11.438         	9.589
MS.47          	11.415         	9.602
MS.48          	11.392         	9.616
MS.49          	11.37          	9.597
MS.50          	11.347         	9.61
MS.51          	11.325         	9.604
MS.52          	11.3           	9.622
MS.53          	11.278         	9.597
MS.54          	11.255         	9.608
MS.55          	11.233         	9.595
MS.56          	11.21          	9.606
MS.57          	11.188         	9.608
MS.58          	11.167         	9.593
MS.59          	11.145         	9.599
MS.60          	11.122         	9.579
MS.61          	11.1           	9.604
MS.62          	11.077         	9.614
MS.63          	11.055         	9.597
MS.64          	11.032         	9.602
MS.65          	11.01          	9.595
MS.66          	10.99          	9.591
MS.67          	10.967         	9.604
MS.68          	10.945         	9.587
MS.69          	10.922         	9.589
MS.70          	10.903         	9.599
MS.71          	10.88          	9.581
MS.72          	10.858         	9.604
MS.73          	10.837         	9.612
MS.74          	10.815         	9.636
MS.75          	10.792         	9.614
MS.76          	10.773         	9.62
MS.77          	10.75          	9.61
MS.78          	10.727         	9.608
MS.79          	10.707         	9.636
MS.80          	10.685         	9.61
MS.81          	10.665         	9.618
MS.82          	10.642         	9.626
MS.83          	10.622         	9.622
MS.84          	10.6           	9.616
MS.85          	10.58          	9.63
MS.86          	10.557         	9.62
MS.87          	10.537         	9.585
MS.88          	10.515         	9.61
MS.89          	10.495         	9.624
MS.90          	10.475         	9.606
MS.91          	10.452         	9.616
MS.92          	10.432         	9.581
MS.93          	10.412         	9.63
MS.94          	10.39          	9.632
MS.95          	10.37          	9.591
MS.96          	10.35          	9.616
MS.97          	10.327         	9.602
MS.98          	10.307         	9.597
MS.99          	10.287         	9.604
MS.100         	10.267         	9.595
MS.101         	10.245         	9.573
MS.102         	10.225         	9.575
MS.103         	10.205         	9.624
MS.104         	10.185         	9.577
MS.105         	10.165         	9.571
MS.106         	10.145         	9.587
MS.107         	10.125         	9.61
MS.108         	10.105         	9.583
MS.109         	10.082         	9.604
MS.110         	10.062         	9.604
MS.111         	10.042         	9.587
MS.112         	10.023         	9.579
MS.113         	10.002         	9.591
MS.114         	9.983          	9.599
MS.115         	9.962          	9.622
MS.116         	9.943          	9.632
MS.117         	9.922          	9.642
MS.118         	9.903          	9.65
MS.119         	9.885          	9.579
MS.120         	9.865          	9.632
MS.121         	9.845          	9.7
MS.122         	9.825          	9.654
MS.123         	9.805          	9.666
MS.124         	9.785          	9.662
MS.125         	9.765          	9.654
MS.126         	9.747          	9.662
MS.127         	9.727          	9.66
MS.128         	9.707          	9.68
MS.129         	9.688          	9.656
MS.130         	9.67           	9.684
MS.131         	9.65           	9.648
MS.132         	9.63           	9.664
MS.133         	9.61           	9.684
MS.134         	9.592          	9.658
MS.135         	9.573          	9.682
MS.136         	9.552          	9.682
MS.137         	9.535          	9.618
MS.138         	9.515          	9.638
MS.139         	9.497          	9.646
MS.140         	9.477          	9.626
MS.141         	9.457          	9.662
MS.142         	9.44           	9.664
MS.143         	9.42           	9.68
MS.144         	9.403          	9.672
MS.145         	9.382          	9.664
MS.146         	9.365          	9.626
MS.147         	9.345          	9.644
MS.148         	9.327          	9.67
MS.149         	9.307          	9.537
MS.150         	9.29           	9.519
MS.151         	9.27           	9.628
MS.152         	9.252          	9.535
MS.153         	9.235          	9.549
MS.154         	9.215          	9.614
MS.155         	9.198          	9.541
MS.156         	9.18           	9.563
MS.157         	9.16           	9.555
MS.158         	9.142          	9.608
MS.159         	9.125          	9.63
MS.160         	9.105          	9.608
MS.161         	9.087          	9.614
MS.162         	9.07           	9.614
MS.163         	9.052          	9.616
MS.164         	9.033          	9.587
MS.165         	9.015          	9.604
MS.166         	8.997          	9.587
MS.167         	8.98           	9.581
MS.168         	8.96           	9.581
MS.169         	8.943          	9.549
MS.170         	8.925          	9.587
MS.171         	8.908          	9.587
MS.172         	8.89           	9.604
MS.173         	8.872          	9.591
MS.174         	8.855          	9.545
MS.175         	8.837          	9.539
MS.176         	8.82           	9.555
MS.177         	8.802          	9.563
MS.178         	8.785          	9.595
MS.179         	8.765          	9.604
MS.180         	8.747          	9.616
MS.181         	8.73           	9.593
MS.182         	8.715          	9.595
MS.183         	8.698          	9.585
MS.184         	8.68           	9.599
MS.185         	8.662          	9.569
MS.186         	8.645          	9.569
MS.187         	8.627          	9.561
MS.188         	8.61           	9.561
MS.189         	8.592          	9.543
MS.190         	8.575          	9.589
MS.191         	8.557          	9.581
MS.192         	8.542          	9.551
MS.193         	8.525          	9.503
MS.194         	8.507          	9.454
MS.195         	8.49           	9.577
MS.196         	8.472          	9.569
MS.197         	8.457          	9.477
MS.198         	8.44           	9.567
MS.199         	8.422          	9.438
MS.200         	8.405          	9.481
MS.201         	8.39           	9.501
MS.202         	8.372          	9.507
MS.203         	8.355          	9.543
MS.204         	8.337          	9.551
MS.205         	8.323          	9.531
MS.206         	8.305          	9.463
MS.207         	8.29           	9.491
MS.208         	8.273          	9.471
MS.209         	8.255          	9.495
MS.210         	8.24           	9.477
MS.211         	8.222          	9.479
MS.212         	8.207          	9.491
MS.213         	8.19           	9.467
MS.214         	8.172          	9.469
MS.215         	8.158          	9.442
MS.216         	8.14           	9.477
MS.217         	8.125          	9.458
MS.218         	8.108          	9.452
MS.219         	8.092          	9.485
MS.220         	8.075          	9.509
MS.221         	8.06           	9.529
MS.222         	8.045          	9.495
MS.223         	8.028          	9.465
MS.224         	8.012          	9.483
MS.225         	7.995          	9.473
MS.226         	7.98           	9.497
MS.227         	7.965          	9.45
MS.228         	7.947          	9.475
MS.229         	7.932          	9.446
MS.230         	7.915          	9.45
MS.231         	7.9            	9.42
MS.232         	7.885          	9.454
MS.233         	7.87           	9.493
MS.234         	7.852          	9.473
MS.235         	7.837          	9.481
MS.236         	7.822          	9.493
MS.237         	7.805          	9.479
MS.238         	7.79           	9.489
MS.239         	7.775          	9.491
MS.240         	7.76           	9.503
MS.241         	7.745          	9.535
MS.242         	7.727          	9.505
MS.243         	7.712          	9.535
MS.244         	7.697          	9.501
MS.245         	7.682          	9.501
MS.246         	7.668          	9.465
MS.247         	7.652          	9.479
MS.248         	7.637          	9.493
MS.249         	7.62           	9.487
MS.250         	7.605          	9.477
MS.251         	7.59           	9.483
MS.252         	7.575          	9.473
MS.253         	7.56           	9.469
MS.254         	7.545          	9.436
MS.255         	7.53           	9.442
MS.256         	7.515          	9.454
MS.257         	7.5            	9.475
MS.258         	7.485          	9.452
MS.259         	7.47           	9.487
MS.260         	7.455          	9.465
MS.261         	7.44           	9.467
MS.262         	7.425          	9.479
MS.263         	7.41           	9.456
MS.264         	7.395          	9.473
MS.265         	7.38           	9.521
MS.266         	7.365          	9.475
MS.267         	7.352          	9.493
MS.268         	7.337          	9.465
MS.269         	7.322          	9.452
MS.270         	7.307          	9.475
MS.271         	7.293          	9.475
MS.272         	7.277          	9.463
MS.273         	7.265          	9.189
MS.274         	7.25           	9.497
MS.275         	7.235          	9.477
MS.276         	7.22           	9.454
MS.277         	7.205          	9.471
MS.278         	7.192          	9.483
MS.279         	7.177          	9.458
MS.280         	7.162          	9.479
MS.281         	7.148          	9.465
MS.282         	7.135          	9.493
MS.283         	7.12           	9.475
MS.284         	7.105          	8.663
MS.285         	7.092          	8.669
MS.286         	7.077          	9.179
MS.287         	7.062          	9.467
MS.288         	7.05           	9.136
MS.289         	7.035          	9.168
MS.290         	7.02           	9.116
MS.291         	7.007          	7.732
MS.292         	6.992          	8.639
MS.293         	6.98           	8.312
MS.294         	6.965          	8.21
MS.295         	6.95           	8.836
MS.296         	6.938          	9.148
MS.297         	6.922          	7.97
MS.298         	6.91           	8.184
MS.299         	6.895          	7.71
MS.300         	6.882          	8.3
MS.301         	6.867          	8.351
MS.302         	6.855          	8.536
MS.303         	6.84           	7.698
MS.304         	6.827          	8.024
MS.305         	6.812          	8.318
MS.306         	6.8            	7.714
MS.307         	6.787          	7.714
MS.308         	6.773          	7.738
MS.309         	6.76           	7.755
MS.310         	6.745          	7.593
MS.311         	6.733          	7.757
MS.312         	6.72           	7.726
MS.313         	6.705          	7.686
MS.314         	6.692          	8.26
MS.315         	6.677          	7.366
MS.316         	6.665          	7.682
MS.317         	6.652          	7.42
MS.318         	6.637          	7.628
MS.319         	6.625          	7.402
MS.320         	6.612          	7.444
MS.321         	6.6            	7.561
MS.322         	6.585          	7.275
MS.323         	6.572          	7.565
MS.324         	6.56           	7.444
MS.325         	6.547          	7.39
MS.326         	6.532          	7.408
MS.327         	6.52           	7.44
MS.328         	6.507          	7.237
MS.329         	6.495          	7.517
MS.330         	6.48           	7.042
MS.331         	6.467          	7.215
MS.332         	6.455          	7.541
MS.333         	6.442          	7.235
MS.334         	6.43           	7.007
MS.335         	6.418          	7.267
MS.336         	6.405          	6.995
MS.337         	6.39           	7.235
MS.338         	6.378          	7.178
MS.339         	6.365          	6.983
MS.340         	6.352          	6.695
MS.341         	6.34           	7.019
MS.342         	6.327          	7.187
MS.343         	6.315          	6.653
MS.344         	6.302          	6.671
MS.345         	6.29           	6.745
MS.346         	6.277          	6.808
MS.347         	6.265          	6.679
MS.348         	6.253          	6.919
MS.349         	6.24           	6.415
MS.350         	6.227          	6.834
MS.351         	6.215          	6.049
MS.352         	6.202          	6.258
MS.353         	6.19           	5.984
MS.354         	6.177          	6.347
MS.355         	6.165          	6.014
MS.356         	6.152          	6.395
MS.357         	6.14           	6.514
MS.358         	6.128          	6.155
MS.359         	6.115          	5.587
MS.360         	6.105          	5.255
MS.361         	6.092          	6.018
MS.362         	6.08           	5.982
MS.363         	6.067          	5.285
MS.364         	6.055          	5.412
MS.365         	6.043          	5.43
MS.366         	6.03           	4.967
MS.367         	6.02           	5.251
MS.368         	6.007          	5.511
MS.369         	5.995          	4.89
MS.370         	5.983          	4.989
MS.371         	5.97           	4.955
MS.372         	5.96           	4.618
MS.373         	5.947          	4.663
MS.374         	5.935          	4.715
MS.375         	5.922          	4.212
MS.376         	5.912          	4.544
MS.377         	5.9            	4.625
MS.378         	5.887          	4.715
MS.379         	5.875          	4.2
MS.380         	5.865          	4.653
MS.381         	5.852          	3.849
MS.382         	5.84           	4.32
MS.383         	5.83           	4.038
MS.384         	5.817          	4.059
MS.385         	5.805          	4.141
MS.386         	5.795          	3.978
MS.387         	5.782          	4.022
MS.388         	5.773          	3.869
MS.389         	5.76           	3.803
MS.390         	5.747          	3.94
MS.391         	5.737          	3.67
MS.392         	5.725          	3.748
MS.393         	5.715          	3.809
MS.394         	5.702          	3.74
MS.395         	5.69           	3.793
MS.396         	5.68           	3.513
MS.397         	5.668          	3.795
MS.398         	5.657          	3.603
MS.399         	5.645          	3.233
MS.400         	5.635          	3.64
MS.401         	5.622          	3.694
MS.402         	5.612          	3.785
MS.403         	5.6            	3.299
MS.404         	5.59           	3.299
MS.405         	5.577          	3.259
MS.406         	5.567          	3.424
MS.407         	5.555          	3.295
MS.408         	5.545          	2.874
MS.409         	5.535          	2.993
MS.410         	5.523          	3.285
MS.411         	5.512          	3.178
MS.412         	5.5            	2.951
MS.413         	5.49           	2.711
MS.414         	5.48           	2.318
MS.415         	5.467          	2.487
MS.416         	5.457          	2.751
MS.417         	5.445          	2.197
MS.418         	5.435          	2.56
MS.419         	5.425          	2.276
MS.420         	5.412          	2.062
MS.421         	5.402          	2.302
MS.422         	5.392          	1.631
MS.423         	5.38           	1.688
MS.424         	5.37           	1.907
MS.425         	5.36           	2.218
MS.426         	5.35           	2.161
MS.427         	5.338          	1.827
MS.428         	5.327          	1.809
MS.429         	5.318          	1.204
MS.430         	5.307          	0.924
MS.431         	5.295          	1.168
MS.432         	5.285          	1.364
MS.433         	5.275          	1.503
MS.434         	5.265          	1.074
MS.435         	5.253          	1.43
MS.436         	5.242          	1.084
MS.437         	5.233          	0.933
MS.438         	5.222          	1.065
MS.439         	5.213          	1.015
MS.440         	5.202          	0.967
MS.441         	5.19           	0.86
MS.442         	5.18           	0.788
MS.443         	5.17           	0.661
MS.444         	5.16           	0.518
MS.445         	5.15           	0.818
MS.446         	5.14           	0.689
MS.447         	5.13           	0.62
MS.448         	5.117          	0.771
MS.449         	5.108          	0.81
MS.450         	5.097          	0.483
MS.451         	5.088          	0.781
MS.452         	5.077          	0.536
MS.453         	5.068          	0.647
MS.454         	5.057          	0.475
MS.455         	5.047          	0.594
MS.456         	5.037          	0.449
MS.457         	5.027          	0.632
MS.458         	5.017          	0.516
MS.459         	5.007          	0.699
MS.460         	4.997          	0.483
MS.461         	4.987          	0.369
MS.462         	4.977          	0.399
MS.463         	4.967          	0.393
MS.464         	4.957          	0.407
MS.465         	4.947          	0.342
MS.466         	4.938          	0.425
MS.467         	4.927          	0.363
MS.468         	4.918          	0.421
MS.469         	4.907          	0.324
MS.470         	4.898          	0.234
MS.471         	4.887          	0.262
MS.472         	4.88           	0.246
MS.473         	4.87           	0.272
MS.474         	4.86           	0.244
MS.475         	4.85           	0.232
MS.476         	4.84           	0.189
MS.477         	4.83           	0.248
MS.478         	4.82           	0.197
MS.479         	4.81           	0.22
MS.480         	4.802          	0.294
MS.481         	4.793          	0.151
MS.482         	4.782          	0.099
MS.483         	4.773          	0.197
MS.484         	4.762          	0.113
MS.485         	4.753          	0.117
MS.486         	4.745          	0.109
MS.487         	4.735          	0.093
MS.488         	4.725          	0.143
MS.489         	4.715          	0.157
MS.490         	4.707          	0.111
MS.491         	4.697          	0.081
MS.492         	4.688          	0.032
MS.493         	4.677          	0.066
MS.494         	4.67           	0.097
MS.495         	4.66           	0.115
MS.496         	4.65           	0.026
MS.497         	4.64           	0.075
MS.498         	4.632          	0.079
MS.499         	4.622          	0.028
MS.500         	4.612          	0.083
MS.501         	4.605          	0.014
