File:              	C:\Qtrac\Data\CKMC01028H.QZD
Name:              	RHS03
Protocol:          	MSCAN-R2
Date:              	28/10/20
Start time:        	12:31:41
Age:               	56
Sex:               	M
Temperature:       	38.2
S/R sites:         	RMedian Wr-APB
NC/disease:        	NC
Operator:          	CK
Comments:          	CG MScan2
M-SCAN DATA (7.7-1.4m)
Scanpts: 57, 78, 655, 674
Stim. (mA)     	Amp. (mV)
MS.1           	18             	9.201
MS.2           	18             	9.189
MS.3           	18             	9.206
MS.4           	18             	9.156
MS.5           	18             	9.163
MS.6           	18             	9.172
MS.7           	18             	9.167
MS.8           	18             	9.18
MS.9           	18             	9.148
MS.10          	18             	9.188
MS.11          	18             	9.187
MS.12          	18             	9.185
MS.13          	18             	9.188
MS.14          	18             	9.189
MS.15          	18             	9.186
MS.16          	18             	9.2
MS.17          	18             	9.197
MS.18          	18             	9.194
MS.19          	18             	9.193
MS.20          	18             	9.195
MS.21          	18             	9.193
MS.22          	18             	9.203
MS.23          	18             	9.216
MS.24          	17.93          	9.227
MS.25          	17.89          	9.208
MS.26          	17.855         	9.2
MS.27          	17.82          	9.205
MS.28          	17.785         	9.167
MS.29          	17.75          	9.194
MS.30          	17.715         	9.163
MS.31          	17.68          	9.167
MS.32          	17.645         	9.173
MS.33          	17.61          	9.168
MS.34          	17.575         	9.205
MS.35          	17.54          	9.236
MS.36          	17.505         	9.224
MS.37          	17.47          	9.221
MS.38          	17.435         	9.251
MS.39          	17.4           	9.229
MS.40          	17.365         	9.231
MS.41          	17.33          	9.23
MS.42          	17.295         	9.25
MS.43          	17.26          	9.232
MS.44          	17.225         	9.236
MS.45          	17.19          	9.235
MS.46          	17.155         	9.227
MS.47          	17.12          	9.239
MS.48          	17.09          	9.24
MS.49          	17.055         	9.249
MS.50          	17.02          	9.252
MS.51          	16.985         	9.24
MS.52          	16.95          	9.282
MS.53          	16.92          	9.243
MS.54          	16.885         	9.248
MS.55          	16.85          	9.265
MS.56          	16.815         	9.243
MS.57          	16.785         	9.3
MS.58          	16.75          	9.313
MS.59          	16.715         	9.277
MS.60          	16.685         	9.271
MS.61          	16.65          	9.286
MS.62          	16.615         	9.286
MS.63          	16.585         	9.285
MS.64          	16.55          	9.287
MS.65          	16.515         	9.274
MS.66          	16.485         	9.291
MS.67          	16.45          	9.277
MS.68          	16.42          	9.279
MS.69          	16.385         	9.259
MS.70          	16.35          	9.267
MS.71          	16.32          	9.282
MS.72          	16.285         	9.283
MS.73          	16.255         	9.302
MS.74          	16.22          	9.284
MS.75          	16.19          	9.278
MS.76          	16.155         	9.276
MS.77          	16.125         	9.277
MS.78          	16.095         	9.251
MS.79          	16.06          	9.263
MS.80          	16.03          	9.271
MS.81          	15.995         	9.268
MS.82          	15.965         	9.249
MS.83          	15.935         	9.273
MS.84          	15.9           	9.276
MS.85          	15.87          	9.25
MS.86          	15.835         	9.273
MS.87          	15.805         	9.272
MS.88          	15.775         	9.246
MS.89          	15.745         	9.241
MS.90          	15.71          	9.274
MS.91          	15.68          	9.248
MS.92          	15.65          	9.254
MS.93          	15.615         	9.255
MS.94          	15.585         	9.256
MS.95          	15.555         	9.239
MS.96          	15.525         	9.246
MS.97          	15.495         	9.266
MS.98          	15.46          	9.256
MS.99          	15.43          	9.262
MS.100         	15.4           	9.228
MS.101         	15.37          	9.252
MS.102         	15.34          	9.25
MS.103         	15.31          	9.257
MS.104         	15.275         	9.221
MS.105         	15.245         	9.253
MS.106         	15.215         	9.254
MS.107         	15.185         	9.229
MS.108         	15.155         	9.271
MS.109         	15.125         	9.267
MS.110         	15.095         	9.236
MS.111         	15.065         	9.234
MS.112         	15.035         	9.169
MS.113         	15.005         	9.274
MS.114         	14.975         	9.265
MS.115         	14.945         	9.271
MS.116         	14.915         	9.282
MS.117         	14.885         	9.262
MS.118         	14.855         	9.251
MS.119         	14.825         	9.236
MS.120         	14.795         	9.16
MS.121         	14.765         	9.249
MS.122         	14.735         	9.241
MS.123         	14.71          	9.199
MS.124         	14.68          	9.155
MS.125         	14.65          	9.236
MS.126         	14.62          	9.239
MS.127         	14.59          	9.152
MS.128         	14.56          	9.159
MS.129         	14.53          	9.236
MS.130         	14.505         	9.231
MS.131         	14.475         	9.158
MS.132         	14.445         	9.166
MS.133         	14.415         	9.248
MS.134         	14.39          	9.157
MS.135         	14.36          	9.144
MS.136         	14.33          	9.149
MS.137         	14.3           	9.244
MS.138         	14.275         	9.157
MS.139         	14.245         	9.156
MS.140         	14.215         	9.176
MS.141         	14.19          	9.174
MS.142         	14.16          	9.171
MS.143         	14.13          	9.166
MS.144         	14.105         	9.172
MS.145         	14.075         	9.194
MS.146         	14.045         	9.211
MS.147         	14.02          	9.19
MS.148         	13.99          	9.18
MS.149         	13.96          	9.202
MS.150         	13.935         	9.205
MS.151         	13.905         	9.23
MS.152         	13.88          	9.207
MS.153         	13.85          	9.236
MS.154         	13.825         	9.217
MS.155         	13.795         	9.216
MS.156         	13.77          	9.164
MS.157         	13.74          	9.243
MS.158         	13.715         	9.241
MS.159         	13.685         	9.257
MS.160         	13.66          	9.15
MS.161         	13.63          	9.248
MS.162         	13.605         	9.172
MS.163         	13.575         	9.182
MS.164         	13.55          	9.186
MS.165         	13.525         	9.172
MS.166         	13.495         	9.231
MS.167         	13.47          	9.175
MS.168         	13.44          	9.14
MS.169         	13.415         	9.147
MS.170         	13.39          	9.183
MS.171         	13.36          	9.147
MS.172         	13.335         	8.991
MS.173         	13.31          	9.18
MS.174         	13.28          	9.146
MS.175         	13.255         	9.121
MS.176         	13.23          	9.124
MS.177         	13.2           	9.135
MS.178         	13.175         	9.106
MS.179         	13.15          	9.011
MS.180         	13.125         	9.101
MS.181         	13.095         	9.142
MS.182         	13.07          	9.103
MS.183         	13.045         	8.974
MS.184         	13.02          	8.946
MS.185         	12.99          	8.987
MS.186         	12.965         	9.092
MS.187         	12.94          	8.918
MS.188         	12.915         	8.948
MS.189         	12.89          	9.11
MS.190         	12.865         	8.958
MS.191         	12.835         	8.976
MS.192         	12.81          	8.94
MS.193         	12.785         	8.942
MS.194         	12.76          	8.947
MS.195         	12.735         	8.988
MS.196         	12.71          	9.103
MS.197         	12.685         	8.943
MS.198         	12.66          	8.958
MS.199         	12.635         	8.965
MS.200         	12.61          	8.932
MS.201         	12.585         	8.762
MS.202         	12.56          	8.796
MS.203         	12.535         	8.939
MS.204         	12.51          	8.952
MS.205         	12.485         	8.951
MS.206         	12.46          	8.831
MS.207         	12.435         	8.34
MS.208         	12.41          	8.234
MS.209         	12.385         	8.78
MS.210         	12.36          	8.734
MS.211         	12.335         	8.836
MS.212         	12.31          	7.786
MS.213         	12.285         	8.248
MS.214         	12.26          	8.052
MS.215         	12.235         	8.647
MS.216         	12.21          	7.928
MS.217         	12.185         	7.808
MS.218         	12.165         	7.894
MS.219         	12.14          	8.069
MS.220         	12.115         	8.082
MS.221         	12.09          	8.023
MS.222         	12.065         	7.451
MS.223         	12.04          	7.992
MS.224         	12.02          	7.854
MS.225         	11.995         	7.759
MS.226         	11.97          	7.911
MS.227         	11.945         	7.878
MS.228         	11.92          	7.531
MS.229         	11.9           	7.803
MS.230         	11.875         	7.718
MS.231         	11.85          	7.358
MS.232         	11.825         	7.709
MS.233         	11.805         	7.391
MS.234         	11.78          	7.309
MS.235         	11.755         	7.242
MS.236         	11.735         	7.474
MS.237         	11.71          	7.166
MS.238         	11.685         	7.519
MS.239         	11.66          	7.454
MS.240         	11.64          	7.297
MS.241         	11.615         	7.261
MS.242         	11.595         	7.253
MS.243         	11.57          	6.993
MS.244         	11.545         	7.093
MS.245         	11.525         	7.232
MS.246         	11.5           	7.131
MS.247         	11.475         	7.103
MS.248         	11.455         	6.947
MS.249         	11.43          	7.137
MS.250         	11.41          	7.105
MS.251         	11.385         	7.137
MS.252         	11.365         	7.057
MS.253         	11.34          	7.036
MS.254         	11.32          	6.973
MS.255         	11.295         	7.031
MS.256         	11.275         	7.054
MS.257         	11.25          	6.916
MS.258         	11.23          	7.015
MS.259         	11.205         	6.924
MS.260         	11.185         	7.036
MS.261         	11.16          	7.037
MS.262         	11.14          	6.956
MS.263         	11.115         	6.974
MS.264         	11.095         	6.825
MS.265         	11.07          	7.045
MS.266         	11.05          	6.876
MS.267         	11.025         	6.865
MS.268         	11.005         	6.838
MS.269         	10.985         	6.862
MS.270         	10.96          	6.679
MS.271         	10.94          	6.839
MS.272         	10.92          	6.552
MS.273         	10.895         	6.897
MS.274         	10.875         	6.354
MS.275         	10.85          	6.67
MS.276         	10.83          	6.679
MS.277         	10.81          	6.436
MS.278         	10.785         	6.37
MS.279         	10.765         	6.528
MS.280         	10.745         	6.252
MS.281         	10.725         	6.249
MS.282         	10.7           	6.346
MS.283         	10.68          	5.982
MS.284         	10.66          	6.227
MS.285         	10.635         	6.158
MS.286         	10.615         	6.29
MS.287         	10.595         	6
MS.288         	10.575         	6.098
MS.289         	10.555         	5.977
MS.290         	10.53          	6.003
MS.291         	10.51          	6.162
MS.292         	10.49          	5.97
MS.293         	10.47          	6.016
MS.294         	10.45          	5.993
MS.295         	10.425         	5.513
MS.296         	10.405         	6.157
MS.297         	10.385         	5.997
MS.298         	10.365         	5.815
MS.299         	10.345         	5.919
MS.300         	10.325         	5.881
MS.301         	10.3           	5.526
MS.302         	10.28          	5.673
MS.303         	10.26          	5.819
MS.304         	10.24          	5.376
MS.305         	10.22          	5.783
MS.306         	10.2           	5.299
MS.307         	10.18          	5.583
MS.308         	10.16          	5.79
MS.309         	10.14          	4.932
MS.310         	10.12          	5.316
MS.311         	10.1           	5.341
MS.312         	10.08          	5.311
MS.313         	10.06          	5.812
MS.314         	10.04          	5.175
MS.315         	10.02          	5.304
MS.316         	10             	4.879
MS.317         	9.98           	4.825
MS.318         	9.96           	4.791
MS.319         	9.94           	4.797
MS.320         	9.92           	4.792
MS.321         	9.9            	4.863
MS.322         	9.88           	5.088
MS.323         	9.86           	4.785
MS.324         	9.84           	4.766
MS.325         	9.82           	5.075
MS.326         	9.8            	4.788
MS.327         	9.78           	4.754
MS.328         	9.76           	4.785
MS.329         	9.74           	4.659
MS.330         	9.72           	4.7
MS.331         	9.7            	4.753
MS.332         	9.685          	4.674
MS.333         	9.665          	4.575
MS.334         	9.645          	4.453
MS.335         	9.625          	4.559
MS.336         	9.605          	4.648
MS.337         	9.585          	4.575
MS.338         	9.565          	4.542
MS.339         	9.55           	4.492
MS.340         	9.53           	4.565
MS.341         	9.51           	4.611
MS.342         	9.49           	4.481
MS.343         	9.47           	4.532
MS.344         	9.455          	4.338
MS.345         	9.435          	4.456
MS.346         	9.415          	4.433
MS.347         	9.395          	4.451
MS.348         	9.38           	4.374
MS.349         	9.36           	4.495
MS.350         	9.34           	4.457
MS.351         	9.32           	4.216
MS.352         	9.305          	4.359
MS.353         	9.285          	4.226
MS.354         	9.265          	4.146
MS.355         	9.25           	4.326
MS.356         	9.23           	4.363
MS.357         	9.21           	4.261
MS.358         	9.19           	4.089
MS.359         	9.175          	4.096
MS.360         	9.155          	4.128
MS.361         	9.135          	4.057
MS.362         	9.12           	4.034
MS.363         	9.1            	4.089
MS.364         	9.085          	4.011
MS.365         	9.065          	3.933
MS.366         	9.045          	3.822
MS.367         	9.03           	3.966
MS.368         	9.01           	3.991
MS.369         	8.99           	3.657
MS.370         	8.975          	3.859
MS.371         	8.955          	3.865
MS.372         	8.94           	3.831
MS.373         	8.92           	3.848
MS.374         	8.905          	3.676
MS.375         	8.885          	3.77
MS.376         	8.865          	3.812
MS.377         	8.85           	3.796
MS.378         	8.83           	3.818
MS.379         	8.815          	3.733
MS.380         	8.795          	3.458
MS.381         	8.78           	3.607
MS.382         	8.76           	3.74
MS.383         	8.745          	3.483
MS.384         	8.725          	3.458
MS.385         	8.71           	3.711
MS.386         	8.69           	3.173
MS.387         	8.675          	3.297
MS.388         	8.655          	3.514
MS.389         	8.64           	3.61
MS.390         	8.62           	3.571
MS.391         	8.605          	3.295
MS.392         	8.59           	3.245
MS.393         	8.57           	3.136
MS.394         	8.555          	3.094
MS.395         	8.535          	3.196
MS.396         	8.52           	3.125
MS.397         	8.505          	3.017
MS.398         	8.485          	2.841
MS.399         	8.47           	3.172
MS.400         	8.45           	2.859
MS.401         	8.435          	3.127
MS.402         	8.42           	2.776
MS.403         	8.4            	2.862
MS.404         	8.385          	2.699
MS.405         	8.37           	2.857
MS.406         	8.35           	2.824
MS.407         	8.335          	2.593
MS.408         	8.32           	2.61
MS.409         	8.3            	2.898
MS.410         	8.285          	2.311
MS.411         	8.27           	2.573
MS.412         	8.25           	2.537
MS.413         	8.235          	2.621
MS.414         	8.22           	2.681
MS.415         	8.2            	2.489
MS.416         	8.185          	2.162
MS.417         	8.17           	2.567
MS.418         	8.155          	2.457
MS.419         	8.135          	2.078
MS.420         	8.12           	2.111
MS.421         	8.105          	2.465
MS.422         	8.09           	2.397
MS.423         	8.07           	2.403
MS.424         	8.055          	2.42
MS.425         	8.04           	2.074
MS.426         	8.025          	2.12
MS.427         	8.005          	2.081
MS.428         	7.99           	2.424
MS.429         	7.975          	1.971
MS.430         	7.96           	2.012
MS.431         	7.945          	2.039
MS.432         	7.93           	2.083
MS.433         	7.91           	2.062
MS.434         	7.895          	1.988
MS.435         	7.88           	2.047
MS.436         	7.865          	2.267
MS.437         	7.85           	1.982
MS.438         	7.835          	1.744
MS.439         	7.82           	1.907
MS.440         	7.8            	1.968
MS.441         	7.785          	1.667
MS.442         	7.77           	1.905
MS.443         	7.755          	1.755
MS.444         	7.74           	1.727
MS.445         	7.725          	1.833
MS.446         	7.71           	1.567
MS.447         	7.695          	1.581
MS.448         	7.68           	1.533
MS.449         	7.665          	1.432
MS.450         	7.645          	1.716
MS.451         	7.63           	1.854
MS.452         	7.615          	1.697
MS.453         	7.6            	1.54
MS.454         	7.585          	1.463
MS.455         	7.57           	1.396
MS.456         	7.555          	1.526
MS.457         	7.54           	1.338
MS.458         	7.525          	1.522
MS.459         	7.51           	1.388
MS.460         	7.495          	1.284
MS.461         	7.48           	1.277
MS.462         	7.465          	1.331
MS.463         	7.45           	1.218
MS.464         	7.435          	1.254
MS.465         	7.42           	1.26
MS.466         	7.405          	1.152
MS.467         	7.39           	1.133
MS.468         	7.375          	1.188
MS.469         	7.36           	1.219
MS.470         	7.35           	1.171
MS.471         	7.335          	1.223
MS.472         	7.32           	1.191
MS.473         	7.305          	1.233
MS.474         	7.29           	1.058
MS.475         	7.275          	1.113
MS.476         	7.26           	1.017
MS.477         	7.245          	0.98
MS.478         	7.23           	1.174
MS.479         	7.215          	1.058
MS.480         	7.2            	0.939
MS.481         	7.19           	1.003
MS.482         	7.175          	0.981
MS.483         	7.16           	1.046
MS.484         	7.145          	0.974
MS.485         	7.13           	0.919
MS.486         	7.115          	0.956
MS.487         	7.1            	0.854
MS.488         	7.09           	0.927
MS.489         	7.075          	0.95
MS.490         	7.06           	0.932
MS.491         	7.045          	0.957
MS.492         	7.03           	0.924
MS.493         	7.015          	1.026
MS.494         	7.005          	0.828
MS.495         	6.99           	0.9
MS.496         	6.975          	0.831
MS.497         	6.96           	0.797
MS.498         	6.945          	0.84
MS.499         	6.935          	0.782
MS.500         	6.92           	0.91
MS.501         	6.905          	0.746
MS.502         	6.89           	0.756
