File:              	C:\Qtrac\Data\CKMC01124C.QZD
Name:              	RHS09
Protocol:          	MSCAN-R2
Date:              	24/11/20
Start time:        	14:23:31
Age:               	74
Sex:               	F
Temperature:       	38.6
S/R sites:         	RMedian Wr-APB
NC/disease:        	NC
Operator:          	CK
Comments:
M-SCAN DATA (7.5-1.5m)
Scanpts: 129, 141, 618, 638
Stim. (mA)     	Amp. (mV)
MS.1           	21             	5.663
MS.2           	21             	5.63
MS.3           	21             	5.63
MS.4           	21             	5.62
MS.5           	21             	5.619
MS.6           	21             	5.627
MS.7           	21             	5.629
MS.8           	21             	5.604
MS.9           	21             	5.634
MS.10          	21             	5.602
MS.11          	21             	5.602
MS.12          	21             	5.588
MS.13          	21             	5.613
MS.14          	21             	5.595
MS.15          	21             	5.607
MS.16          	21             	5.594
MS.17          	21             	5.598
MS.18          	21             	5.599
MS.19          	21             	5.595
MS.20          	21             	5.607
MS.21          	21             	5.618
MS.22          	21             	5.619
MS.23          	21             	5.653
MS.24          	20.915         	5.665
MS.25          	20.875         	5.635
MS.26          	20.835         	5.636
MS.27          	20.79          	5.649
MS.28          	20.75          	5.648
MS.29          	20.71          	5.669
MS.30          	20.665         	5.67
MS.31          	20.625         	5.653
MS.32          	20.585         	5.655
MS.33          	20.545         	5.665
MS.34          	20.5           	5.661
MS.35          	20.46          	5.674
MS.36          	20.42          	5.67
MS.37          	20.38          	5.672
MS.38          	20.34          	5.685
MS.39          	20.3           	5.663
MS.40          	20.255         	5.668
MS.41          	20.215         	5.633
MS.42          	20.175         	5.627
MS.43          	20.135         	5.652
MS.44          	20.095         	5.66
MS.45          	20.055         	5.654
MS.46          	20.015         	5.694
MS.47          	19.975         	5.682
MS.48          	19.935         	5.668
MS.49          	19.895         	5.679
MS.50          	19.855         	5.67
MS.51          	19.815         	5.677
MS.52          	19.775         	5.665
MS.53          	19.735         	5.663
MS.54          	19.7           	5.659
MS.55          	19.66          	5.678
MS.56          	19.62          	5.69
MS.57          	19.58          	5.688
MS.58          	19.54          	5.686
MS.59          	19.5           	5.71
MS.60          	19.465         	5.695
MS.61          	19.425         	5.694
MS.62          	19.385         	5.687
MS.63          	19.345         	5.694
MS.64          	19.31          	5.698
MS.65          	19.27          	5.686
MS.66          	19.23          	5.688
MS.67          	19.19          	5.693
MS.68          	19.155         	5.698
MS.69          	19.115         	5.702
MS.70          	19.08          	5.707
MS.71          	19.04          	5.691
MS.72          	19             	5.692
MS.73          	18.965         	5.711
MS.74          	18.925         	5.692
MS.75          	18.89          	5.714
MS.76          	18.85          	5.68
MS.77          	18.81          	5.672
MS.78          	18.775         	5.698
MS.79          	18.735         	5.689
MS.80          	18.7           	5.693
MS.81          	18.665         	5.679
MS.82          	18.625         	5.683
MS.83          	18.59          	5.657
MS.84          	18.55          	5.687
MS.85          	18.515         	5.687
MS.86          	18.475         	5.692
MS.87          	18.44          	5.676
MS.88          	18.405         	5.674
MS.89          	18.365         	5.683
MS.90          	18.33          	5.682
MS.91          	18.295         	5.699
MS.92          	18.255         	5.704
MS.93          	18.22          	5.697
MS.94          	18.185         	5.688
MS.95          	18.145         	5.667
MS.96          	18.11          	5.699
MS.97          	18.075         	5.709
MS.98          	18.04          	5.688
MS.99          	18.005         	5.699
MS.100         	17.965         	5.677
MS.101         	17.93          	5.672
MS.102         	17.895         	5.667
MS.103         	17.86          	5.671
MS.104         	17.825         	5.643
MS.105         	17.79          	5.649
MS.106         	17.75          	5.67
MS.107         	17.715         	5.668
MS.108         	17.68          	5.66
MS.109         	17.645         	5.669
MS.110         	17.61          	5.667
MS.111         	17.575         	5.645
MS.112         	17.54          	5.634
MS.113         	17.505         	5.62
MS.114         	17.47          	5.641
MS.115         	17.435         	5.654
MS.116         	17.4           	5.667
MS.117         	17.365         	5.662
MS.118         	17.33          	5.687
MS.119         	17.295         	5.688
MS.120         	17.26          	5.665
MS.121         	17.23          	5.658
MS.122         	17.195         	5.671
MS.123         	17.16          	5.656
MS.124         	17.125         	5.681
MS.125         	17.09          	5.66
MS.126         	17.055         	5.676
MS.127         	17.02          	5.678
MS.128         	16.99          	5.688
MS.129         	16.955         	5.676
MS.130         	16.92          	5.67
MS.131         	16.885         	5.682
MS.132         	16.855         	5.67
MS.133         	16.82          	5.659
MS.134         	16.785         	5.691
MS.135         	16.75          	5.685
MS.136         	16.72          	5.69
MS.137         	16.685         	5.681
MS.138         	16.65          	5.692
MS.139         	16.62          	5.677
MS.140         	16.585         	5.673
MS.141         	16.55          	5.684
MS.142         	16.52          	5.663
MS.143         	16.485         	5.682
MS.144         	16.455         	5.695
MS.145         	16.42          	5.695
MS.146         	16.385         	5.687
MS.147         	16.355         	5.701
MS.148         	16.32          	5.68
MS.149         	16.29          	5.69
MS.150         	16.255         	5.693
MS.151         	16.225         	5.684
MS.152         	16.19          	5.682
MS.153         	16.16          	5.668
MS.154         	16.125         	5.681
MS.155         	16.095         	5.696
MS.156         	16.065         	5.685
MS.157         	16.03          	5.671
MS.158         	16             	5.69
MS.159         	15.965         	5.687
MS.160         	15.935         	5.671
MS.161         	15.905         	5.681
MS.162         	15.87          	5.536
MS.163         	15.84          	5.671
MS.164         	15.81          	5.661
MS.165         	15.775         	5.551
MS.166         	15.745         	5.663
MS.167         	15.715         	5.56
MS.168         	15.68          	5.541
MS.169         	15.65          	5.552
MS.170         	15.62          	5.552
MS.171         	15.59          	5.677
MS.172         	15.555         	5.549
MS.173         	15.525         	5.549
MS.174         	15.495         	5.551
MS.175         	15.465         	5.54
MS.176         	15.435         	5.534
MS.177         	15.4           	5.543
MS.178         	15.37          	5.536
MS.179         	15.34          	5.549
MS.180         	15.31          	5.524
MS.181         	15.28          	5.533
MS.182         	15.25          	5.524
MS.183         	15.22          	5.505
MS.184         	15.19          	5.521
MS.185         	15.16          	5.509
MS.186         	15.13          	5.541
MS.187         	15.095         	5.52
MS.188         	15.065         	5.535
MS.189         	15.035         	5.531
MS.190         	15.005         	5.37
MS.191         	14.975         	5.367
MS.192         	14.945         	5.524
MS.193         	14.915         	5.541
MS.194         	14.885         	5.529
MS.195         	14.86          	5.384
MS.196         	14.83          	5.512
MS.197         	14.8           	5.366
MS.198         	14.77          	5.524
MS.199         	14.74          	5.515
MS.200         	14.71          	5.515
MS.201         	14.68          	5.376
MS.202         	14.65          	5.544
MS.203         	14.62          	5.402
MS.204         	14.595         	5.426
MS.205         	14.565         	5.537
MS.206         	14.535         	5.517
MS.207         	14.505         	5.543
MS.208         	14.475         	5.397
MS.209         	14.445         	5.408
MS.210         	14.42          	5.412
MS.211         	14.39          	5.328
MS.212         	14.36          	5.341
MS.213         	14.33          	5.352
MS.214         	14.305         	5.374
MS.215         	14.275         	5.334
MS.216         	14.245         	5.353
MS.217         	14.22          	5.322
MS.218         	14.19          	5.367
MS.219         	14.16          	5.334
MS.220         	14.135         	5.367
MS.221         	14.105         	5.343
MS.222         	14.075         	5.323
MS.223         	14.05          	5.308
MS.224         	14.02          	5.282
MS.225         	13.99          	5.37
MS.226         	13.965         	5.345
MS.227         	13.935         	5.364
MS.228         	13.91          	5.373
MS.229         	13.88          	5.318
MS.230         	13.855         	5.32
MS.231         	13.825         	5.308
MS.232         	13.8           	5.359
MS.233         	13.77          	5.31
MS.234         	13.745         	5.287
MS.235         	13.715         	5.326
MS.236         	13.69          	5.277
MS.237         	13.66          	5.317
MS.238         	13.635         	5.311
MS.239         	13.605         	5.316
MS.240         	13.58          	5.298
MS.241         	13.55          	5.317
MS.242         	13.525         	5.308
MS.243         	13.5           	5.305
MS.244         	13.47          	5.303
MS.245         	13.445         	5.308
MS.246         	13.415         	5.314
MS.247         	13.39          	5.306
MS.248         	13.365         	5.283
MS.249         	13.335         	5.314
MS.250         	13.31          	5.309
MS.251         	13.285         	5.316
MS.252         	13.255         	5.306
MS.253         	13.23          	5.323
MS.254         	13.205         	5.323
MS.255         	13.18          	5.315
MS.256         	13.15          	5.335
MS.257         	13.125         	5.338
MS.258         	13.1           	5.322
MS.259         	13.075         	5.334
MS.260         	13.045         	5.33
MS.261         	13.02          	5.313
MS.262         	12.995         	5.317
MS.263         	12.97          	5.326
MS.264         	12.945         	5.329
MS.265         	12.915         	5.319
MS.266         	12.89          	5.327
MS.267         	12.865         	5.033
MS.268         	12.84          	5.327
MS.269         	12.815         	5.032
MS.270         	12.79          	5.317
MS.271         	12.765         	5.307
MS.272         	12.735         	5.314
MS.273         	12.71          	5.007
MS.274         	12.685         	5.331
MS.275         	12.66          	4.982
MS.276         	12.635         	5.286
MS.277         	12.61          	5.011
MS.278         	12.585         	5.302
MS.279         	12.56          	5.001
MS.280         	12.535         	5.333
MS.281         	12.51          	4.998
MS.282         	12.485         	5.021
MS.283         	12.46          	5.008
MS.284         	12.435         	5.015
MS.285         	12.41          	5.015
MS.286         	12.385         	4.963
MS.287         	12.36          	4.988
MS.288         	12.335         	4.968
MS.289         	12.31          	5.298
MS.290         	12.285         	4.957
MS.291         	12.26          	4.962
MS.292         	12.24          	5.001
MS.293         	12.215         	4.964
MS.294         	12.19          	4.935
MS.295         	12.165         	4.94
MS.296         	12.14          	4.973
MS.297         	12.115         	4.924
MS.298         	12.09          	4.894
MS.299         	12.07          	4.949
MS.300         	12.045         	4.942
MS.301         	12.02          	4.784
MS.302         	11.995         	4.944
MS.303         	11.97          	4.868
MS.304         	11.945         	4.877
MS.305         	11.925         	4.935
MS.306         	11.9           	4.847
MS.307         	11.875         	4.882
MS.308         	11.85          	4.832
MS.309         	11.83          	4.7
MS.310         	11.805         	4.888
MS.311         	11.78          	4.901
MS.312         	11.76          	4.893
MS.313         	11.735         	4.645
MS.314         	11.71          	4.686
MS.315         	11.685         	4.748
MS.316         	11.665         	4.605
MS.317         	11.64          	4.65
MS.318         	11.62          	4.68
MS.319         	11.595         	4.639
MS.320         	11.57          	4.716
MS.321         	11.55          	4.627
MS.322         	11.525         	4.579
MS.323         	11.5           	4.59
MS.324         	11.48          	4.632
MS.325         	11.455         	4.665
MS.326         	11.435         	4.583
MS.327         	11.41          	4.621
MS.328         	11.39          	4.388
MS.329         	11.365         	4.562
MS.330         	11.34          	4.556
MS.331         	11.32          	4.53
MS.332         	11.295         	4.237
MS.333         	11.275         	4.07
MS.334         	11.25          	4.191
MS.335         	11.23          	4.124
MS.336         	11.205         	4.281
MS.337         	11.185         	4.25
MS.338         	11.16          	4.26
MS.339         	11.14          	3.995
MS.340         	11.115         	4.333
MS.341         	11.095         	4.143
MS.342         	11.075         	3.907
MS.343         	11.05          	4.186
MS.344         	11.03          	3.875
MS.345         	11.005         	3.95
MS.346         	10.985         	4.199
MS.347         	10.965         	4.058
MS.348         	10.94          	3.806
MS.349         	10.92          	3.904
MS.350         	10.895         	3.895
MS.351         	10.875         	3.874
MS.352         	10.855         	3.213
MS.353         	10.83          	3.68
MS.354         	10.81          	3.885
MS.355         	10.79          	3.793
MS.356         	10.765         	3.815
MS.357         	10.745         	3.217
MS.358         	10.725         	3.64
MS.359         	10.705         	3.625
MS.360         	10.68          	3.543
MS.361         	10.66          	3.527
MS.362         	10.64          	3.604
MS.363         	10.62          	3.552
MS.364         	10.595         	3.415
MS.365         	10.575         	3.611
MS.366         	10.555         	3.126
MS.367         	10.535         	3.598
MS.368         	10.51          	3.294
MS.369         	10.49          	3.278
MS.370         	10.47          	3.027
MS.371         	10.45          	3.578
MS.372         	10.43          	3.469
MS.373         	10.405         	2.948
MS.374         	10.385         	2.998
MS.375         	10.365         	3.122
MS.376         	10.345         	3.102
MS.377         	10.325         	3.284
MS.378         	10.305         	2.88
MS.379         	10.285         	2.891
MS.380         	10.265         	3.009
MS.381         	10.24          	2.853
MS.382         	10.22          	2.69
MS.383         	10.2           	2.737
MS.384         	10.18          	2.703
MS.385         	10.16          	2.809
MS.386         	10.14          	2.818
MS.387         	10.12          	2.784
MS.388         	10.1           	2.705
MS.389         	10.08          	2.679
MS.390         	10.06          	2.515
MS.391         	10.04          	2.562
MS.392         	10.02          	2.594
MS.393         	10             	2.493
MS.394         	9.98           	2.255
MS.395         	9.96           	2.45
MS.396         	9.94           	2.334
MS.397         	9.92           	2.045
MS.398         	9.9            	2.206
MS.399         	9.88           	2.23
MS.400         	9.86           	2.122
MS.401         	9.84           	2.094
MS.402         	9.82           	2.18
MS.403         	9.8            	2.061
MS.404         	9.78           	2.209
MS.405         	9.76           	2.054
MS.406         	9.745          	2.094
MS.407         	9.725          	1.768
MS.408         	9.705          	1.771
MS.409         	9.685          	1.774
MS.410         	9.665          	1.917
MS.411         	9.645          	1.666
MS.412         	9.625          	1.679
MS.413         	9.605          	1.612
MS.414         	9.59           	1.753
MS.415         	9.57           	1.777
MS.416         	9.55           	1.646
MS.417         	9.53           	1.761
MS.418         	9.51           	1.733
MS.419         	9.495          	1.353
MS.420         	9.475          	1.32
MS.421         	9.455          	1.458
MS.422         	9.435          	1.364
MS.423         	9.415          	1.168
MS.424         	9.4            	1.235
MS.425         	9.38           	1.198
MS.426         	9.36           	1.362
MS.427         	9.34           	1.376
MS.428         	9.325          	1.053
MS.429         	9.305          	1.155
MS.430         	9.285          	1.31
MS.431         	9.27           	1.417
MS.432         	9.25           	1.185
MS.433         	9.23           	1.016
MS.434         	9.21           	0.93
MS.435         	9.195          	1.039
MS.436         	9.175          	0.992
MS.437         	9.155          	1.009
MS.438         	9.14           	0.99
MS.439         	9.12           	0.856
MS.440         	9.1            	0.925
MS.441         	9.085          	0.832
MS.442         	9.065          	0.912
MS.443         	9.05           	0.884
MS.444         	9.03           	1.01
MS.445         	9.01           	0.939
MS.446         	8.995          	0.907
MS.447         	8.975          	0.685
MS.448         	8.96           	0.841
MS.449         	8.94           	0.785
MS.450         	8.92           	0.792
MS.451         	8.905          	0.864
MS.452         	8.885          	0.81
MS.453         	8.87           	0.8
MS.454         	8.85           	0.772
MS.455         	8.835          	0.831
MS.456         	8.815          	0.779
MS.457         	8.8            	0.666
MS.458         	8.78           	0.702
MS.459         	8.765          	0.658
MS.460         	8.745          	0.708
MS.461         	8.73           	0.63
MS.462         	8.71           	0.644
MS.463         	8.695          	0.679
MS.464         	8.675          	0.62
MS.465         	8.66           	0.594
MS.466         	8.64           	0.49
MS.467         	8.625          	0.566
MS.468         	8.605          	0.677
MS.469         	8.59           	0.621
MS.470         	8.57           	0.505
MS.471         	8.555          	0.542
MS.472         	8.54           	0.477
MS.473         	8.52           	0.585
MS.474         	8.505          	0.453
MS.475         	8.485          	0.509
MS.476         	8.47           	0.622
MS.477         	8.455          	0.549
MS.478         	8.435          	0.59
MS.479         	8.42           	0.425
MS.480         	8.4            	0.429
MS.481         	8.385          	0.394
MS.482         	8.37           	0.339
MS.483         	8.35           	0.357
MS.484         	8.335          	0.373
MS.485         	8.32           	0.383
MS.486         	8.3            	0.425
MS.487         	8.285          	0.364
MS.488         	8.27           	0.399
MS.489         	8.255          	0.356
MS.490         	8.235          	0.494
MS.491         	8.22           	0.393
MS.492         	8.205          	0.459
MS.493         	8.185          	0.258
MS.494         	8.17           	0.319
MS.495         	8.155          	0.379
MS.496         	8.14           	0.384
MS.497         	8.12           	0.403
MS.498         	8.105          	0.331
MS.499         	8.09           	0.402
MS.500         	8.075          	0.27
MS.501         	8.055          	0.351
MS.502         	8.04           	0.336
MS.503         	8.025          	0.341
