File:              	C:\Qtrac\Data\CKMC00923C.QZD
Name:              	RHS02
Protocol:          	MSCAN-R2
Date:              	23/9/20
Start time:        	13:38:45
Age:               	34
Sex:               	F
Temperature:       	37.8
S/R sites:         	RMedian Wr-APB
NC/disease:        	NC
Operator:          	CK
Comments:          	CG
M-SCAN DATA (5.8-1.4m)
Scanpts: 60, 66, 467, 481
Stim. (mA)     	Amp. (mV)
MS.1           	11             	6.744
MS.2           	11             	6.753
MS.3           	11             	6.777
MS.4           	11             	6.745
MS.5           	11             	6.737
MS.6           	11             	6.75
MS.7           	11             	6.753
MS.8           	11             	6.749
MS.9           	11             	6.761
MS.10          	11             	6.737
MS.11          	11             	6.724
MS.12          	11             	6.73
MS.13          	11             	6.754
MS.14          	11             	6.749
MS.15          	11             	6.749
MS.16          	11             	6.729
MS.17          	11             	6.734
MS.18          	11             	6.763
MS.19          	11             	6.755
MS.20          	11             	6.761
MS.21          	11             	6.752
MS.22          	11             	6.727
MS.23          	11             	6.736
MS.24          	10.955         	6.754
MS.25          	10.935         	6.731
MS.26          	10.91          	6.735
MS.27          	10.89          	6.721
MS.28          	10.87          	6.755
MS.29          	10.845         	6.721
MS.30          	10.825         	6.721
MS.31          	10.805         	6.714
MS.32          	10.78          	6.721
MS.33          	10.76          	6.718
MS.34          	10.74          	6.747
MS.35          	10.72          	6.732
MS.36          	10.695         	6.703
MS.37          	10.675         	6.74
MS.38          	10.655         	6.72
MS.39          	10.63          	6.747
MS.40          	10.61          	6.739
MS.41          	10.59          	6.747
MS.42          	10.57          	6.738
MS.43          	10.55          	6.723
MS.44          	10.525         	6.742
MS.45          	10.505         	6.719
MS.46          	10.485         	6.749
MS.47          	10.465         	6.734
MS.48          	10.445         	6.742
MS.49          	10.42          	6.73
MS.50          	10.4           	6.71
MS.51          	10.38          	6.75
MS.52          	10.36          	6.729
MS.53          	10.34          	6.734
MS.54          	10.32          	6.758
MS.55          	10.295         	6.747
MS.56          	10.275         	6.769
MS.57          	10.255         	6.76
MS.58          	10.235         	6.74
MS.59          	10.215         	6.761
MS.60          	10.195         	6.768
MS.61          	10.175         	6.769
MS.62          	10.155         	6.76
MS.63          	10.135         	6.746
MS.64          	10.115         	6.772
MS.65          	10.095         	6.771
MS.66          	10.075         	6.755
MS.67          	10.055         	6.766
MS.68          	10.035         	6.779
MS.69          	10.015         	6.754
MS.70          	9.995          	6.763
MS.71          	9.975          	6.757
MS.72          	9.955          	6.756
MS.73          	9.935          	6.775
MS.74          	9.915          	6.783
MS.75          	9.895          	6.755
MS.76          	9.875          	6.766
MS.77          	9.855          	6.776
MS.78          	9.835          	6.763
MS.79          	9.815          	6.756
MS.80          	9.795          	6.758
MS.81          	9.775          	6.779
MS.82          	9.755          	6.768
MS.83          	9.735          	6.764
MS.84          	9.715          	6.747
MS.85          	9.7            	6.757
MS.86          	9.68           	6.747
MS.87          	9.66           	6.758
MS.88          	9.64           	6.779
MS.89          	9.62           	6.749
MS.90          	9.6            	6.655
MS.91          	9.58           	6.774
MS.92          	9.565          	6.768
MS.93          	9.545          	6.671
MS.94          	9.525          	6.778
MS.95          	9.505          	6.75
MS.96          	9.485          	6.79
MS.97          	9.47           	6.765
MS.98          	9.45           	6.664
MS.99          	9.43           	6.671
MS.100         	9.41           	6.651
MS.101         	9.39           	6.684
MS.102         	9.375          	6.677
MS.103         	9.355          	6.721
MS.104         	9.335          	6.775
MS.105         	9.315          	6.779
MS.106         	9.3            	6.653
MS.107         	9.28           	6.666
MS.108         	9.26           	6.661
MS.109         	9.245          	6.669
MS.110         	9.225          	6.679
MS.111         	9.205          	6.665
MS.112         	9.19           	6.679
MS.113         	9.17           	6.669
MS.114         	9.15           	6.667
MS.115         	9.135          	6.645
MS.116         	9.115          	6.669
MS.117         	9.095          	6.678
MS.118         	9.08           	6.645
MS.119         	9.06           	6.671
MS.120         	9.04           	6.682
MS.121         	9.025          	6.662
MS.122         	9.005          	6.672
MS.123         	8.99           	6.655
MS.124         	8.97           	6.658
MS.125         	8.95           	6.667
MS.126         	8.935          	6.669
MS.127         	8.915          	6.644
MS.128         	8.9            	6.671
MS.129         	8.88           	6.675
MS.130         	8.865          	6.656
MS.131         	8.845          	6.64
MS.132         	8.83           	6.68
MS.133         	8.81           	6.667
MS.134         	8.79           	6.65
MS.135         	8.775          	6.669
MS.136         	8.755          	6.671
MS.137         	8.74           	6.653
MS.138         	8.72           	6.656
MS.139         	8.705          	6.652
MS.140         	8.69           	6.664
MS.141         	8.67           	6.661
MS.142         	8.655          	6.657
MS.143         	8.635          	6.613
MS.144         	8.62           	6.645
MS.145         	8.6            	6.624
MS.146         	8.585          	6.671
MS.147         	8.565          	6.666
MS.148         	8.55           	6.618
MS.149         	8.535          	6.675
MS.150         	8.515          	6.655
MS.151         	8.5            	6.639
MS.152         	8.48           	6.646
MS.153         	8.465          	6.613
MS.154         	8.45           	6.63
MS.155         	8.43           	6.661
MS.156         	8.415          	6.614
MS.157         	8.395          	6.618
MS.158         	8.38           	6.622
MS.159         	8.365          	6.611
MS.160         	8.345          	6.615
MS.161         	8.33           	6.657
MS.162         	8.315          	6.635
MS.163         	8.295          	6.643
MS.164         	8.28           	6.643
MS.165         	8.265          	6.623
MS.166         	8.245          	6.642
MS.167         	8.23           	6.622
MS.168         	8.215          	6.516
MS.169         	8.2            	6.53
MS.170         	8.18           	6.63
MS.171         	8.165          	6.605
MS.172         	8.15           	6.566
MS.173         	8.135          	6.621
MS.174         	8.115          	6.622
MS.175         	8.1            	6.645
MS.176         	8.085          	6.532
MS.177         	8.07           	6.528
MS.178         	8.05           	6.539
MS.179         	8.035          	6.557
MS.180         	8.02           	6.525
MS.181         	8.005          	6.53
MS.182         	7.99           	6.525
MS.183         	7.97           	6.554
MS.184         	7.955          	6.553
MS.185         	7.94           	6.529
MS.186         	7.925          	6.624
MS.187         	7.91           	6.529
MS.188         	7.89           	6.533
MS.189         	7.875          	6.499
MS.190         	7.86           	6.525
MS.191         	7.845          	6.505
MS.192         	7.83           	6.531
MS.193         	7.815          	6.53
MS.194         	7.8            	6.546
MS.195         	7.785          	6.536
MS.196         	7.765          	6.506
MS.197         	7.75           	6.488
MS.198         	7.735          	6.439
MS.199         	7.72           	6.478
MS.200         	7.705          	6.534
MS.201         	7.69           	6.483
MS.202         	7.675          	6.535
MS.203         	7.66           	6.532
MS.204         	7.645          	6.495
MS.205         	7.63           	6.234
MS.206         	7.615          	6.542
MS.207         	7.6            	6.526
MS.208         	7.585          	6.532
MS.209         	7.57           	6.468
MS.210         	7.555          	6.279
MS.211         	7.54           	6.476
MS.212         	7.52           	6.512
MS.213         	7.505          	6.306
MS.214         	7.49           	6.245
MS.215         	7.475          	6.483
MS.216         	7.465          	6.228
MS.217         	7.45           	6.486
MS.218         	7.435          	6.202
MS.219         	7.42           	6.23
MS.220         	7.405          	6.207
MS.221         	7.39           	6.226
MS.222         	7.375          	6.235
MS.223         	7.36           	6.231
MS.224         	7.345          	6.111
MS.225         	7.33           	6.102
MS.226         	7.315          	6.215
MS.227         	7.3            	6.183
MS.228         	7.285          	6.227
MS.229         	7.27           	6.251
MS.230         	7.255          	6.079
MS.231         	7.24           	6.003
MS.232         	7.225          	6.234
MS.233         	7.215          	6.207
MS.234         	7.2            	6.038
MS.235         	7.185          	6.059
MS.236         	7.17           	6.205
MS.237         	7.155          	5.991
MS.238         	7.14           	5.999
MS.239         	7.125          	5.999
MS.240         	7.115          	5.867
MS.241         	7.1            	5.875
MS.242         	7.085          	5.892
MS.243         	7.07           	5.78
MS.244         	7.055          	5.911
MS.245         	7.04           	5.852
MS.246         	7.03           	5.798
MS.247         	7.015          	5.607
MS.248         	7              	5.616
MS.249         	6.985          	5.736
MS.250         	6.97           	5.569
MS.251         	6.96           	5.604
MS.252         	6.945          	5.422
MS.253         	6.93           	5.525
MS.254         	6.915          	5.553
MS.255         	6.905          	4.865
MS.256         	6.89           	5.401
MS.257         	6.875          	5.536
MS.258         	6.86           	5.573
MS.259         	6.85           	5.056
MS.260         	6.835          	5.302
MS.261         	6.82           	5.248
MS.262         	6.805          	5.268
MS.263         	6.795          	4.908
MS.264         	6.78           	5.316
MS.265         	6.765          	5.061
MS.266         	6.75           	5.042
MS.267         	6.74           	5.51
MS.268         	6.725          	5.068
MS.269         	6.71           	4.559
MS.270         	6.7            	4.616
MS.271         	6.685          	4.72
MS.272         	6.67           	4.461
MS.273         	6.66           	5.004
MS.274         	6.645          	4.409
MS.275         	6.63           	4.419
MS.276         	6.62           	4.448
MS.277         	6.605          	4.369
MS.278         	6.59           	4.335
MS.279         	6.58           	4.243
MS.280         	6.565          	4.053
MS.281         	6.555          	3.975
MS.282         	6.54           	3.895
MS.283         	6.525          	4.402
MS.284         	6.515          	4.13
MS.285         	6.5            	4.009
MS.286         	6.49           	4.14
MS.287         	6.475          	3.373
MS.288         	6.46           	3.816
MS.289         	6.45           	4.052
MS.290         	6.435          	4.014
MS.291         	6.425          	3.53
MS.292         	6.41           	3.25
MS.293         	6.395          	3.417
MS.294         	6.385          	3.906
MS.295         	6.37           	3.978
MS.296         	6.36           	3.307
MS.297         	6.345          	3.076
MS.298         	6.335          	2.961
MS.299         	6.32           	2.904
MS.300         	6.31           	3.572
MS.301         	6.295          	3.23
MS.302         	6.285          	2.637
MS.303         	6.27           	2.775
MS.304         	6.26           	2.921
MS.305         	6.245          	2.548
MS.306         	6.235          	2.801
MS.307         	6.22           	2.744
MS.308         	6.21           	2.512
MS.309         	6.195          	2.093
MS.310         	6.185          	2.439
MS.311         	6.17           	2.325
MS.312         	6.16           	2.205
MS.313         	6.145          	2.155
MS.314         	6.135          	2.369
MS.315         	6.12           	2.235
MS.316         	6.11           	2.408
MS.317         	6.1            	2.145
MS.318         	6.085          	1.861
MS.319         	6.075          	2.055
MS.320         	6.06           	2.151
MS.321         	6.05           	2.024
MS.322         	6.035          	1.924
MS.323         	6.025          	1.634
MS.324         	6.015          	2.017
MS.325         	6              	1.637
MS.326         	5.99           	2.02
MS.327         	5.975          	1.547
MS.328         	5.965          	1.836
MS.329         	5.955          	1.328
MS.330         	5.94           	1.973
MS.331         	5.93           	1.847
MS.332         	5.915          	1.249
MS.333         	5.905          	1.873
MS.334         	5.895          	1.343
MS.335         	5.88           	1.413
MS.336         	5.87           	1.426
MS.337         	5.86           	1.248
MS.338         	5.845          	1.373
MS.339         	5.835          	1.082
MS.340         	5.825          	1.495
MS.341         	5.81           	1.18
MS.342         	5.8            	1.174
MS.343         	5.79           	1.447
MS.344         	5.775          	1.425
MS.345         	5.765          	1.234
MS.346         	5.755          	1.205
MS.347         	5.74           	1.279
MS.348         	5.73           	0.991
MS.349         	5.72           	0.933
MS.350         	5.71           	1.254
MS.351         	5.695          	0.894
MS.352         	5.685          	1.081
MS.353         	5.675          	0.883
MS.354         	5.665          	0.883
MS.355         	5.65           	0.93
MS.356         	5.64           	0.887
MS.357         	5.63           	0.892
MS.358         	5.62           	0.875
MS.359         	5.605          	0.924
MS.360         	5.595          	0.813
MS.361         	5.585          	0.832
MS.362         	5.575          	0.802
MS.363         	5.56           	0.858
MS.364         	5.55           	0.803
MS.365         	5.54           	0.826
MS.366         	5.53           	0.734
MS.367         	5.515          	0.84
MS.368         	5.505          	0.65
MS.369         	5.495          	0.714
MS.370         	5.485          	0.784
MS.371         	5.475          	0.618
MS.372         	5.46           	0.636
MS.373         	5.45           	0.648
MS.374         	5.44           	0.569
MS.375         	5.43           	0.66
MS.376         	5.42           	0.57
MS.377         	5.41           	0.662
MS.378         	5.395          	0.598
MS.379         	5.385          	0.66
MS.380         	5.375          	0.644
MS.381         	5.365          	0.552
MS.382         	5.355          	0.569
MS.383         	5.345          	0.635
MS.384         	5.335          	0.471
MS.385         	5.32           	0.382
MS.386         	5.31           	0.403
MS.387         	5.3            	0.409
MS.388         	5.29           	0.442
MS.389         	5.28           	0.421
MS.390         	5.27           	0.226
MS.391         	5.26           	0.361
MS.392         	5.25           	0.375
MS.393         	5.24           	0.306
MS.394         	5.225          	0.308
MS.395         	5.215          	0.306
MS.396         	5.205          	0.377
MS.397         	5.195          	0.264
MS.398         	5.185          	0.299
MS.399         	5.175          	0.351
MS.400         	5.165          	0.234
MS.401         	5.155          	0.215
MS.402         	5.145          	0.226
MS.403         	5.135          	0.242
MS.404         	5.125          	0.221
MS.405         	5.115          	0.078
MS.406         	5.105          	0.086
MS.407         	5.095          	0.102
MS.408         	5.085          	0.135
MS.409         	5.075          	0.093
MS.410         	5.065          	0.148
MS.411         	5.055          	0.209
MS.412         	5.04           	0.178
MS.413         	5.03           	0.231
MS.414         	5.02           	0.118
MS.415         	5.01           	0.061
MS.416         	5              	0.07
MS.417         	4.99           	0.19
MS.418         	4.98           	0.057
MS.419         	4.97           	0.062
MS.420         	4.96           	0.052
MS.421         	4.95           	0.052
MS.422         	4.945          	0.074
MS.423         	4.935          	0.076
MS.424         	4.925          	0.071
MS.425         	4.915          	0.055
MS.426         	4.905          	0.077
MS.427         	4.895          	0.073
MS.428         	4.885          	0.069
MS.429         	4.875          	0.078
MS.430         	4.865          	0.038
MS.431         	4.855          	0.089
MS.432         	4.845          	0.048
MS.433         	4.835          	0.05
MS.434         	4.825          	0.074
MS.435         	4.815          	0.051
MS.436         	4.805          	0.056
MS.437         	4.795          	0.033
MS.438         	4.785          	0.029
MS.439         	4.775          	0.038
MS.440         	4.77           	0.04
MS.441         	4.76           	0.035
MS.442         	4.75           	0.048
MS.443         	4.74           	0.038
MS.444         	4.73           	0.037
MS.445         	4.72           	0.043
MS.446         	4.71           	0.035
MS.447         	4.7            	0.033
MS.448         	4.69           	0.034
MS.449         	4.685          	0.037
MS.450         	4.675          	0.036
MS.451         	4.665          	0.042
MS.452         	4.655          	0.037
MS.453         	4.645          	0.035
MS.454         	4.635          	0.034
MS.455         	4.625          	0.052
MS.456         	4.62           	0.041
MS.457         	4.61           	0.018
MS.458         	4.6            	0.019
MS.459         	4.59           	0.029
MS.460         	4.58           	0.035
MS.461         	4.57           	0.025
MS.462         	4.565          	0.035
MS.463         	4.555          	0.02
MS.464         	4.545          	0.02
MS.465         	4.535          	0.04
MS.466         	4.525          	0.018
MS.467         	4.515          	0.026
MS.468         	4.51           	0.02
MS.469         	4.5            	0.034
MS.470         	4.49           	0.027
MS.471         	4.48           	0.026
MS.472         	4.47           	0.017
MS.473         	4.465          	0.028
MS.474         	4.455          	0.018
MS.475         	4.445          	0.032
MS.476         	4.435          	0.034
MS.477         	4.43           	0.021
MS.478         	4.42           	0.027
MS.479         	4.41           	0.023
MS.480         	4.4            	0.018
MS.481         	4.39           	0.029
MS.482         	4.385          	0.022
MS.483         	4.375          	0.021
MS.484         	4.365          	0.02
MS.485         	4.355          	0.024
MS.486         	4.35           	0.021
DERIVED EXCITABILITY VARIABLES
Program = QTracP 20/9/2019
Threshold method = 6 (optimised for CAP, using data for present condition only)
SR method = 1 (using actual data values)
6.                 	0.000               	Peak response\(mV)
9.                 	37.8                	Temperature ( C)
17.                	34                  	Age (years)
18.                	2                   	Sex (M=1, F=2)

EXTRA VARIABLES

MScPeak(mV) = 6.72
MScS5(mA) = 5.22
MScS50(mA) = 6.36
MScS95(mA) = 7.53
MScNSteps = 2
MScSteps(%) = 5.6
MScStepMax(%) = 3
MScD50 = 33
Height = 168
MSFPeakAmp(mV) = 6.74
MSFNUnits = 55
MSFMeanUnitAmp(uV) = 122.5
