File:              	C:\Qtrac\Data\CKMC01111A.QZD
Name:              	RHS07
Protocol:          	MSCAN-R2
Date:              	11/11/20
Start time:        	09:18:38
Age:               	73
Sex:               	M
Temperature:       	39.8
S/R sites:         	RMedian Wr-APB
NC/disease:        	NC
Operator:          	CK
Comments:          	CG
M-SCAN DATA (5.8-1.3m)
Scanpts: 25, 29, 469, 489
Stim. (mA)     	Amp. (mV)
MS.1           	20             	5.766
MS.2           	20             	5.75
MS.3           	20             	5.771
MS.4           	20             	5.759
MS.5           	20             	5.782
MS.6           	20             	5.8
MS.7           	20             	5.799
MS.8           	20             	5.781
MS.9           	20             	5.812
MS.10          	20             	5.807
MS.11          	20             	5.839
MS.12          	20             	5.833
MS.13          	20             	5.857
MS.14          	20             	5.855
MS.15          	20             	5.863
MS.16          	20             	5.85
MS.17          	20             	5.845
MS.18          	20             	5.828
MS.19          	20             	5.858
MS.20          	20             	5.855
MS.21          	20             	5.847
MS.22          	20             	5.862
MS.23          	20             	5.858
MS.24          	19.92          	5.859
MS.25          	19.88          	5.868
MS.26          	19.84          	5.853
MS.27          	19.8           	5.851
MS.28          	19.76          	5.837
MS.29          	19.72          	5.864
MS.30          	19.68          	5.853
MS.31          	19.645         	5.851
MS.32          	19.605         	5.845
MS.33          	19.565         	5.835
MS.34          	19.525         	5.833
MS.35          	19.485         	5.834
MS.36          	19.45          	5.844
MS.37          	19.41          	5.837
MS.38          	19.37          	5.847
MS.39          	19.33          	5.836
MS.40          	19.295         	5.833
MS.41          	19.255         	5.826
MS.42          	19.215         	5.842
MS.43          	19.175         	5.826
MS.44          	19.14          	5.834
MS.45          	19.1           	5.843
MS.46          	19.065         	5.831
MS.47          	19.025         	5.85
MS.48          	18.985         	5.847
MS.49          	18.95          	5.835
MS.50          	18.91          	5.826
MS.51          	18.875         	5.843
MS.52          	18.835         	5.853
MS.53          	18.8           	5.836
MS.54          	18.76          	5.84
MS.55          	18.725         	5.837
MS.56          	18.685         	5.83
MS.57          	18.65          	5.832
MS.58          	18.61          	5.825
MS.59          	18.575         	5.816
MS.60          	18.535         	5.816
MS.61          	18.5           	5.83
MS.62          	18.46          	5.831
MS.63          	18.425         	5.824
MS.64          	18.39          	5.839
MS.65          	18.35          	5.822
MS.66          	18.315         	5.82
MS.67          	18.28          	5.837
MS.68          	18.24          	5.847
MS.69          	18.205         	5.844
MS.70          	18.17          	5.838
MS.71          	18.135         	5.845
MS.72          	18.095         	5.844
MS.73          	18.06          	5.839
MS.74          	18.025         	5.851
MS.75          	17.99          	5.829
MS.76          	17.95          	5.822
MS.77          	17.915         	5.804
MS.78          	17.88          	5.817
MS.79          	17.845         	5.834
MS.80          	17.81          	5.825
MS.81          	17.775         	5.82
MS.82          	17.74          	5.821
MS.83          	17.705         	5.812
MS.84          	17.67          	5.806
MS.85          	17.63          	5.795
MS.86          	17.595         	5.798
MS.87          	17.56          	5.796
MS.88          	17.525         	5.809
MS.89          	17.49          	5.801
MS.90          	17.455         	5.811
MS.91          	17.42          	5.808
MS.92          	17.385         	5.806
MS.93          	17.35          	5.798
MS.94          	17.32          	5.79
MS.95          	17.285         	5.806
MS.96          	17.25          	5.79
MS.97          	17.215         	5.787
MS.98          	17.18          	5.79
MS.99          	17.145         	5.804
MS.100         	17.11          	5.791
MS.101         	17.075         	5.8
MS.102         	17.045         	5.781
MS.103         	17.01          	5.781
MS.104         	16.975         	5.789
MS.105         	16.94          	5.787
MS.106         	16.905         	5.785
MS.107         	16.875         	5.798
MS.108         	16.84          	5.789
MS.109         	16.805         	5.786
MS.110         	16.77          	5.787
MS.111         	16.74          	5.805
MS.112         	16.705         	5.809
MS.113         	16.67          	5.8
MS.114         	16.64          	5.786
MS.115         	16.605         	5.793
MS.116         	16.57          	5.799
MS.117         	16.54          	5.795
MS.118         	16.505         	5.793
MS.119         	16.475         	5.783
MS.120         	16.44          	5.789
MS.121         	16.405         	5.797
MS.122         	16.375         	5.789
MS.123         	16.34          	5.777
MS.124         	16.31          	5.77
MS.125         	16.275         	5.762
MS.126         	16.245         	5.759
MS.127         	16.21          	5.775
MS.128         	16.18          	5.771
MS.129         	16.145         	5.782
MS.130         	16.115         	5.757
MS.131         	16.08          	5.762
MS.132         	16.05          	5.758
MS.133         	16.02          	5.746
MS.134         	15.985         	5.743
MS.135         	15.955         	5.731
MS.136         	15.92          	5.749
MS.137         	15.89          	5.752
MS.138         	15.86          	5.747
MS.139         	15.825         	5.725
MS.140         	15.795         	5.738
MS.141         	15.765         	5.736
MS.142         	15.73          	5.728
MS.143         	15.7           	5.748
MS.144         	15.67          	5.756
MS.145         	15.64          	5.758
MS.146         	15.605         	5.754
MS.147         	15.575         	5.747
MS.148         	15.545         	5.743
MS.149         	15.515         	5.728
MS.150         	15.485         	5.728
MS.151         	15.45          	5.715
MS.152         	15.42          	5.738
MS.153         	15.39          	5.745
MS.154         	15.36          	5.73
MS.155         	15.33          	5.736
MS.156         	15.3           	5.716
MS.157         	15.27          	5.71
MS.158         	15.235         	5.703
MS.159         	15.205         	5.681
MS.160         	15.175         	5.683
MS.161         	15.145         	5.691
MS.162         	15.115         	5.71
MS.163         	15.085         	5.686
MS.164         	15.055         	5.693
MS.165         	15.025         	5.698
MS.166         	14.995         	5.716
MS.167         	14.965         	5.709
MS.168         	14.935         	5.705
MS.169         	14.905         	5.704
MS.170         	14.875         	5.706
MS.171         	14.845         	5.701
MS.172         	14.815         	5.698
MS.173         	14.785         	5.698
MS.174         	14.755         	5.707
MS.175         	14.73          	5.692
MS.176         	14.7           	5.695
MS.177         	14.67          	5.678
MS.178         	14.64          	5.709
MS.179         	14.61          	5.687
MS.180         	14.58          	5.688
MS.181         	14.55          	5.707
MS.182         	14.525         	5.699
MS.183         	14.495         	5.665
MS.184         	14.465         	5.707
MS.185         	14.435         	5.677
MS.186         	14.405         	5.687
MS.187         	14.38          	5.692
MS.188         	14.35          	5.704
MS.189         	14.32          	5.68
MS.190         	14.29          	5.664
MS.191         	14.265         	5.675
MS.192         	14.235         	5.663
MS.193         	14.205         	5.662
MS.194         	14.18          	5.635
MS.195         	14.15          	5.665
MS.196         	14.12          	5.669
MS.197         	14.095         	5.675
MS.198         	14.065         	5.638
MS.199         	14.035         	5.629
MS.200         	14.01          	5.652
MS.201         	13.98          	5.637
MS.202         	13.955         	5.624
MS.203         	13.925         	5.54
MS.204         	13.9           	5.551
MS.205         	13.87          	5.531
MS.206         	13.84          	5.515
MS.207         	13.815         	5.474
MS.208         	13.785         	5.505
MS.209         	13.76          	5.449
MS.210         	13.73          	5.363
MS.211         	13.705         	5.385
MS.212         	13.675         	5.418
MS.213         	13.65          	5.505
MS.214         	13.625         	5.237
MS.215         	13.595         	5.049
MS.216         	13.57          	5.032
MS.217         	13.54          	4.827
MS.218         	13.515         	4.947
MS.219         	13.485         	4.888
MS.220         	13.46          	5.034
MS.221         	13.435         	4.916
MS.222         	13.405         	5.042
MS.223         	13.38          	5.117
MS.224         	13.355         	5.049
MS.225         	13.325         	5.082
MS.226         	13.3           	5.159
MS.227         	13.275         	5.164
MS.228         	13.245         	5.068
MS.229         	13.22          	5.037
MS.230         	13.195         	4.992
MS.231         	13.165         	5.031
MS.232         	13.14          	5.15
MS.233         	13.115         	5.146
MS.234         	13.09          	4.96
MS.235         	13.06          	4.737
MS.236         	13.035         	4.838
MS.237         	13.01          	4.76
MS.238         	12.985         	4.725
MS.239         	12.96          	4.969
MS.240         	12.93          	4.977
MS.241         	12.905         	5.046
MS.242         	12.88          	4.976
MS.243         	12.855         	4.802
MS.244         	12.83          	4.761
MS.245         	12.805         	4.805
MS.246         	12.78          	4.81
MS.247         	12.755         	4.849
MS.248         	12.725         	4.781
MS.249         	12.7           	4.525
MS.250         	12.675         	4.955
MS.251         	12.65          	4.736
MS.252         	12.625         	4.732
MS.253         	12.6           	4.481
MS.254         	12.575         	4.219
MS.255         	12.55          	4.446
MS.256         	12.525         	4.467
MS.257         	12.5           	4.736
MS.258         	12.475         	4.45
MS.259         	12.45          	4.199
MS.260         	12.425         	4.683
MS.261         	12.4           	4.15
MS.262         	12.375         	4.108
MS.263         	12.35          	4.073
MS.264         	12.325         	4.025
MS.265         	12.3           	4.277
MS.266         	12.275         	4.142
MS.267         	12.25          	4.045
MS.268         	12.23          	4.053
MS.269         	12.205         	3.946
MS.270         	12.18          	3.995
MS.271         	12.155         	3.831
MS.272         	12.13          	3.917
MS.273         	12.105         	3.799
MS.274         	12.08          	3.904
MS.275         	12.06          	3.82
MS.276         	12.035         	3.764
MS.277         	12.01          	4.117
MS.278         	11.985         	3.735
MS.279         	11.96          	4.105
MS.280         	11.94          	3.864
MS.281         	11.915         	3.916
MS.282         	11.89          	3.665
MS.283         	11.865         	3.776
MS.284         	11.845         	3.808
MS.285         	11.82          	3.73
MS.286         	11.795         	3.639
MS.287         	11.77          	3.725
MS.288         	11.75          	3.605
MS.289         	11.725         	3.588
MS.290         	11.7           	3.263
MS.291         	11.68          	3.398
MS.292         	11.655         	3.58
MS.293         	11.63          	3.243
MS.294         	11.61          	3.251
MS.295         	11.585         	2.94
MS.296         	11.56          	2.911
MS.297         	11.54          	3.05
MS.298         	11.515         	3.116
MS.299         	11.495         	2.979
MS.300         	11.47          	2.99
MS.301         	11.445         	2.554
MS.302         	11.425         	2.935
MS.303         	11.4           	3.031
MS.304         	11.38          	2.709
MS.305         	11.355         	2.559
MS.306         	11.335         	2.408
MS.307         	11.31          	2.647
MS.308         	11.29          	2.516
MS.309         	11.265         	2.283
MS.310         	11.245         	2.497
MS.311         	11.22          	2.491
MS.312         	11.2           	2.439
MS.313         	11.175         	2.079
MS.314         	11.155         	1.93
MS.315         	11.13          	2.094
MS.316         	11.11          	2.153
MS.317         	11.085         	2.021
MS.318         	11.065         	2.124
MS.319         	11.04          	1.824
MS.320         	11.02          	1.941
MS.321         	11             	1.832
MS.322         	10.975         	1.871
MS.323         	10.955         	1.91
MS.324         	10.93          	1.629
MS.325         	10.91          	1.752
MS.326         	10.89          	1.578
MS.327         	10.865         	1.585
MS.328         	10.845         	1.719
MS.329         	10.825         	1.494
MS.330         	10.8           	1.783
MS.331         	10.78          	1.683
MS.332         	10.76          	1.435
MS.333         	10.735         	1.454
MS.334         	10.715         	1.487
MS.335         	10.695         	1.39
MS.336         	10.675         	1.373
MS.337         	10.65          	1.385
MS.338         	10.63          	1.371
MS.339         	10.61          	1.428
MS.340         	10.59          	1.292
MS.341         	10.565         	1.254
MS.342         	10.545         	1.34
MS.343         	10.525         	1.386
MS.344         	10.505         	1.245
MS.345         	10.485         	1.143
MS.346         	10.46          	1.274
MS.347         	10.44          	1.227
MS.348         	10.42          	1.083
MS.349         	10.4           	1.146
MS.350         	10.38          	0.916
MS.351         	10.36          	1.011
MS.352         	10.335         	1.095
MS.353         	10.315         	0.944
MS.354         	10.295         	0.811
MS.355         	10.275         	0.726
MS.356         	10.255         	0.734
MS.357         	10.235         	0.795
MS.358         	10.215         	0.809
MS.359         	10.195         	0.646
MS.360         	10.175         	0.624
MS.361         	10.155         	0.593
MS.362         	10.13          	0.549
MS.363         	10.11          	0.455
MS.364         	10.09          	0.641
MS.365         	10.07          	0.491
MS.366         	10.05          	0.365
MS.367         	10.03          	0.489
MS.368         	10.01          	0.485
MS.369         	9.99           	0.372
MS.370         	9.97           	0.431
MS.371         	9.95           	0.413
MS.372         	9.93           	0.352
MS.373         	9.91           	0.367
MS.374         	9.89           	0.349
MS.375         	9.87           	0.363
MS.376         	9.855          	0.349
MS.377         	9.835          	0.315
MS.378         	9.815          	0.352
MS.379         	9.795          	0.348
MS.380         	9.775          	0.352
MS.381         	9.755          	0.316
MS.382         	9.735          	0.286
MS.383         	9.715          	0.198
MS.384         	9.695          	0.235
MS.385         	9.675          	0.179
MS.386         	9.655          	0.318
MS.387         	9.64           	0.212
MS.388         	9.62           	0.178
MS.389         	9.6            	0.154
MS.390         	9.58           	0.254
MS.391         	9.56           	0.146
MS.392         	9.54           	0.155
MS.393         	9.525          	0.215
MS.394         	9.505          	0.078
MS.395         	9.485          	0.051
MS.396         	9.465          	0.084
MS.397         	9.445          	0.111
MS.398         	9.43           	0.071
MS.399         	9.41           	0.054
MS.400         	9.39           	0.05
MS.401         	9.37           	0.051
MS.402         	9.355          	0.04
MS.403         	9.335          	0.064
MS.404         	9.315          	0.052
MS.405         	9.295          	0.04
MS.406         	9.28           	0.042
MS.407         	9.26           	0.041
MS.408         	9.24           	0.035
MS.409         	9.225          	0.043
MS.410         	9.205          	0.062
MS.411         	9.185          	0.035
MS.412         	9.17           	0.048
MS.413         	9.15           	0.036
MS.414         	9.13           	0.032
MS.415         	9.115          	0.043
MS.416         	9.095          	0.032
MS.417         	9.075          	0.032
MS.418         	9.06           	0.063
MS.419         	9.04           	0.038
MS.420         	9.025          	0.026
MS.421         	9.005          	0.023
MS.422         	8.985          	0.029
MS.423         	8.97           	0.035
MS.424         	8.95           	0.026
MS.425         	8.935          	0.034
MS.426         	8.915          	0.037
MS.427         	8.895          	0.02
MS.428         	8.88           	0.051
MS.429         	8.86           	0.034
MS.430         	8.845          	0.021
MS.431         	8.825          	0.027
MS.432         	8.81           	0.035
MS.433         	8.79           	0.035
MS.434         	8.775          	0.027
MS.435         	8.755          	0.023
MS.436         	8.74           	0.031
MS.437         	8.72           	0.024
MS.438         	8.705          	0.034
MS.439         	8.685          	0.036
MS.440         	8.67           	0.025
MS.441         	8.65           	0.029
MS.442         	8.635          	0.021
MS.443         	8.615          	0.023
MS.444         	8.6            	0.027
MS.445         	8.585          	0.031
MS.446         	8.565          	0.025
MS.447         	8.55           	0.026
MS.448         	8.53           	0.027
MS.449         	8.515          	0.027
MS.450         	8.495          	0.023
MS.451         	8.48           	0.027
MS.452         	8.465          	0.034
MS.453         	8.445          	0.028
MS.454         	8.43           	0.032
MS.455         	8.415          	-0.002
MS.456         	8.395          	0.026
MS.457         	8.38           	0.025
MS.458         	8.36           	0.015
MS.459         	8.345          	0.038
MS.460         	8.33           	0.027
MS.461         	8.31           	0.027
MS.462         	8.295          	0.016
MS.463         	8.28           	0.044
MS.464         	8.265          	0.022
MS.465         	8.245          	0.018
MS.466         	8.23           	0.048
MS.467         	8.215          	0.015
MS.468         	8.195          	0.028
MS.469         	8.18           	0.016
MS.470         	8.165          	0.026
MS.471         	8.15           	0.018
MS.472         	8.13           	0.018
MS.473         	8.115          	0.019
MS.474         	8.1            	0.026
MS.475         	8.085          	0.024
MS.476         	8.065          	0.029
MS.477         	8.05           	0.02
MS.478         	8.035          	0.021
MS.479         	8.02           	0.014
MS.480         	8              	0.026
MS.481         	7.985          	0.021
MS.482         	7.97           	0.024
MS.483         	7.955          	0.014
MS.484         	7.94           	0.018
MS.485         	7.925          	0.018
MS.486         	7.905          	0.03
MS.487         	7.89           	0.018
MS.488         	7.875          	0.006
MS.489         	7.86           	0.018
DERIVED EXCITABILITY VARIABLES
Program = QTracP 20/9/2019
Threshold method = 6 (optimised for CAP, using data for present condition only)
SR method = 1 (using actual data values)
6.                 	0.000               	Peak response\(mV)
9.                 	39.8                	Temperature ( C)
17.                	73                  	Age (years)
18.                	1                   	Sex (M=1, F=2)

EXTRA VARIABLES

MScPeak(mV) = 5.8
MScS5(mA) = 9.68
MScS50(mA) = 11.43
MScS95(mA) = 13.84
MScNSteps = 4
MScSteps(%) = 10
