File:              	C:\Qtrac\Data\CKMC01021F.QZD
Name:              	RHS05
Protocol:          	MSCAN-R2
Date:              	21/10/20
Start time:        	13:21:34
Age:               	44
Sex:               	F
Temperature:       	38.0
S/R sites:         	RMedian Wr-APB
NC/disease:        	NC
Operator:          	CK
Comments:          	CG
M-SCAN DATA (8.3-2m)
Scanpts: 215, 223, 649, 669
Stim. (mA)     	Amp. (mV)
MS.1           	17             	10.786
MS.2           	17             	10.817
MS.3           	17             	10.863
MS.4           	17             	10.825
MS.5           	17             	10.832
MS.6           	17             	10.82
MS.7           	17             	10.797
MS.8           	17             	10.815
MS.9           	17             	10.809
MS.10          	17             	10.796
MS.11          	17             	10.808
MS.12          	17             	10.782
MS.13          	17             	10.789
MS.14          	17             	10.774
MS.15          	17             	10.765
MS.16          	17             	10.768
MS.17          	17             	10.773
MS.18          	17             	10.814
MS.19          	17             	10.796
MS.20          	17             	10.791
MS.21          	17             	10.776
MS.22          	17             	10.779
MS.23          	17             	10.789
MS.24          	16.93          	10.764
MS.25          	16.9           	10.728
MS.26          	16.865         	10.739
MS.27          	16.83          	10.75
MS.28          	16.795         	10.747
MS.29          	16.765         	10.742
MS.30          	16.73          	10.724
MS.31          	16.695         	10.71
MS.32          	16.665         	10.733
MS.33          	16.63          	10.76
MS.34          	16.595         	10.744
MS.35          	16.565         	10.735
MS.36          	16.53          	10.707
MS.37          	16.5           	10.725
MS.38          	16.465         	10.699
MS.39          	16.43          	10.732
MS.40          	16.4           	10.751
MS.41          	16.365         	10.724
MS.42          	16.335         	10.736
MS.43          	16.3           	10.695
MS.44          	16.27          	10.696
MS.45          	16.235         	10.728
MS.46          	16.205         	10.724
MS.47          	16.17          	10.742
MS.48          	16.14          	10.725
MS.49          	16.105         	10.733
MS.50          	16.075         	10.672
MS.51          	16.04          	10.728
MS.52          	16.01          	10.622
MS.53          	15.98          	10.672
MS.54          	15.945         	10.628
MS.55          	15.915         	10.687
MS.56          	15.88          	10.657
MS.57          	15.85          	10.666
MS.58          	15.82          	10.683
MS.59          	15.785         	10.64
MS.60          	15.755         	10.699
MS.61          	15.725         	10.706
MS.62          	15.695         	10.73
MS.63          	15.66          	10.689
MS.64          	15.63          	10.672
MS.65          	15.6           	10.663
MS.66          	15.57          	10.677
MS.67          	15.535         	10.603
MS.68          	15.505         	10.645
MS.69          	15.475         	10.635
MS.70          	15.445         	10.62
MS.71          	15.415         	10.645
MS.72          	15.38          	10.641
MS.73          	15.35          	10.637
MS.74          	15.32          	10.632
MS.75          	15.29          	10.645
MS.76          	15.26          	10.67
MS.77          	15.23          	10.69
MS.78          	15.2           	10.577
MS.79          	15.17          	10.652
MS.80          	15.14          	10.634
MS.81          	15.11          	10.62
MS.82          	15.08          	10.606
MS.83          	15.045         	10.611
MS.84          	15.015         	10.612
MS.85          	14.985         	10.625
MS.86          	14.955         	10.628
MS.87          	14.93          	10.614
MS.88          	14.9           	10.628
MS.89          	14.87          	10.626
MS.90          	14.84          	10.626
MS.91          	14.81          	10.623
MS.92          	14.78          	10.664
MS.93          	14.75          	10.635
MS.94          	14.72          	10.654
MS.95          	14.69          	10.681
MS.96          	14.66          	10.625
MS.97          	14.63          	10.634
MS.98          	14.605         	10.614
MS.99          	14.575         	10.646
MS.100         	14.545         	10.614
MS.101         	14.515         	10.631
MS.102         	14.485         	10.626
MS.103         	14.455         	10.635
MS.104         	14.43          	10.609
MS.105         	14.4           	10.577
MS.106         	14.37          	10.593
MS.107         	14.34          	10.583
MS.108         	14.315         	10.591
MS.109         	14.285         	10.603
MS.110         	14.255         	10.619
MS.111         	14.23          	10.602
MS.112         	14.2           	10.622
MS.113         	14.17          	10.599
MS.114         	14.145         	10.637
MS.115         	14.115         	10.634
MS.116         	14.085         	10.629
MS.117         	14.06          	10.608
MS.118         	14.03          	10.583
MS.119         	14             	10.603
MS.120         	13.975         	10.611
MS.121         	13.945         	10.573
MS.122         	13.92          	10.605
MS.123         	13.89          	10.594
MS.124         	13.865         	10.606
MS.125         	13.835         	10.6
MS.126         	13.805         	10.593
MS.127         	13.78          	10.631
MS.128         	13.75          	10.626
MS.129         	13.725         	10.626
MS.130         	13.695         	10.631
MS.131         	13.67          	10.641
MS.132         	13.645         	10.632
MS.133         	13.615         	10.623
MS.134         	13.59          	10.661
MS.135         	13.56          	10.645
MS.136         	13.535         	10.623
MS.137         	13.505         	10.645
MS.138         	13.48          	10.649
MS.139         	13.455         	10.637
MS.140         	13.425         	10.651
MS.141         	13.4           	10.657
MS.142         	13.375         	10.658
MS.143         	13.345         	10.699
MS.144         	13.32          	10.713
MS.145         	13.295         	10.689
MS.146         	13.265         	10.703
MS.147         	13.24          	10.689
MS.148         	13.215         	10.681
MS.149         	13.185         	10.678
MS.150         	13.16          	10.678
MS.151         	13.135         	10.69
MS.152         	13.11          	10.658
MS.153         	13.08          	10.674
MS.154         	13.055         	10.675
MS.155         	13.03          	10.696
MS.156         	13.005         	10.675
MS.157         	12.975         	10.672
MS.158         	12.95          	10.696
MS.159         	12.925         	10.695
MS.160         	12.9           	10.693
MS.161         	12.875         	10.699
MS.162         	12.85          	10.683
MS.163         	12.825         	10.727
MS.164         	12.795         	10.687
MS.165         	12.77          	10.699
MS.166         	12.745         	10.667
MS.167         	12.72          	10.686
MS.168         	12.695         	10.669
MS.169         	12.67          	10.683
MS.170         	12.645         	10.695
MS.171         	12.62          	10.681
MS.172         	12.595         	10.695
MS.173         	12.57          	10.715
MS.174         	12.545         	10.693
MS.175         	12.52          	10.722
MS.176         	12.495         	10.722
MS.177         	12.47          	10.721
MS.178         	12.445         	10.704
MS.179         	12.42          	10.713
MS.180         	12.395         	10.707
MS.181         	12.37          	10.715
MS.182         	12.345         	10.748
MS.183         	12.32          	10.77
MS.184         	12.295         	10.735
MS.185         	12.27          	10.701
MS.186         	12.245         	10.727
MS.187         	12.22          	10.715
MS.188         	12.195         	10.695
MS.189         	12.175         	10.695
MS.190         	12.15          	10.733
MS.191         	12.125         	10.742
MS.192         	12.1           	10.753
MS.193         	12.075         	10.742
MS.194         	12.05          	10.764
MS.195         	12.03          	10.751
MS.196         	12.005         	10.733
MS.197         	11.98          	10.75
MS.198         	11.955         	10.742
MS.199         	11.93          	10.754
MS.200         	11.91          	10.753
MS.201         	11.885         	10.742
MS.202         	11.86          	10.736
MS.203         	11.835         	10.78
MS.204         	11.815         	10.82
MS.205         	11.79          	10.78
MS.206         	11.765         	10.771
MS.207         	11.74          	10.754
MS.208         	11.72          	10.762
MS.209         	11.695         	10.78
MS.210         	11.67          	10.748
MS.211         	11.65          	10.793
MS.212         	11.625         	10.756
MS.213         	11.6           	10.765
MS.214         	11.58          	10.733
MS.215         	11.555         	10.759
MS.216         	11.535         	10.753
MS.217         	11.51          	10.744
MS.218         	11.485         	10.774
MS.219         	11.465         	10.818
MS.220         	11.44          	10.8
MS.221         	11.42          	10.776
MS.222         	11.395         	10.759
MS.223         	11.375         	10.764
MS.224         	11.35          	10.777
MS.225         	11.325         	10.78
MS.226         	11.305         	10.773
MS.227         	11.28          	10.773
MS.228         	11.26          	10.776
MS.229         	11.235         	10.799
MS.230         	11.215         	10.793
MS.231         	11.19          	10.802
MS.232         	11.17          	10.799
MS.233         	11.145         	10.767
MS.234         	11.125         	10.773
MS.235         	11.105         	10.799
MS.236         	11.08          	10.776
MS.237         	11.06          	10.803
MS.238         	11.035         	10.77
MS.239         	11.015         	10.791
MS.240         	10.99          	10.779
MS.241         	10.97          	10.799
MS.242         	10.95          	10.806
MS.243         	10.925         	10.803
MS.244         	10.905         	10.788
MS.245         	10.885         	10.793
MS.246         	10.86          	10.797
MS.247         	10.84          	10.774
MS.248         	10.82          	10.728
MS.249         	10.795         	10.764
MS.250         	10.775         	10.785
MS.251         	10.755         	10.754
MS.252         	10.73          	10.754
MS.253         	10.71          	10.826
MS.254         	10.69          	10.78
MS.255         	10.67          	10.754
MS.256         	10.645         	10.59
MS.257         	10.625         	10.585
MS.258         	10.605         	10.78
MS.259         	10.585         	10.797
MS.260         	10.56          	10.762
MS.261         	10.54          	10.574
MS.262         	10.52          	10.533
MS.263         	10.5           	10.59
MS.264         	10.475         	10.725
MS.265         	10.455         	10.574
MS.266         	10.435         	10.558
MS.267         	10.415         	10.567
MS.268         	10.395         	10.515
MS.269         	10.375         	10.539
MS.270         	10.35          	10.799
MS.271         	10.33          	10.576
MS.272         	10.31          	10.568
MS.273         	10.29          	10.585
MS.274         	10.27          	10.57
MS.275         	10.25          	10.526
MS.276         	10.23          	10.547
MS.277         	10.21          	10.547
MS.278         	10.19          	10.597
MS.279         	10.17          	10.551
MS.280         	10.145         	10.545
MS.281         	10.125         	10.541
MS.282         	10.105         	10.559
MS.283         	10.085         	10.573
MS.284         	10.065         	10.522
MS.285         	10.045         	10.545
MS.286         	10.025         	10.239
MS.287         	10.005         	10.544
MS.288         	9.985          	10.217
MS.289         	9.965          	10.548
MS.290         	9.945          	10.553
MS.291         	9.925          	10.213
MS.292         	9.905          	10.53
MS.293         	9.885          	10.538
MS.294         	9.865          	10.21
MS.295         	9.845          	10.521
MS.296         	9.83           	10.53
MS.297         	9.81           	10.243
MS.298         	9.79           	10.222
MS.299         	9.77           	10.237
MS.300         	9.75           	10.556
MS.301         	9.73           	10.585
MS.302         	9.71           	10.205
MS.303         	9.69           	10.551
MS.304         	9.67           	10.11
MS.305         	9.65           	10.213
MS.306         	9.635          	10.252
MS.307         	9.615          	10.234
MS.308         	9.595          	10.246
MS.309         	9.575          	10.239
MS.310         	9.555          	10.12
MS.311         	9.535          	10.245
MS.312         	9.52           	10.26
MS.313         	9.5            	10.252
MS.314         	9.48           	10.245
MS.315         	9.46           	10.223
MS.316         	9.44           	10.12
MS.317         	9.425          	10.095
MS.318         	9.405          	10.107
MS.319         	9.385          	10.126
MS.320         	9.365          	10.098
MS.321         	9.35           	10.275
MS.322         	9.33           	10.078
MS.323         	9.31           	10.1
MS.324         	9.295          	10.239
MS.325         	9.275          	10.101
MS.326         	9.255          	10.086
MS.327         	9.235          	10.068
MS.328         	9.22           	10.109
MS.329         	9.2            	9.941
MS.330         	9.18           	10.066
MS.331         	9.165          	9.996
MS.332         	9.145          	9.949
MS.333         	9.125          	10.124
MS.334         	9.11           	9.883
MS.335         	9.09           	10.001
MS.336         	9.07           	9.933
MS.337         	9.055          	9.897
MS.338         	9.035          	9.804
MS.339         	9.02           	10.068
MS.340         	9              	9.737
MS.341         	8.98           	9.641
MS.342         	8.965          	9.758
MS.343         	8.945          	9.888
MS.344         	8.93           	9.875
MS.345         	8.91           	9.766
MS.346         	8.895          	9.865
MS.347         	8.875          	9.901
MS.348         	8.855          	9.814
MS.349         	8.84           	9.746
MS.350         	8.82           	9.758
MS.351         	8.805          	9.735
MS.352         	8.785          	9.756
MS.353         	8.77           	9.738
MS.354         	8.75           	9.785
MS.355         	8.735          	9.685
MS.356         	8.715          	9.702
MS.357         	8.7            	9.683
MS.358         	8.68           	9.566
MS.359         	8.665          	9.659
MS.360         	8.645          	9.68
MS.361         	8.63           	9.613
MS.362         	8.61           	9.203
MS.363         	8.595          	9.436
MS.364         	8.58           	9.207
MS.365         	8.56           	9.521
MS.366         	8.545          	9.468
MS.367         	8.525          	9.132
MS.368         	8.51           	9.526
MS.369         	8.495          	9.178
MS.370         	8.475          	9.047
MS.371         	8.46           	9.137
MS.372         	8.44           	8.994
MS.373         	8.425          	9.27
MS.374         	8.41           	8.949
MS.375         	8.39           	9.039
MS.376         	8.375          	8.923
MS.377         	8.36           	9.201
MS.378         	8.34           	9.3
MS.379         	8.325          	8.998
MS.380         	8.31           	8.931
MS.381         	8.29           	8.836
MS.382         	8.275          	8.89
MS.383         	8.26           	8.894
MS.384         	8.24           	8.9
MS.385         	8.225          	8.777
MS.386         	8.21           	8.844
MS.387         	8.19           	8.591
MS.388         	8.175          	8.624
MS.389         	8.16           	8.496
MS.390         	8.145          	8.74
MS.391         	8.125          	8.708
MS.392         	8.11           	8.699
MS.393         	8.095          	8.411
MS.394         	8.08           	8.354
MS.395         	8.06           	8.141
MS.396         	8.045          	8.246
MS.397         	8.03           	8.417
MS.398         	8.015          	8.423
MS.399         	8              	8.339
MS.400         	7.98           	8.006
MS.401         	7.965          	8.266
MS.402         	7.95           	7.924
MS.403         	7.935          	8.138
MS.404         	7.92           	8.041
MS.405         	7.905          	7.909
MS.406         	7.885          	7.858
MS.407         	7.87           	7.796
MS.408         	7.855          	7.742
MS.409         	7.84           	7.687
MS.410         	7.825          	7.738
MS.411         	7.81           	7.402
MS.412         	7.795          	7.555
MS.413         	7.775          	7.623
MS.414         	7.76           	7.845
MS.415         	7.745          	7.509
MS.416         	7.73           	7.556
MS.417         	7.715          	7.515
MS.418         	7.7            	7.315
MS.419         	7.685          	7.141
MS.420         	7.67           	7.155
MS.421         	7.655          	7.263
MS.422         	7.64           	7.474
MS.423         	7.625          	6.828
MS.424         	7.61           	7.069
MS.425         	7.595          	6.847
MS.426         	7.58           	6.851
MS.427         	7.565          	7.138
MS.428         	7.545          	7.022
MS.429         	7.53           	6.973
MS.430         	7.515          	6.822
MS.431         	7.5            	6.871
MS.432         	7.485          	6.656
MS.433         	7.47           	6.763
MS.434         	7.455          	6.549
MS.435         	7.445          	6.358
MS.436         	7.43           	6.587
MS.437         	7.415          	6.586
MS.438         	7.4            	6.5
MS.439         	7.385          	6.158
MS.440         	7.37           	6.352
MS.441         	7.355          	6.4
MS.442         	7.34           	6.145
MS.443         	7.325          	6.001
MS.444         	7.31           	5.962
MS.445         	7.295          	6.148
MS.446         	7.28           	6.389
MS.447         	7.265          	5.478
MS.448         	7.25           	5.585
MS.449         	7.235          	5.63
MS.450         	7.225          	5.121
MS.451         	7.21           	5.84
MS.452         	7.195          	4.915
MS.453         	7.18           	4.343
MS.454         	7.165          	5.482
MS.455         	7.15           	5.367
MS.456         	7.135          	4.913
MS.457         	7.12           	4.578
MS.458         	7.11           	4.869
MS.459         	7.095          	4.46
MS.460         	7.08           	4.765
MS.461         	7.065          	4.843
MS.462         	7.05           	4.164
MS.463         	7.035          	3.7
MS.464         	7.025          	4.259
MS.465         	7.01           	3.442
MS.466         	6.995          	3.831
MS.467         	6.98           	3.331
MS.468         	6.965          	3.534
MS.469         	6.955          	4.144
MS.470         	6.94           	3.68
MS.471         	6.925          	3.198
MS.472         	6.91           	3.676
MS.473         	6.9            	3.154
MS.474         	6.885          	3.247
MS.475         	6.87           	3.29
MS.476         	6.855          	3.3
MS.477         	6.845          	3.229
MS.478         	6.83           	3.014
MS.479         	6.815          	2.942
MS.480         	6.8            	2.774
MS.481         	6.79           	2.975
MS.482         	6.775          	2.753
MS.483         	6.76           	2.74
MS.484         	6.75           	2.754
MS.485         	6.735          	2.518
MS.486         	6.72           	2.675
MS.487         	6.705          	2.629
MS.488         	6.695          	2.629
MS.489         	6.68           	2.405
MS.490         	6.665          	2.161
MS.491         	6.655          	2.254
MS.492         	6.64           	2.272
MS.493         	6.625          	2.271
MS.494         	6.615          	2.168
