File:              	C:\Qtrac\Data\CKMC01021A.QZD
Name:              	RHS03
Protocol:          	MSCAN-R2
Date:              	21/10/20
Start time:        	08:49:27
Age:               	56
Sex:               	M
Temperature:       	37.6
S/R sites:         	RMedian Wr-APB
NC/disease:        	NC
Operator:          	CK
Comments:          	CG
M-SCAN DATA (7.4-1.5m)
Scanpts: 1, 23, 611, 632
Stim. (mA)     	Amp. (mV)
MS.1           	18             	9.036
MS.2           	18             	9.053
MS.3           	18             	9.048
MS.4           	18             	9.027
MS.5           	18             	9.019
MS.6           	18             	9.009
MS.7           	18             	8.995
MS.8           	18             	9.024
MS.9           	18             	9.047
MS.10          	18             	9.038
MS.11          	18             	9.047
MS.12          	18             	9.013
MS.13          	18             	9.044
MS.14          	18             	9.006
MS.15          	18             	8.992
MS.16          	18             	9.018
MS.17          	18             	9.009
MS.18          	18             	9
MS.19          	18             	9.007
MS.20          	18             	8.997
MS.21          	18             	9.024
MS.22          	18             	9.024
MS.23          	17.93          	8.984
MS.24          	17.89          	9.023
MS.25          	17.855         	9.021
MS.26          	17.82          	9.036
MS.27          	17.785         	9.059
MS.28          	17.75          	9.012
MS.29          	17.715         	9.033
MS.30          	17.68          	9.027
MS.31          	17.645         	9.038
MS.32          	17.61          	9.053
MS.33          	17.575         	9.045
MS.34          	17.54          	9.041
MS.35          	17.505         	9.013
MS.36          	17.47          	9.038
MS.37          	17.435         	9.042
MS.38          	17.4           	9.052
MS.39          	17.365         	9.029
MS.40          	17.33          	9.058
MS.41          	17.295         	9.039
MS.42          	17.26          	9.044
MS.43          	17.225         	9.084
MS.44          	17.19          	9.084
MS.45          	17.155         	9.036
MS.46          	17.12          	9.079
MS.47          	17.09          	9.059
MS.48          	17.055         	9.033
MS.49          	17.02          	9.067
MS.50          	16.985         	9.064
MS.51          	16.95          	9.082
MS.52          	16.92          	9.109
MS.53          	16.885         	9.102
MS.54          	16.85          	9.106
MS.55          	16.815         	9.126
MS.56          	16.785         	9.108
MS.57          	16.75          	9.081
MS.58          	16.715         	9.119
MS.59          	16.685         	9.155
MS.60          	16.65          	9.155
MS.61          	16.615         	9.132
MS.62          	16.585         	9.113
MS.63          	16.55          	9.149
MS.64          	16.515         	9.129
MS.65          	16.485         	9.123
MS.66          	16.45          	9.12
MS.67          	16.42          	9.158
MS.68          	16.385         	9.151
MS.69          	16.35          	9.158
MS.70          	16.32          	9.172
MS.71          	16.285         	9.157
MS.72          	16.255         	9.152
MS.73          	16.22          	9.175
MS.74          	16.19          	9.181
MS.75          	16.155         	9.174
MS.76          	16.125         	9.206
MS.77          	16.095         	9.221
MS.78          	16.06          	9.184
MS.79          	16.03          	9.175
MS.80          	15.995         	9.213
MS.81          	15.965         	9.198
MS.82          	15.935         	9.201
MS.83          	15.9           	9.195
MS.84          	15.87          	9.171
MS.85          	15.835         	9.184
MS.86          	15.805         	9.154
MS.87          	15.775         	9.157
MS.88          	15.745         	9.154
MS.89          	15.71          	9.166
MS.90          	15.68          	9.088
MS.91          	15.65          	9.128
MS.92          	15.615         	9.119
MS.93          	15.585         	9.12
MS.94          	15.555         	9.113
MS.95          	15.525         	9.071
MS.96          	15.495         	9.081
MS.97          	15.46          	9.045
MS.98          	15.43          	9.055
MS.99          	15.4           	9.077
MS.100         	15.37          	9.041
MS.101         	15.34          	9.109
MS.102         	15.31          	9.1
MS.103         	15.275         	9.085
MS.104         	15.245         	9.074
MS.105         	15.215         	9.067
MS.106         	15.185         	9.085
MS.107         	15.155         	9.081
MS.108         	15.125         	9.059
MS.109         	15.095         	9.068
MS.110         	15.065         	9.067
MS.111         	15.035         	9.077
MS.112         	15.005         	9.062
MS.113         	14.975         	9.07
MS.114         	14.945         	9.067
MS.115         	14.915         	9.023
MS.116         	14.885         	9.07
MS.117         	14.855         	9.052
MS.118         	14.825         	9.045
MS.119         	14.795         	9.07
MS.120         	14.765         	9.058
MS.121         	14.735         	9.033
MS.122         	14.71          	9.048
MS.123         	14.68          	9.055
MS.124         	14.65          	9.044
MS.125         	14.62          	9.061
MS.126         	14.59          	9.058
MS.127         	14.56          	9.068
MS.128         	14.53          	9.047
MS.129         	14.505         	9.061
MS.130         	14.475         	9.023
MS.131         	14.445         	9.061
MS.132         	14.415         	8.951
MS.133         	14.39          	9.081
MS.134         	14.36          	9.07
MS.135         	14.33          	9.059
MS.136         	14.3           	9.056
MS.137         	14.275         	9.021
MS.138         	14.245         	9.033
MS.139         	14.215         	8.954
MS.140         	14.19          	9.041
MS.141         	14.16          	9.015
MS.142         	14.13          	8.937
MS.143         	14.105         	8.946
MS.144         	14.075         	8.951
MS.145         	14.045         	9.032
MS.146         	14.02          	9.048
MS.147         	13.99          	8.974
MS.148         	13.96          	8.951
MS.149         	13.935         	8.954
MS.150         	13.905         	8.928
MS.151         	13.88          	8.958
MS.152         	13.85          	8.966
MS.153         	13.825         	8.98
MS.154         	13.795         	8.966
MS.155         	13.77          	8.957
MS.156         	13.74          	9.016
MS.157         	13.715         	8.957
MS.158         	13.685         	8.951
MS.159         	13.66          	8.946
MS.160         	13.63          	8.961
MS.161         	13.605         	8.984
MS.162         	13.575         	8.972
MS.163         	13.55          	8.951
MS.164         	13.525         	9.006
MS.165         	13.495         	8.957
MS.166         	13.47          	8.96
MS.167         	13.44          	8.974
MS.168         	13.415         	8.937
MS.169         	13.39          	8.948
MS.170         	13.36          	8.954
MS.171         	13.335         	8.965
MS.172         	13.31          	8.966
MS.173         	13.28          	8.936
MS.174         	13.255         	8.958
MS.175         	13.23          	8.952
MS.176         	13.2           	8.948
MS.177         	13.175         	8.936
MS.178         	13.15          	8.945
MS.179         	13.125         	8.934
MS.180         	13.095         	8.972
MS.181         	13.07          	8.917
MS.182         	13.045         	8.957
MS.183         	13.02          	8.911
MS.184         	12.99          	8.945
MS.185         	12.965         	8.951
MS.186         	12.94          	8.876
MS.187         	12.915         	8.908
MS.188         	12.89          	8.958
MS.189         	12.865         	8.888
MS.190         	12.835         	8.902
MS.191         	12.81          	8.937
MS.192         	12.785         	8.835
MS.193         	12.76          	8.904
MS.194         	12.735         	8.881
MS.195         	12.71          	8.914
MS.196         	12.685         	8.841
MS.197         	12.66          	8.94
MS.198         	12.635         	8.89
MS.199         	12.61          	8.823
MS.200         	12.585         	8.859
MS.201         	12.56          	8.827
MS.202         	12.535         	8.847
MS.203         	12.51          	8.846
MS.204         	12.485         	8.835
MS.205         	12.46          	8.922
MS.206         	12.435         	8.847
MS.207         	12.41          	8.81
MS.208         	12.385         	8.827
MS.209         	12.36          	8.826
MS.210         	12.335         	8.833
MS.211         	12.31          	8.817
MS.212         	12.285         	8.832
MS.213         	12.26          	8.829
MS.214         	12.235         	8.832
MS.215         	12.21          	8.833
MS.216         	12.185         	8.849
MS.217         	12.165         	8.827
MS.218         	12.14          	8.83
MS.219         	12.115         	8.768
MS.220         	12.09          	8.786
MS.221         	12.065         	8.777
MS.222         	12.04          	8.783
MS.223         	12.02          	8.35
MS.224         	11.995         	8.795
MS.225         	11.97          	8.832
MS.226         	11.945         	8.345
MS.227         	11.92          	8.827
MS.228         	11.9           	8.273
MS.229         	11.875         	8.78
MS.230         	11.85          	8.781
MS.231         	11.825         	8.287
MS.232         	11.805         	8.301
MS.233         	11.78          	8.759
MS.234         	11.755         	8.817
MS.235         	11.735         	8.281
MS.236         	11.71          	8.281
MS.237         	11.685         	8.307
MS.238         	11.66          	8.217
MS.239         	11.64          	8.156
MS.240         	11.615         	8.284
MS.241         	11.595         	8.139
MS.242         	11.57          	8.321
MS.243         	11.545         	8.199
MS.244         	11.525         	7.942
MS.245         	11.5           	8.22
MS.246         	11.475         	8.282
MS.247         	11.455         	7.974
MS.248         	11.43          	7.878
MS.249         	11.41          	8.313
MS.250         	11.385         	7.373
MS.251         	11.365         	7.965
MS.252         	11.34          	7.932
MS.253         	11.32          	7.973
MS.254         	11.295         	7.347
MS.255         	11.275         	7.506
MS.256         	11.25          	7.077
MS.257         	11.23          	7.127
MS.258         	11.205         	7.111
MS.259         	11.185         	7.39
MS.260         	11.16          	7.286
MS.261         	11.14          	7.088
MS.262         	11.115         	7.309
MS.263         	11.095         	7.281
MS.264         	11.07          	7.265
MS.265         	11.05          	7.135
MS.266         	11.025         	7.057
MS.267         	11.005         	6.891
MS.268         	10.985         	7.001
MS.269         	10.96          	6.726
MS.270         	10.94          	6.822
MS.271         	10.92          	6.825
MS.272         	10.895         	6.729
MS.273         	10.875         	6.75
MS.274         	10.85          	6.662
MS.275         	10.83          	6.483
MS.276         	10.81          	6.598
MS.277         	10.785         	6.758
MS.278         	10.765         	6.735
MS.279         	10.745         	6.479
MS.280         	10.725         	6.548
MS.281         	10.7           	6.364
MS.282         	10.68          	6.541
MS.283         	10.66          	6.5
MS.284         	10.635         	6.273
MS.285         	10.615         	6.364
MS.286         	10.595         	6.409
MS.287         	10.575         	6.149
MS.288         	10.555         	6.104
MS.289         	10.53          	6.157
MS.290         	10.51          	6.052
MS.291         	10.49          	6.113
MS.292         	10.47          	6.071
MS.293         	10.45          	6.03
MS.294         	10.425         	6.013
MS.295         	10.405         	5.231
MS.296         	10.385         	5.455
MS.297         	10.365         	5.522
MS.298         	10.345         	5.922
MS.299         	10.325         	5.737
MS.300         	10.3           	5.228
MS.301         	10.28          	5.721
MS.302         	10.26          	4.808
MS.303         	10.24          	4.854
MS.304         	10.22          	5.585
MS.305         	10.2           	4.608
MS.306         	10.18          	4.646
MS.307         	10.16          	5.273
MS.308         	10.14          	4.443
MS.309         	10.12          	4.745
MS.310         	10.1           	4.373
MS.311         	10.08          	4.526
MS.312         	10.06          	4.442
MS.313         	10.04          	4.338
MS.314         	10.02          	4.456
MS.315         	10             	4.012
MS.316         	9.98           	3.929
MS.317         	9.96           	3.871
MS.318         	9.94           	3.818
MS.319         	9.92           	4.286
MS.320         	9.9            	4.352
MS.321         	9.88           	3.937
MS.322         	9.86           	4.195
MS.323         	9.84           	4.163
MS.324         	9.82           	3.836
MS.325         	9.8            	3.481
MS.326         	9.78           	3.625
MS.327         	9.76           	3.712
MS.328         	9.74           	3.746
MS.329         	9.72           	3.586
MS.330         	9.7            	3.516
MS.331         	9.685          	3.391
MS.332         	9.665          	3.4
MS.333         	9.645          	3.249
MS.334         	9.625          	3.227
MS.335         	9.605          	3.462
MS.336         	9.585          	3.284
MS.337         	9.565          	3.487
MS.338         	9.55           	3.271
MS.339         	9.53           	3.157
MS.340         	9.51           	3.333
MS.341         	9.49           	3.163
MS.342         	9.47           	3.162
MS.343         	9.455          	3.236
MS.344         	9.435          	3.145
MS.345         	9.415          	3.191
MS.346         	9.395          	3.227
MS.347         	9.38           	3.152
MS.348         	9.36           	3.084
MS.349         	9.34           	3.065
MS.350         	9.32           	3.009
MS.351         	9.305          	2.954
MS.352         	9.285          	3.058
MS.353         	9.265          	3.067
MS.354         	9.25           	2.927
MS.355         	9.23           	2.875
MS.356         	9.21           	2.728
MS.357         	9.19           	2.669
MS.358         	9.175          	2.769
MS.359         	9.155          	2.89
MS.360         	9.135          	2.675
MS.361         	9.12           	2.585
MS.362         	9.1            	2.44
MS.363         	9.085          	2.551
MS.364         	9.065          	2.46
MS.365         	9.045          	2.48
MS.366         	9.03           	2.412
MS.367         	9.01           	2.182
MS.368         	8.99           	2.251
MS.369         	8.975          	2.348
MS.370         	8.955          	2.196
MS.371         	8.94           	2.356
MS.372         	8.92           	2.223
MS.373         	8.905          	2.176
MS.374         	8.885          	1.924
MS.375         	8.865          	2.188
MS.376         	8.85           	1.985
MS.377         	8.83           	1.981
MS.378         	8.815          	2.077
MS.379         	8.795          	2.051
MS.380         	8.78           	2.016
MS.381         	8.76           	1.956
MS.382         	8.745          	2.008
MS.383         	8.725          	1.988
MS.384         	8.71           	1.947
MS.385         	8.69           	1.843
MS.386         	8.675          	1.709
MS.387         	8.655          	1.619
MS.388         	8.64           	1.891
MS.389         	8.62           	1.718
MS.390         	8.605          	1.859
MS.391         	8.59           	1.836
MS.392         	8.57           	1.848
MS.393         	8.555          	1.532
MS.394         	8.535          	1.468
MS.395         	8.52           	1.746
MS.396         	8.505          	1.447
MS.397         	8.485          	1.384
MS.398         	8.47           	1.45
MS.399         	8.45           	1.385
MS.400         	8.435          	1.581
MS.401         	8.42           	1.35
MS.402         	8.4            	1.315
MS.403         	8.385          	1.416
MS.404         	8.37           	1.311
MS.405         	8.35           	1.302
MS.406         	8.335          	1.286
MS.407         	8.32           	1.279
MS.408         	8.3            	1.186
MS.409         	8.285          	1.17
MS.410         	8.27           	1.199
MS.411         	8.25           	1.157
MS.412         	8.235          	1.062
MS.413         	8.22           	1.056
MS.414         	8.2            	1.083
MS.415         	8.185          	0.978
MS.416         	8.17           	0.931
MS.417         	8.155          	0.919
MS.418         	8.135          	1.03
MS.419         	8.12           	1.019
MS.420         	8.105          	0.945
MS.421         	8.09           	0.874
MS.422         	8.07           	0.957
MS.423         	8.055          	0.888
MS.424         	8.04           	0.919
MS.425         	8.025          	0.888
MS.426         	8.005          	0.734
MS.427         	7.99           	0.671
MS.428         	7.975          	0.894
MS.429         	7.96           	0.885
MS.430         	7.945          	0.693
MS.431         	7.93           	0.758
MS.432         	7.91           	0.691
MS.433         	7.895          	0.679
MS.434         	7.88           	0.659
MS.435         	7.865          	0.708
MS.436         	7.85           	0.63
MS.437         	7.835          	0.612
MS.438         	7.82           	0.513
MS.439         	7.8            	0.449
MS.440         	7.785          	0.475
MS.441         	7.77           	0.462
MS.442         	7.755          	0.584
MS.443         	7.74           	0.548
MS.444         	7.725          	0.36
MS.445         	7.71           	0.4
MS.446         	7.695          	0.381
MS.447         	7.68           	0.421
MS.448         	7.665          	0.32
MS.449         	7.645          	0.345
MS.450         	7.63           	0.346
MS.451         	7.615          	0.331
MS.452         	7.6            	0.313
MS.453         	7.585          	0.336
MS.454         	7.57           	0.284
MS.455         	7.555          	0.275
MS.456         	7.54           	0.261
MS.457         	7.525          	0.166
MS.458         	7.51           	0.197
MS.459         	7.495          	0.244
MS.460         	7.48           	0.249
MS.461         	7.465          	0.153
MS.462         	7.45           	0.15
MS.463         	7.435          	0.264
MS.464         	7.42           	0.156
MS.465         	7.405          	0.122
MS.466         	7.39           	0.137
MS.467         	7.375          	0.121
MS.468         	7.36           	0.157
MS.469         	7.35           	0.209
MS.470         	7.335          	0.151
MS.471         	7.32           	0.079
MS.472         	7.305          	0.119
MS.473         	7.29           	0.105
MS.474         	7.275          	0.156
MS.475         	7.26           	0.096
MS.476         	7.245          	0.082
MS.477         	7.23           	0.092
MS.478         	7.215          	0.145
MS.479         	7.2            	0.093
MS.480         	7.19           	0.154
MS.481         	7.175          	0.099
MS.482         	7.16           	0.079
MS.483         	7.145          	0.076
MS.484         	7.13           	0.095
MS.485         	7.115          	0.073
MS.486         	7.1            	0.082
MS.487         	7.09           	0.079
MS.488         	7.075          	0.078
MS.489         	7.06           	0.108
MS.490         	7.045          	0.13
MS.491         	7.03           	0.058
MS.492         	7.015          	0.05
MS.493         	7.005          	0.056
MS.494         	6.99           	0.067
MS.495         	6.975          	0.121
MS.496         	6.96           	0.056
MS.497         	6.945          	0.122
MS.498         	6.935          	0.064
MS.499         	6.92           	0.082
MS.500         	6.905          	0.05
MS.501         	6.89           	0.061
MS.502         	6.88           	0.101
MS.503         	6.865          	0.047
