File:              	C:\Qtrac\Data\Daniel M Sørensen\MScan multicentre study\Data from centres\Newcastle\Processed data\SMC00225A.QZD
Name:              	UK.NEW.NC.1.2
Protocol:          	MSCAN-R2
Date:              	25/2/20
Start time:        	16:01:28
Age:               	31
Sex:               	F
Temperature:       	31.9
S/R sites:         	APB
NC/disease:        	NC
Operator:          	SM
Comments:
M-SCAN DATA (6.5-2m)
Scanpts: 72, 87, 422, 454
Stim. (mA)     	Amp. (mV)
MS.1           	7              	7.63
MS.2           	7              	7.626
MS.3           	7              	7.62
MS.4           	7              	7.624
MS.5           	7              	7.607
MS.6           	7              	7.609
MS.7           	7              	7.605
MS.8           	7              	7.603
MS.9           	7              	7.599
MS.10          	7              	7.603
MS.11          	7              	7.587
MS.12          	7              	7.587
MS.13          	7              	7.605
MS.14          	7              	7.607
MS.15          	7              	7.595
MS.16          	7              	7.605
MS.17          	7              	7.632
MS.18          	7              	7.603
MS.19          	7              	7.591
MS.20          	7              	7.591
MS.21          	7              	7.583
MS.22          	7              	7.609
MS.23          	7              	7.585
MS.24          	6.972          	7.603
MS.25          	6.957          	7.599
MS.26          	6.945          	7.597
MS.27          	6.93           	7.593
MS.28          	6.918          	7.626
MS.29          	6.902          	7.601
MS.30          	6.89           	7.614
MS.31          	6.875          	7.618
MS.32          	6.862          	7.628
MS.33          	6.847          	7.597
MS.34          	6.835          	7.591
MS.35          	6.82           	7.591
MS.36          	6.807          	7.622
MS.37          	6.793          	7.634
MS.38          	6.78           	7.624
MS.39          	6.765          	7.593
MS.40          	6.753          	7.63
MS.41          	6.74           	7.591
MS.42          	6.725          	7.62
MS.43          	6.712          	7.616
MS.44          	6.697          	7.609
MS.45          	6.685          	7.624
MS.46          	6.672          	7.612
MS.47          	6.657          	7.614
MS.48          	6.645          	7.612
MS.49          	6.632          	7.609
MS.50          	6.617          	7.609
MS.51          	6.605          	7.605
MS.52          	6.592          	7.612
MS.53          	6.58           	7.616
MS.54          	6.565          	7.597
MS.55          	6.552          	7.599
MS.56          	6.54           	7.599
MS.57          	6.527          	7.616
MS.58          	6.512          	7.599
MS.59          	6.5            	7.614
MS.60          	6.487          	7.62
MS.61          	6.475          	7.618
MS.62          	6.462          	7.614
MS.63          	6.45           	7.628
MS.64          	6.435          	7.622
MS.65          	6.422          	7.628
MS.66          	6.41           	7.616
MS.67          	6.398          	7.624
MS.68          	6.385          	7.636
MS.69          	6.372          	7.62
MS.70          	6.36           	7.634
MS.71          	6.347          	7.626
MS.72          	6.335          	7.628
MS.73          	6.32           	7.632
MS.74          	6.307          	7.638
MS.75          	6.295          	7.63
MS.76          	6.282          	7.624
MS.77          	6.27           	7.618
MS.78          	6.257          	7.636
MS.79          	6.245          	7.626
MS.80          	6.233          	7.62
MS.81          	6.22           	7.618
MS.82          	6.207          	7.63
MS.83          	6.195          	7.618
MS.84          	6.182          	7.63
MS.85          	6.172          	7.628
MS.86          	6.16           	7.628
MS.87          	6.148          	7.636
MS.88          	6.135          	7.636
MS.89          	6.122          	7.624
MS.90          	6.11           	7.646
MS.91          	6.097          	7.626
MS.92          	6.085          	7.642
MS.93          	6.072          	7.64
MS.94          	6.06           	7.626
MS.95          	6.05           	7.634
MS.96          	6.037          	7.636
MS.97          	6.025          	7.646
MS.98          	6.012          	7.638
MS.99          	6              	7.662
MS.100         	5.99           	7.64
MS.101         	5.977          	7.628
MS.102         	5.965          	7.481
MS.103         	5.952          	7.638
MS.104         	5.94           	7.587
MS.105         	5.93           	7.66
MS.106         	5.918          	7.575
MS.107         	5.905          	7.652
MS.108         	5.895          	7.644
MS.109         	5.882          	7.487
MS.110         	5.87           	7.664
MS.111         	5.858          	7.646
MS.112         	5.847          	7.487
MS.113         	5.835          	7.497
MS.114         	5.822          	7.499
MS.115         	5.812          	7.483
MS.116         	5.8            	7.434
MS.117         	5.787          	7.597
MS.118         	5.777          	7.493
MS.119         	5.765          	7.434
MS.120         	5.755          	7.499
MS.121         	5.742          	7.497
MS.122         	5.73           	7.428
MS.123         	5.72           	7.43
MS.124         	5.707          	7.495
MS.125         	5.697          	7.487
MS.126         	5.685          	7.483
MS.127         	5.675          	7.442
MS.128         	5.662          	7.479
MS.129         	5.652          	7.434
MS.130         	5.64           	7.436
MS.131         	5.63           	7.432
MS.132         	5.617          	7.426
MS.133         	5.608          	7.428
MS.134         	5.595          	7.436
MS.135         	5.585          	7.422
MS.136         	5.572          	7.416
MS.137         	5.562          	7.418
MS.138         	5.55           	7.416
MS.139         	5.54           	7.408
MS.140         	5.527          	7.438
MS.141         	5.517          	7.426
MS.142         	5.507          	7.422
MS.143         	5.495          	7.43
MS.144         	5.485          	7.42
MS.145         	5.472          	7.426
MS.146         	5.463          	7.416
MS.147         	5.452          	7.402
MS.148         	5.44           	7.392
MS.149         	5.43           	7.414
MS.150         	5.42           	7.422
MS.151         	5.407          	7.424
MS.152         	5.398          	7.404
MS.153         	5.387          	7.398
MS.154         	5.375          	7.41
MS.155         	5.365          	7.414
MS.156         	5.355          	7.4
MS.157         	5.342          	7.402
MS.158         	5.332          	7.402
MS.159         	5.322          	7.43
MS.160         	5.312          	7.406
MS.161         	5.3            	7.392
MS.162         	5.29           	7.38
MS.163         	5.28           	7.406
MS.164         	5.27           	7.39
MS.165         	5.26           	7.392
MS.166         	5.247          	7.406
MS.167         	5.237          	7.394
MS.168         	5.227          	7.388
MS.169         	5.217          	7.382
MS.170         	5.207          	7.418
MS.171         	5.195          	7.4
MS.172         	5.185          	7.396
MS.173         	5.175          	7.259
MS.174         	5.165          	7.227
MS.175         	5.155          	7.384
MS.176         	5.145          	6.915
MS.177         	5.135          	7.231
MS.178         	5.125          	7.231
MS.179         	5.112          	7.245
MS.180         	5.102          	6.921
MS.181         	5.092          	7.412
MS.182         	5.082          	7.235
MS.183         	5.072          	7.388
MS.184         	5.062          	6.933
MS.185         	5.052          	7.102
MS.186         	5.043          	6.808
MS.187         	5.032          	7.245
MS.188         	5.023          	6.808
MS.189         	5.012          	7.019
MS.190         	5.003          	6.635
MS.191         	4.992          	6.794
MS.192         	4.983          	6.79
MS.193         	4.972          	6.961
MS.194         	4.963          	6.915
MS.195         	4.952          	6.453
MS.196         	4.943          	6.721
MS.197         	4.932          	6.905
MS.198         	4.922          	6.3
MS.199         	4.912          	6.482
MS.200         	4.902          	6.753
MS.201         	4.892          	6.294
MS.202         	4.882          	6.395
MS.203         	4.875          	6.256
MS.204         	4.865          	6.27
MS.205         	4.855          	6.451
MS.206         	4.845          	6.135
MS.207         	4.835          	6.264
MS.208         	4.825          	6.391
MS.209         	4.815          	6.292
MS.210         	4.805          	6.23
MS.211         	4.797          	6.236
MS.212         	4.787          	6.208
MS.213         	4.777          	6.115
MS.214         	4.767          	6.157
MS.215         	4.757          	6.097
MS.216         	4.75           	5.96
MS.217         	4.74           	5.815
MS.218         	4.73           	6.105
MS.219         	4.72           	6.2
MS.220         	4.71           	6.093
MS.221         	4.702          	5.704
MS.222         	4.693          	5.698
MS.223         	4.682          	6.101
MS.224         	4.673          	5.728
MS.225         	4.665          	6.047
MS.226         	4.655          	6.016
MS.227         	4.645          	5.718
MS.228         	4.637          	5.986
MS.229         	4.628          	5.924
MS.230         	4.617          	5.561
MS.231         	4.608          	5.329
MS.232         	4.6            	5.442
MS.233         	4.59           	5.126
MS.234         	4.58           	5.015
MS.235         	4.572          	5.098
MS.236         	4.562          	4.719
MS.237         	4.552          	4.53
MS.238         	4.545          	4.89
MS.239         	4.535          	4.836
MS.240         	4.527          	4.572
MS.241         	4.517          	4.528
MS.242         	4.507          	4.665
MS.243         	4.5            	4.397
MS.244         	4.49           	4.377
MS.245         	4.483          	4.532
MS.246         	4.472          	4.278
MS.247         	4.463          	4.087
MS.248         	4.455          	4.23
MS.249         	4.445          	4.236
MS.250         	4.438          	4.296
MS.251         	4.427          	4.038
MS.252         	4.42           	4.228
MS.253         	4.41           	4.117
MS.254         	4.402          	4.222
MS.255         	4.392          	3.865
MS.256         	4.385          	4.115
MS.257         	4.375          	3.938
MS.258         	4.367          	3.837
MS.259         	4.358          	3.7
MS.260         	4.35           	3.754
MS.261         	4.34           	3.623
MS.262         	4.332          	3.728
MS.263         	4.322          	3.684
MS.264         	4.315          	3.42
MS.265         	4.305          	3.19
MS.266         	4.298          	3.414
MS.267         	4.287          	3.515
MS.268         	4.28           	3.396
MS.269         	4.27           	3.422
MS.270         	4.262          	3.114
MS.271         	4.255          	3.364
MS.272         	4.245          	3.46
MS.273         	4.237          	3.247
MS.274         	4.23           	2.995
MS.275         	4.22           	3.017
MS.276         	4.213          	2.498
MS.277         	4.202          	3.215
MS.278         	4.195          	3.057
MS.279         	4.188          	2.365
MS.280         	4.177          	2.647
MS.281         	4.17           	2.443
MS.282         	4.162          	2.133
MS.283         	4.152          	2.546
MS.284         	4.145          	2.407
MS.285         	4.137          	2.429
MS.286         	4.128          	2.187
MS.287         	4.12           	1.972
MS.288         	4.112          	1.793
MS.289         	4.105          	1.831
MS.290         	4.095          	2.409
MS.291         	4.088          	2.29
MS.292         	4.08           	1.688
MS.293         	4.07           	1.519
MS.294         	4.062          	1.658
MS.295         	4.055          	1.404
MS.296         	4.048          	2.071
MS.297         	4.037          	1.225
MS.298         	4.03           	1.366
MS.299         	4.023          	1.233
MS.300         	4.015          	1.426
MS.301         	4.007          	1.104
MS.302         	3.997          	1.055
MS.303         	3.99           	1.162
MS.304         	3.982          	1.206
MS.305         	3.975          	1.009
MS.306         	3.967          	1.003
MS.307         	3.957          	1.039
MS.308         	3.95           	0.888
MS.309         	3.942          	1.011
MS.310         	3.935          	1.217
MS.311         	3.928          	0.735
MS.312         	3.92           	0.602
MS.313         	3.912          	0.665
MS.314         	3.902          	0.602
MS.315         	3.895          	0.479
MS.316         	3.887          	0.707
MS.317         	3.88           	0.55
MS.318         	3.872          	0.566
MS.319         	3.865          	0.518
MS.320         	3.857          	0.508
MS.321         	3.85           	0.54
MS.322         	3.842          	0.473
MS.323         	3.835          	0.29
MS.324         	3.827          	0.294
MS.325         	3.817          	0.34
MS.326         	3.81           	0.272
MS.327         	3.803          	0.332
MS.328         	3.795          	0.157
MS.329         	3.787          	0.31
MS.330         	3.78           	0.316
MS.331         	3.772          	0.236
MS.332         	3.765          	0.314
MS.333         	3.757          	0.228
MS.334         	3.75           	0.189
MS.335         	3.742          	0.211
MS.336         	3.735          	0.328
MS.337         	3.727          	0.207
MS.338         	3.72           	0.179
MS.339         	3.712          	0.234
MS.340         	3.705          	0.159
MS.341         	3.697          	0.127
MS.342         	3.69           	0.159
MS.343         	3.682          	0.189
MS.344         	3.678          	0.181
MS.345         	3.67           	0.121
MS.346         	3.662          	0.151
MS.347         	3.655          	0.171
MS.348         	3.647          	0.185
MS.349         	3.64           	0.111
MS.350         	3.632          	0.149
MS.351         	3.625          	0.171
MS.352         	3.617          	0.105
MS.353         	3.61           	0.099
MS.354         	3.602          	0.068
MS.355         	3.597          	0.117
MS.356         	3.59           	0.085
MS.357         	3.582          	0.107
MS.358         	3.575          	0.087
MS.359         	3.567          	0.101
MS.360         	3.56           	0.095
MS.361         	3.553          	0.066
MS.362         	3.547          	0.083
MS.363         	3.54           	0.081
MS.364         	3.533          	0.085
MS.365         	3.525          	0.064
MS.366         	3.517          	0.079
MS.367         	3.51           	0.04
MS.368         	3.505          	0.056
MS.369         	3.497          	0.085
MS.370         	3.49           	0.073
MS.371         	3.482          	0.062
MS.372         	3.475          	0.064
MS.373         	3.47           	0.062
MS.374         	3.462          	0.077
MS.375         	3.455          	0.058
MS.376         	3.447          	0.064
MS.377         	3.442          	0.048
MS.378         	3.435          	0.048
MS.379         	3.428          	0.036
MS.380         	3.42           	0.04
MS.381         	3.415          	0.036
MS.382         	3.408          	0.052
MS.383         	3.4            	0.046
MS.384         	3.392          	0.04
MS.385         	3.387          	0.034
MS.386         	3.38           	0.04
MS.387         	3.372          	0.054
MS.388         	3.367          	0.044
MS.389         	3.36           	0.024
MS.390         	3.352          	0.018
MS.391         	3.347          	0.036
MS.392         	3.34           	0.014
MS.393         	3.332          	0.056
MS.394         	3.327          	0.008
MS.395         	3.32           	0.014
MS.396         	3.312          	0.022
MS.397         	3.307          	0.008
MS.398         	3.3            	0.024
MS.399         	3.293          	0.018
MS.400         	3.287          	0.012
MS.401         	3.28           	0.032
MS.402         	3.273          	0.006
MS.403         	3.267          	0.012
MS.404         	3.26           	0.008
MS.405         	3.255          	0.026
MS.406         	3.247          	0.008
MS.407         	3.24           	0.026
MS.408         	3.235          	0.012
MS.409         	3.227          	0.008
MS.410         	3.222          	0.012
MS.411         	3.215          	0.01
MS.412         	3.21           	0.008
MS.413         	3.202          	0.01
MS.414         	3.195          	0.01
MS.415         	3.19           	0.012
MS.416         	3.182          	0.012
MS.417         	3.178          	0.012
MS.418         	3.17           	0.008
MS.419         	3.165          	0.012
MS.420         	3.158          	0.008
MS.421         	3.152          	0.01
MS.422         	3.145          	0.01
MS.423         	3.14           	0.01
MS.424         	3.132          	0.012
MS.425         	3.127          	0.012
MS.426         	3.12           	0.012
MS.427         	3.115          	0.012
MS.428         	3.107          	0.012
MS.429         	3.102          	0.014
MS.430         	3.095          	0.01
MS.431         	3.09           	0.01
MS.432         	3.082          	0.014
MS.433         	3.077          	0.01
MS.434         	3.07           	0.014
MS.435         	3.065          	0.01
MS.436         	3.057          	0.012
MS.437         	3.053          	0.012
MS.438         	3.045          	0.008
MS.439         	3.04           	0.01
MS.440         	3.035          	0.016
MS.441         	3.027          	0.012
MS.442         	3.023          	0.01
MS.443         	3.015          	0.008
MS.444         	3.01           	0.008
MS.445         	3.005          	0.01
MS.446         	2.997          	0.012
MS.447         	2.992          	0.012
MS.448         	2.985          	0.014
MS.449         	2.98           	0.014
MS.450         	2.975          	0.014
MS.451         	2.967          	0.014
MS.452         	2.962          	0.014
MS.453         	2.955          	0.012
MS.454         	2.95           	0.014
MS.455         	2.945          	0.002
MS.456         	2.938          	0.014
MS.457         	2.932          	0.012
MS.458         	2.928          	0.002
MS.459         	2.92           	0.016
MS.460         	2.915          	0.018
MS.461         	2.91           	0.014
MS.462         	2.902          	0.014
MS.463         	2.898          	0.02
MS.464         	2.892          	0.014
MS.465         	2.885          	-0.002
MS.466         	2.88           	0.002
MS.467         	2.875          	0.002
MS.468         	2.87           	-0.002
MS.469         	2.862          	0.002
MS.470         	2.857          	0.002
MS.471         	2.852          	0.002
MS.472         	2.845          	0.002
MS.473         	2.84           	0.002
MS.474         	2.835          	0.002
MS.475         	2.83           	0.002
MS.476         	2.822          	0.002
MS.477         	2.817          	0.002
MS.478         	2.812          	0.000
MS.479         	2.807          	-0.002
MS.480         	2.8            	0.000
MS.481         	2.795          	0.000
MS.482         	2.79           	-0.002
MS.483         	2.785          	0.004
MS.484         	2.777          	0.002
MS.485         	2.773          	0.004
MS.486         	2.767          	0.002
MS.487         	2.763          	0.000
MS.488         	2.757          	0.000
MS.489         	2.75           	0.000
MS.490         	2.745          	0.000
MS.491         	2.74           	-0.002
MS.492         	2.735          	0.002
MS.493         	2.73           	0.000
MS.494         	2.722          	0.004
DERIVED EXCITABILITY VARIABLES
Program = QTracP 9/10/2021
Threshold method = 6 (optimised for CAP, using data for present condition only)
SR method = 1 (using actual data values)
6.                 	0.000               	Peak response\(mV)
