File:              	C:\Qtrac\Data\Daniel M Sørensen\MScan multicentre study\Data from centres\Oslo\Processed data\SZC00429A.QZD
Name:              	NO.OSL.NC.1.2
Protocol:          	MSCAN-R2
Date:              	29/4/20
Start time:        	09:01:56
Age:               	57
Sex:               	F
Temperature:       	28.5
S/R sites:         	APB
NC/disease:        	NC
Operator:          	SZ
Comments:          	Subject1 test2
M-SCAN DATA (6.3-1.7m)
Scanpts: 42, 46, 459, 485
Stim. (mA)     	Amp. (mV)
MS.1           	14.5           	12.077
MS.2           	14.5           	12.091
MS.3           	14.5           	12.083
MS.4           	14.5           	12.071
MS.5           	14.5           	12.035
MS.6           	14.5           	12.021
MS.7           	14.5           	12.018
MS.8           	14.5           	11.944
MS.9           	14.5           	11.98
MS.10          	14.5           	11.93
MS.11          	14.5           	12.008
MS.12          	14.5           	12.004
MS.13          	14.5           	12.021
MS.14          	14.5           	12.031
MS.15          	14.5           	12.029
MS.16          	14.5           	12.031
MS.17          	14.5           	12.023
MS.18          	14.5           	12.037
MS.19          	14.5           	11.97
MS.20          	14.5           	12.061
MS.21          	14.5           	12.043
MS.22          	14.5           	12.035
MS.23          	14.5           	12.077
MS.24          	14.443         	12.073
MS.25          	14.412         	12.006
MS.26          	14.385         	12.059
MS.27          	14.355         	12.055
MS.28          	14.327         	12.043
MS.29          	14.297         	12.033
MS.30          	14.27          	11.958
MS.31          	14.242         	12.031
MS.32          	14.212         	12.012
MS.33          	14.185         	11.958
MS.34          	14.155         	12.012
MS.35          	14.127         	11.97
MS.36          	14.1           	12.039
MS.37          	14.072         	11.962
MS.38          	14.042         	11.988
MS.39          	14.015         	12.018
MS.40          	13.987         	11.994
MS.41          	13.96          	11.948
MS.42          	13.932         	11.976
MS.43          	13.903         	11.976
MS.44          	13.875         	11.994
MS.45          	13.847         	11.984
MS.46          	13.82          	11.99
MS.47          	13.792         	11.988
MS.48          	13.765         	11.982
MS.49          	13.737         	11.992
MS.50          	13.71          	11.984
MS.51          	13.682         	11.789
MS.52          	13.655         	11.789
MS.53          	13.627         	11.787
MS.54          	13.6           	11.98
MS.55          	13.575         	11.765
MS.56          	13.547         	11.795
MS.57          	13.52          	11.795
MS.58          	13.492         	11.809
MS.59          	13.465         	11.803
MS.60          	13.44          	12.006
MS.61          	13.412         	11.781
MS.62          	13.385         	11.994
MS.63          	13.358         	11.789
MS.64          	13.332         	11.789
MS.65          	13.305         	11.809
MS.66          	13.278         	11.801
MS.67          	13.252         	11.795
MS.68          	13.225         	11.789
MS.69          	13.2           	11.781
MS.70          	13.172         	11.773
MS.71          	13.148         	11.793
MS.72          	13.12          	11.791
MS.73          	13.095         	11.795
MS.74          	13.068         	11.785
MS.75          	13.042         	11.787
MS.76          	13.015         	11.791
MS.77          	12.99          	11.779
MS.78          	12.962         	11.791
MS.79          	12.938         	11.783
MS.80          	12.912         	11.787
MS.81          	12.885         	11.773
MS.82          	12.86          	11.779
MS.83          	12.835         	11.777
MS.84          	12.81          	11.775
MS.85          	12.782         	11.765
MS.86          	12.757         	11.769
MS.87          	12.733         	11.773
MS.88          	12.707         	11.777
MS.89          	12.682         	11.759
MS.90          	12.655         	11.749
MS.91          	12.63          	11.763
MS.92          	12.605         	11.749
MS.93          	12.58          	11.757
MS.94          	12.555         	11.761
MS.95          	12.53          	11.759
MS.96          	12.505         	11.779
MS.97          	12.48          	11.775
MS.98          	12.455         	11.759
MS.99          	12.43          	11.763
MS.100         	12.405         	11.755
MS.101         	12.38          	11.771
MS.102         	12.355         	11.771
MS.103         	12.332         	11.783
MS.104         	12.307         	11.805
MS.105         	12.282         	11.777
MS.106         	12.257         	11.775
MS.107         	12.233         	11.767
MS.108         	12.207         	11.789
MS.109         	12.185         	11.797
MS.110         	12.16          	11.803
MS.111         	12.135         	11.801
MS.112         	12.113         	11.783
MS.113         	12.087         	11.791
MS.114         	12.062         	11.789
MS.115         	12.04          	11.771
MS.116         	12.015         	11.799
MS.117         	11.99          	11.805
MS.118         	11.967         	11.817
MS.119         	11.943         	11.775
MS.120         	11.92          	11.793
MS.121         	11.895         	11.779
MS.122         	11.872         	11.769
MS.123         	11.847         	11.803
MS.124         	11.825         	11.797
MS.125         	11.8           	11.769
MS.126         	11.778         	11.767
MS.127         	11.752         	11.761
MS.128         	11.73          	11.763
MS.129         	11.707         	11.781
MS.130         	11.682         	11.787
MS.131         	11.66          	11.767
MS.132         	11.637         	11.769
MS.133         	11.613         	11.795
MS.134         	11.59          	11.769
MS.135         	11.568         	11.761
MS.136         	11.545         	11.767
MS.137         	11.52          	11.759
MS.138         	11.497         	11.676
MS.139         	11.475         	11.656
MS.140         	11.452         	11.638
MS.141         	11.43          	11.749
MS.142         	11.405         	11.6
MS.143         	11.382         	11.737
MS.144         	11.36          	11.634
MS.145         	11.337         	11.626
MS.146         	11.315         	11.726
MS.147         	11.292         	11.63
MS.148         	11.27          	11.596
MS.149         	11.247         	11.594
MS.150         	11.225         	11.608
MS.151         	11.202         	11.598
MS.152         	11.18          	11.585
MS.153         	11.157         	11.581
MS.154         	11.135         	11.618
MS.155         	11.113         	11.545
MS.156         	11.09          	11.569
MS.157         	11.07          	11.549
MS.158         	11.047         	11.199
MS.159         	11.025         	11.728
MS.160         	11.002         	11.714
MS.161         	10.98          	11.716
MS.162         	10.96          	11.722
MS.163         	10.938         	11.732
MS.164         	10.915         	11.694
MS.165         	10.892         	11.668
MS.166         	10.872         	11.718
MS.167         	10.85          	11.716
MS.168         	10.827         	11.674
MS.169         	10.807         	11.72
MS.170         	10.785         	11.67
MS.171         	10.762         	11.73
MS.172         	10.742         	11.726
MS.173         	10.72          	11.72
MS.174         	10.7           	11.692
MS.175         	10.677         	11.698
MS.176         	10.655         	11.642
MS.177         	10.635         	11.702
MS.178         	10.613         	11.684
MS.179         	10.592         	11.722
MS.180         	10.573         	11.688
MS.181         	10.55          	11.422
MS.182         	10.53          	11.549
MS.183         	10.507         	11.608
MS.184         	10.488         	11.539
MS.185         	10.465         	11.511
MS.186         	10.445         	11.483
MS.187         	10.425         	11.453
MS.188         	10.403         	11.519
MS.189         	10.382         	11.521
MS.190         	10.363         	11.493
MS.191         	10.342         	11.422
MS.192         	10.32          	11.422
MS.193         	10.3           	11.384
MS.194         	10.28          	11.396
MS.195         	10.26          	11.396
MS.196         	10.238         	11.386
MS.197         	10.217         	11.364
MS.198         	10.198         	11.352
MS.199         	10.177         	11.356
MS.200         	10.157         	11.162
MS.201         	10.137         	11.195
MS.202         	10.117         	11.34
MS.203         	10.095         	11.179
MS.204         	10.075         	11.366
MS.205         	10.055         	11.346
MS.206         	10.035         	11.352
MS.207         	10.015         	11.336
MS.208         	9.995          	11.354
MS.209         	9.975          	11.169
MS.210         	9.955          	11.374
MS.211         	9.935          	11.171
MS.212         	9.915          	11.34
MS.213         	9.895          	11.162
MS.214         	9.877          	11.122
MS.215         	9.858          	11.038
MS.216         	9.837          	11.4
MS.217         	9.818          	11.275
MS.218         	9.797          	11.243
MS.219         	9.778          	11.062
MS.220         	9.757          	10.943
MS.221         	9.74           	11.106
MS.222         	9.72           	10.786
MS.223         	9.7            	11.154
MS.224         	9.68           	10.854
MS.225         	9.662          	11.017
MS.226         	9.642          	10.901
MS.227         	9.622          	10.806
MS.228         	9.602          	10.814
MS.229         	9.585          	10.802
MS.230         	9.565          	10.522
MS.231         	9.545          	10.425
MS.232         	9.528          	10.333
MS.233         	9.507          	10.609
MS.234         	9.49           	10.782
MS.235         	9.47           	10.425
MS.236         	9.45           	10.526
MS.237         	9.432          	10.335
MS.238         	9.412          	10.399
MS.239         	9.395          	10.407
MS.240         	9.375          	10.401
MS.241         	9.358          	10.236
MS.242         	9.337          	10.149
MS.243         	9.32           	10.329
MS.244         	9.3            	10.155
MS.245         	9.283          	10.133
MS.246         	9.265          	10.202
MS.247         	9.245          	10.079
MS.248         	9.227          	10.188
MS.249         	9.207          	9.996
MS.250         	9.19           	10.113
MS.251         	9.172          	10.014
MS.252         	9.153          	9.892
MS.253         	9.135          	10.012
MS.254         	9.117          	9.89
MS.255         	9.1            	10.004
MS.256         	9.08           	9.976
MS.257         	9.062          	9.821
MS.258         	9.045          	9.547
MS.259         	9.028          	9.525
MS.260         	9.007          	9.73
MS.261         	8.99           	9.932
MS.262         	8.972          	9.67
MS.263         	8.955          	9.656
MS.264         	8.938          	9.646
MS.265         	8.917          	9.505
MS.266         	8.9            	9.622
MS.267         	8.882          	9.507
MS.268         	8.865          	9.438
MS.269         	8.847          	9.029
MS.270         	8.83           	9.229
MS.271         	8.812          	9.277
MS.272         	8.795          	9.011
MS.273         	8.778          	8.991
MS.274         	8.76           	8.431
MS.275         	8.742          	9.034
MS.276         	8.725          	8.248
MS.277         	8.707          	7.537
MS.278         	8.69           	8.792
MS.279         	8.672          	7.781
MS.280         	8.655          	7.761
MS.281         	8.637          	7.464
MS.282         	8.62           	7.978
MS.283         	8.602          	6.923
MS.284         	8.585          	7.094
MS.285         	8.57           	6.602
MS.286         	8.552          	7.523
MS.287         	8.535          	7.684
MS.288         	8.517          	7.078
MS.289         	8.5            	7.515
MS.290         	8.483          	6.532
MS.291         	8.467          	6.355
MS.292         	8.45           	6.335
MS.293         	8.432          	6.606
MS.294         	8.415          	6.123
MS.295         	8.4            	5.861
MS.296         	8.382          	5.849
MS.297         	8.365          	5.843
MS.298         	8.35           	5.317
MS.299         	8.332          	5.285
MS.300         	8.315          	5.458
MS.301         	8.3            	5.094
MS.302         	8.283          	5.283
MS.303         	8.265          	5.096
MS.304         	8.25           	5.09
MS.305         	8.233          	4.673
MS.306         	8.217          	5.045
MS.307         	8.2            	4.826
MS.308         	8.182          	4.576
MS.309         	8.167          	4.667
MS.310         	8.15           	4.594
MS.311         	8.135          	4.633
MS.312         	8.117          	5.017
MS.313         	8.102          	4.512
MS.314         	8.085          	4.56
MS.315         	8.07           	4.264
MS.316         	8.055          	4.395
MS.317         	8.037          	4.26
MS.318         	8.023          	4.018
MS.319         	8.005          	3.458
MS.320         	7.99           	3.406
MS.321         	7.972          	4.276
MS.322         	7.957          	3.815
MS.323         	7.942          	2.882
MS.324         	7.925          	3.682
MS.325         	7.91           	3.068
MS.326         	7.895          	3.722
MS.327         	7.878          	3.376
MS.328         	7.862          	2.592
MS.329         	7.847          	2.977
MS.330         	7.832          	3.057
MS.331         	7.815          	2.52
MS.332         	7.8            	2.296
MS.333         	7.785          	2.367
MS.334         	7.77           	2.083
MS.335         	7.753          	2.214
MS.336         	7.737          	2.856
MS.337         	7.722          	2.349
MS.338         	7.707          	2.459
MS.339         	7.692          	1.984
MS.340         	7.677          	1.978
MS.341         	7.66           	1.801
MS.342         	7.645          	1.819
MS.343         	7.63           	1.72
MS.344         	7.615          	1.73
MS.345         	7.6            	1.787
MS.346         	7.585          	2.107
MS.347         	7.57           	1.839
MS.348         	7.555          	1.589
MS.349         	7.54           	1.692
MS.350         	7.525          	1.311
MS.351         	7.51           	1.567
MS.352         	7.495          	1.454
MS.353         	7.48           	1.39
MS.354         	7.465          	1.533
MS.355         	7.45           	1.311
MS.356         	7.435          	1.297
MS.357         	7.42           	1.492
MS.358         	7.405          	1.096
MS.359         	7.39           	1.245
MS.360         	7.375          	1.188
MS.361         	7.36           	1.092
MS.362         	7.345          	0.979
MS.363         	7.33           	0.957
MS.364         	7.317          	1.011
MS.365         	7.302          	0.965
MS.366         	7.287          	0.854
MS.367         	7.273          	0.806
MS.368         	7.257          	0.878
MS.369         	7.245          	0.779
MS.370         	7.23           	0.788
MS.371         	7.215          	0.781
MS.372         	7.2            	0.759
MS.373         	7.185          	0.677
MS.374         	7.172          	0.864
MS.375         	7.157          	0.755
MS.376         	7.142          	0.661
MS.377         	7.13           	0.755
MS.378         	7.115          	0.749
MS.379         	7.1            	0.733
MS.380         	7.085          	0.759
MS.381         	7.072          	0.669
MS.382         	7.057          	0.697
MS.383         	7.045          	0.641
MS.384         	7.03           	0.671
MS.385         	7.015          	0.741
MS.386         	7.003          	0.554
MS.387         	6.987          	0.56
MS.388         	6.972          	0.628
MS.389         	6.96           	0.568
MS.390         	6.945          	0.618
MS.391         	6.932          	0.61
MS.392         	6.918          	0.381
MS.393         	6.905          	0.427
MS.394         	6.89           	0.594
MS.395         	6.878          	0.409
MS.396         	6.862          	0.508
MS.397         	6.85           	0.381
MS.398         	6.835          	0.401
MS.399         	6.822          	0.518
MS.400         	6.807          	0.391
MS.401         	6.795          	0.389
MS.402         	6.78           	0.354
MS.403         	6.767          	0.443
MS.404         	6.755          	0.25
MS.405         	6.74           	0.367
MS.406         	6.727          	0.338
MS.407         	6.712          	0.242
MS.408         	6.7            	0.322
MS.409         	6.688          	0.332
MS.410         	6.672          	0.328
MS.411         	6.66           	0.252
MS.412         	6.648          	0.326
MS.413         	6.632          	0.322
MS.414         	6.62           	0.252
MS.415         	6.608          	0.234
MS.416         	6.595          	0.248
MS.417         	6.58           	0.33
MS.418         	6.567          	0.336
MS.419         	6.555          	0.326
MS.420         	6.543          	0.24
MS.421         	6.527          	0.244
MS.422         	6.515          	0.24
MS.423         	6.503          	0.24
MS.424         	6.49           	0.238
MS.425         	6.477          	0.242
MS.426         	6.462          	0.242
MS.427         	6.45           	0.24
MS.428         	6.438          	0.238
MS.429         	6.425          	0.24
MS.430         	6.412          	0.242
MS.431         	6.4            	0.234
MS.432         	6.385          	0.228
MS.433         	6.372          	0.238
MS.434         	6.36           	0.236
MS.435         	6.347          	0.242
MS.436         	6.335          	0.246
MS.437         	6.322          	0.244
MS.438         	6.31           	0.242
MS.439         	6.297          	0.23
MS.440         	6.285          	0.018
MS.441         	6.273          	0.24
MS.442         	6.26           	0.016
MS.443         	6.247          	0.246
MS.444         	6.235          	0.022
MS.445         	6.222          	0.018
MS.446         	6.21           	0.01
MS.447         	6.197          	0.01
MS.448         	6.185          	0.23
MS.449         	6.172          	0.01
MS.450         	6.16           	0.008
MS.451         	6.148          	0.022
MS.452         	6.135          	0.026
MS.453         	6.122          	0.006
MS.454         	6.112          	0.006
MS.455         	6.1            	0.018
MS.456         	6.088          	0.014
MS.457         	6.075          	0.008
MS.458         	6.062          	0.006
MS.459         	6.05           	0.008
MS.460         	6.037          	0.006
MS.461         	6.027          	0.01
MS.462         	6.015          	0.022
MS.463         	6.003          	0.01
MS.464         	5.99           	0.022
MS.465         	5.977          	0.014
MS.466         	5.967          	0.006
MS.467         	5.955          	0.008
MS.468         	5.942          	0.008
MS.469         	5.93           	0.012
MS.470         	5.92           	0.008
MS.471         	5.907          	0.008
MS.472         	5.895          	0.01
MS.473         	5.882          	0.012
MS.474         	5.872          	0.008
MS.475         	5.86           	0.008
MS.476         	5.847          	0.01
MS.477         	5.838          	0.012
MS.478         	5.825          	0.006
MS.479         	5.812          	0.01
MS.480         	5.802          	0.004
MS.481         	5.79           	0.01
MS.482         	5.777          	0.006
MS.483         	5.767          	0.008
MS.484         	5.755          	0.008
MS.485         	5.745          	0.006
MS.486         	5.733          	0.014
MS.487         	5.72           	0.01
MS.488         	5.71           	0.008
MS.489         	5.697          	0.016
MS.490         	5.688          	0.01
MS.491         	5.675          	0.008
MS.492         	5.665          	0.01
MS.493         	5.652          	0.006
MS.494         	5.642          	0.01
