File:              	C:\Qtrac\Data\Daniel M Sørensen\MScan multicentre study\Data from centres\Oslo\IronKey\Oslo_NC_first examination\SZC00610B.QZD
Name:              	NO.OSL.NC.17.1
Protocol:          	MSCAN-R2
Date:              	10/6/20
Start time:        	16:07:50
Age:               	52
Sex:               	F
Temperature:       	34.6
S/R sites:         	Median Wr-APB
NC/disease:        	NC17
Operator:          	SZ
Comments:          	Test1
M-SCAN DATA (5.3-1m)
Scanpts: 45, 54, 461, 467
Stim. (mA)     	Amp. (mV)
MS.1           	12.5           	9.682
MS.2           	12.5           	9.668
MS.3           	12.5           	9.684
MS.4           	12.5           	9.65
MS.5           	12.5           	9.65
MS.6           	12.5           	9.642
MS.7           	12.5           	9.66
MS.8           	12.5           	9.66
MS.9           	12.5           	9.644
MS.10          	12.5           	9.666
MS.11          	12.5           	9.666
MS.12          	12.5           	9.672
MS.13          	12.5           	9.67
MS.14          	12.5           	9.664
MS.15          	12.5           	9.662
MS.16          	12.5           	9.662
MS.17          	12.5           	9.678
MS.18          	12.5           	9.672
MS.19          	12.5           	9.666
MS.20          	12.5           	9.682
MS.21          	12.5           	9.674
MS.22          	12.5           	9.664
MS.23          	12.5           	9.696
MS.24          	12.45          	9.696
MS.25          	12.425         	9.68
MS.26          	12.4           	9.676
MS.27          	12.375         	9.678
MS.28          	12.35          	9.67
MS.29          	12.325         	9.688
MS.30          	12.302         	9.672
MS.31          	12.278         	9.674
MS.32          	12.252         	9.674
MS.33          	12.227         	9.676
MS.34          	12.202         	9.682
MS.35          	12.18          	9.68
MS.36          	12.155         	9.68
MS.37          	12.13          	9.696
MS.38          	12.108         	9.696
MS.39          	12.082         	9.686
MS.40          	12.057         	9.688
MS.41          	12.035         	9.692
MS.42          	12.01          	9.688
MS.43          	11.985         	9.682
MS.44          	11.962         	9.694
MS.45          	11.938         	9.7
MS.46          	11.915         	9.7
MS.47          	11.89          	9.69
MS.48          	11.867         	9.706
MS.49          	11.842         	9.702
MS.50          	11.82          	9.696
MS.51          	11.795         	9.698
MS.52          	11.773         	9.702
MS.53          	11.747         	9.692
MS.54          	11.725         	9.688
MS.55          	11.702         	9.69
MS.56          	11.677         	9.702
MS.57          	11.655         	9.7
MS.58          	11.632         	9.7
MS.59          	11.608         	9.7
MS.60          	11.585         	9.698
MS.61          	11.562         	9.69
MS.62          	11.54          	9.692
MS.63          	11.515         	9.708
MS.64          	11.492         	9.698
MS.65          	11.47          	9.696
MS.66          	11.447         	9.704
MS.67          	11.425         	9.704
MS.68          	11.403         	9.712
MS.69          	11.377         	9.698
MS.70          	11.355         	9.71
MS.71          	11.332         	9.704
MS.72          	11.31          	9.704
MS.73          	11.287         	9.646
MS.74          	11.265         	9.716
MS.75          	11.242         	9.644
MS.76          	11.22          	9.64
MS.77          	11.197         	9.648
MS.78          	11.175         	9.64
MS.79          	11.153         	9.654
MS.80          	11.13          	9.652
MS.81          	11.108         	9.654
MS.82          	11.087         	9.644
MS.83          	11.065         	9.724
MS.84          	11.042         	9.644
MS.85          	11.02          	9.65
MS.86          	10.997         	9.193
MS.87          	10.975         	9.646
MS.88          	10.955         	9.656
MS.89          	10.932         	9.646
MS.90          	10.91          	9.648
MS.91          	10.887         	9.183
MS.92          	10.867         	9.195
MS.93          	10.845         	9.183
MS.94          	10.823         	9.191
MS.95          	10.802         	9.181
MS.96          	10.78          	9.193
MS.97          	10.76          	9.195
MS.98          	10.738         	9.658
MS.99          	10.715         	9.172
MS.100         	10.695         	9.187
MS.101         	10.672         	9.195
MS.102         	10.653         	9.179
MS.103         	10.63          	9.193
MS.104         	10.61          	9.197
MS.105         	10.587         	9.172
MS.106         	10.568         	9.189
MS.107         	10.545         	9.189
MS.108         	10.525         	9.168
MS.109         	10.502         	9.183
MS.110         	10.483         	9.189
MS.111         	10.462         	9.183
MS.112         	10.44          	9.187
MS.113         	10.42          	9.181
MS.114         	10.4           	9.195
MS.115         	10.377         	9.189
MS.116         	10.358         	9.177
MS.117         	10.337         	9.195
MS.118         	10.318         	9.189
MS.119         	10.295         	9.189
MS.120         	10.275         	9.185
MS.121         	10.255         	9.191
MS.122         	10.235         	9.191
MS.123         	10.212         	9.185
MS.124         	10.193         	9.199
MS.125         	10.172         	9.183
MS.126         	10.153         	9.187
MS.127         	10.132         	9.195
MS.128         	10.113         	9.195
MS.129         	10.092         	9.207
MS.130         	10.073         	9.205
MS.131         	10.052         	9.203
MS.132         	10.032         	9.205
MS.133         	10.012         	9.213
MS.134         	9.992          	9.207
MS.135         	9.972          	9.207
MS.136         	9.952          	9.219
MS.137         	9.932          	9.195
MS.138         	9.912          	9.193
MS.139         	9.892          	9.189
MS.140         	9.872          	9.205
MS.141         	9.852          	9.209
MS.142         	9.832          	9.205
MS.143         	9.812          	8.929
MS.144         	9.792          	9.211
MS.145         	9.775          	9.215
MS.146         	9.755          	9.195
MS.147         	9.735          	8.935
MS.148         	9.715          	9.219
MS.149         	9.695          	8.937
MS.150         	9.677          	8.933
MS.151         	9.657          	9.233
MS.152         	9.637          	8.921
MS.153         	9.62           	9.209
MS.154         	9.6            	8.921
MS.155         	9.58           	8.933
MS.156         	9.562          	8.927
MS.157         	9.542          	8.895
MS.158         	9.523          	8.941
MS.159         	9.505          	8.929
MS.160         	9.485          	8.852
MS.161         	9.465          	8.425
MS.162         	9.448          	8.212
MS.163         	9.427          	8.461
MS.164         	9.41           	8.202
MS.165         	9.39           	8.218
MS.166         	9.372          	8.405
MS.167         	9.352          	8.228
MS.168         	9.335          	8.222
MS.169         	9.315          	8.24
MS.170         	9.297          	8.218
MS.171         	9.278          	8.216
MS.172         	9.26           	8.226
MS.173         	9.242          	8.238
MS.174         	9.222          	8.2
MS.175         	9.205          	8.184
MS.176         	9.188          	8.232
MS.177         	9.167          	8.202
MS.178         	9.15           	8.202
MS.179         	9.132          	8.226
MS.180         	9.113          	8.188
MS.181         	9.095          	8.196
MS.182         	9.077          	8.202
MS.183         	9.057          	8.232
MS.184         	9.04           	8.143
MS.185         	9.023          	8.184
MS.186         	9.005          	8.2
MS.187         	8.988          	8.169
MS.188         	8.967          	8.155
MS.189         	8.95           	8.194
MS.190         	8.932          	8.18
MS.191         	8.915          	8.117
MS.192         	8.898          	8.135
MS.193         	8.88           	8.155
MS.194         	8.863          	8.147
MS.195         	8.845          	8.139
MS.196         	8.825          	8.167
MS.197         	8.807          	8.127
MS.198         	8.79           	8.135
MS.199         	8.773          	8.137
MS.200         	8.755          	8.133
MS.201         	8.738          	8.121
MS.202         	8.72           	8.111
MS.203         	8.702          	8.131
MS.204         	8.685          	8.145
MS.205         	8.67           	8.107
MS.206         	8.653          	8.107
MS.207         	8.635          	8.103
MS.208         	8.617          	8.111
MS.209         	8.6            	8.111
MS.210         	8.582          	8.071
MS.211         	8.565          	8.077
MS.212         	8.547          	8.115
MS.213         	8.53           	8.069
MS.214         	8.515          	8.091
MS.215         	8.497          	8.045
MS.216         	8.48           	7.652
MS.217         	8.462          	8.069
MS.218         	8.448          	7.684
MS.219         	8.43           	8.032
MS.220         	8.412          	7.646
MS.221         	8.395          	8.022
MS.222         	8.38           	7.986
MS.223         	8.363          	7.652
MS.224         	8.345          	7.549
MS.225         	8.33           	7.332
MS.226         	8.312          	7.315
MS.227         	8.295          	7.575
MS.228         	8.28           	7.106
MS.229         	8.262          	7.174
MS.230         	8.245          	7.15
MS.231         	8.23           	7.086
MS.232         	8.212          	7.408
MS.233         	8.198          	7.11
MS.234         	8.18           	6.939
MS.235         	8.165          	7.33
MS.236         	8.148          	6.953
MS.237         	8.132          	6.981
MS.238         	8.115          	6.892
MS.239         	8.1            	6.836
MS.240         	8.082          	6.945
MS.241         	8.068          	6.999
MS.242         	8.05           	6.935
MS.243         	8.035          	6.562
MS.244         	8.017          	6.548
MS.245         	8.002          	6.457
MS.246         	7.987          	6.743
MS.247         	7.97           	6.639
MS.248         	7.955          	6.755
MS.249         	7.938          	6.514
MS.250         	7.922          	6.554
MS.251         	7.907          	6.484
MS.252         	7.89           	6.536
MS.253         	7.875          	6.326
MS.254         	7.86           	6.173
MS.255         	7.845          	6.562
MS.256         	7.827          	6.079
MS.257         	7.812          	6.413
MS.258         	7.797          	5.912
MS.259         	7.782          	5.93
MS.260         	7.765          	6.057
MS.261         	7.75           	5.71
MS.262         	7.735          	6.093
MS.263         	7.72           	5.746
MS.264         	7.705          	5.813
MS.265         	7.688          	5.668
MS.266         	7.672          	5.448
MS.267         	7.657          	5.567
MS.268         	7.642          	5.479
MS.269         	7.628          	5.215
MS.270         	7.612          	5.124
MS.271         	7.597          	5.132
MS.272         	7.582          	4.9
MS.273         	7.567          	4.427
MS.274         	7.552          	4.983
MS.275         	7.535          	4.479
MS.276         	7.52           	4.516
MS.277         	7.505          	4.075
MS.278         	7.49           	4.206
MS.279         	7.475          	4.552
MS.280         	7.462          	3.656
MS.281         	7.447          	3.877
MS.282         	7.432          	4.159
MS.283         	7.418          	3.45
MS.284         	7.402          	3.489
MS.285         	7.387          	3.664
MS.286         	7.372          	4.103
MS.287         	7.357          	3.503
MS.288         	7.342          	3.257
MS.289         	7.327          	3.049
MS.290         	7.312          	2.848
MS.291         	7.3            	3.176
MS.292         	7.285          	2.917
MS.293         	7.27           	2.858
MS.294         	7.255          	3.235
MS.295         	7.24           	2.886
MS.296         	7.227          	3.144
MS.297         	7.212          	2.989
MS.298         	7.197          	2.806
MS.299         	7.182          	2.695
MS.300         	7.168          	2.405
MS.301         	7.155          	2.461
MS.302         	7.14           	2.177
MS.303         	7.125          	2.163
MS.304         	7.112          	2.155
MS.305         	7.097          	1.913
MS.306         	7.082          	2.149
MS.307         	7.07           	1.825
MS.308         	7.055          	2.151
MS.309         	7.04           	1.97
MS.310         	7.027          	1.948
MS.311         	7.012          	1.913
MS.312         	6.997          	1.75
MS.313         	6.985          	1.7
MS.314         	6.97           	1.875
MS.315         	6.957          	1.462
MS.316         	6.942          	1.577
MS.317         	6.93           	1.579
MS.318         	6.915          	1.704
MS.319         	6.902          	1.297
MS.320         	6.887          	1.315
MS.321         	6.875          	1.402
MS.322         	6.86           	1.249
MS.323         	6.847          	1.382
MS.324         	6.832          	1.291
MS.325         	6.82           	1.037
MS.326         	6.805          	0.979
MS.327         	6.793          	1.029
MS.328         	6.777          	1.164
MS.329         	6.765          	1.124
MS.330         	6.75           	1.152
MS.331         	6.737          	1.001
MS.332         	6.725          	0.9
MS.333         	6.71           	0.773
MS.334         	6.697          	1.152
MS.335         	6.685          	0.985
MS.336         	6.67           	0.763
MS.337         	6.657          	0.844
MS.338         	6.645          	0.872
MS.339         	6.63           	0.699
MS.340         	6.617          	0.697
MS.341         	6.605          	0.733
MS.342         	6.59           	0.685
MS.343         	6.577          	0.622
MS.344         	6.565          	0.638
MS.345         	6.552          	0.508
MS.346         	6.537          	0.58
MS.347         	6.525          	0.423
MS.348         	6.512          	0.427
MS.349         	6.5            	0.495
MS.350         	6.487          	0.516
MS.351         	6.472          	0.548
MS.352         	6.46           	0.334
MS.353         	6.447          	0.449
MS.354         	6.435          	0.443
MS.355         	6.422          	0.421
MS.356         	6.41           	0.344
MS.357         	6.398          	0.419
MS.358         	6.382          	0.284
MS.359         	6.37           	0.22
MS.360         	6.358          	0.354
MS.361         	6.345          	0.218
MS.362         	6.332          	0.242
MS.363         	6.32           	0.266
MS.364         	6.307          	0.27
MS.365         	6.295          	0.266
MS.366         	6.282          	0.25
MS.367         	6.27           	0.197
MS.368         	6.257          	0.232
MS.369         	6.245          	0.266
MS.370         	6.233          	0.179
MS.371         	6.22           	0.214
MS.372         	6.207          	0.187
MS.373         	6.195          	0.177
MS.374         	6.182          	0.179
MS.375         	6.17           	0.165
MS.376         	6.157          	0.195
MS.377         	6.145          	0.193
MS.378         	6.132          	0.161
MS.379         	6.12           	0.165
MS.380         	6.11           	0.137
MS.381         	6.097          	0.197
MS.382         	6.085          	0.163
MS.383         	6.072          	0.165
MS.384         	6.06           	0.169
MS.385         	6.047          	0.103
MS.386         	6.035          	0.107
MS.387         	6.025          	0.107
MS.388         	6.012          	0.109
MS.389         	6              	0.161
MS.390         	5.987          	0.103
MS.391         	5.975          	0.101
MS.392         	5.965          	0.099
MS.393         	5.952          	0.101
MS.394         	5.94           	0.141
MS.395         	5.927          	0.103
MS.396         	5.918          	0.139
MS.397         	5.905          	0.089
MS.398         	5.892          	0.085
MS.399         	5.88           	0.103
MS.400         	5.87           	0.101
MS.401         	5.858          	0.087
MS.402         	5.845          	0.087
MS.403         	5.835          	0.105
MS.404         	5.822          	0.103
MS.405         	5.81           	0.101
MS.406         	5.8            	0.105
MS.407         	5.787          	0.087
MS.408         	5.775          	0.089
MS.409         	5.765          	0.089
MS.410         	5.753          	0.087
MS.411         	5.742          	0.105
MS.412         	5.73           	0.101
MS.413         	5.717          	0.056
MS.414         	5.707          	0.089
MS.415         	5.695          	0.089
MS.416         	5.685          	0.089
MS.417         	5.672          	0.06
MS.418         	5.662          	0.056
MS.419         	5.65           	0.058
MS.420         	5.64           	0.089
MS.421         	5.628          	0.091
MS.422         	5.617          	0.058
MS.423         	5.605          	0.058
MS.424         	5.595          	0.058
MS.425         	5.582          	0.056
MS.426         	5.572          	0.091
MS.427         	5.56           	0.06
MS.428         	5.55           	0.062
MS.429         	5.537          	0.058
MS.430         	5.527          	0.06
MS.431         	5.517          	0.06
MS.432         	5.505          	0.018
MS.433         	5.495          	0.058
MS.434         	5.483          	0.056
MS.435         	5.472          	0.058
MS.436         	5.463          	0.056
MS.437         	5.45           	0.056
MS.438         	5.44           	0.058
MS.439         	5.43           	0.058
MS.440         	5.418          	0.056
MS.441         	5.407          	0.02
MS.442         	5.398          	0.022
MS.443         	5.385          	0.058
MS.444         	5.375          	0.06
MS.445         	5.365          	0.052
MS.446         	5.352          	0.022
MS.447         	5.342          	0.058
MS.448         	5.332          	0.056
MS.449         	5.322          	0.054
MS.450         	5.31           	0.056
MS.451         	5.3            	0.018
MS.452         	5.29           	0.058
MS.453         	5.28           	0.016
MS.454         	5.267          	0.02
MS.455         	5.257          	0.018
MS.456         	5.247          	0.016
MS.457         	5.237          	0.02
MS.458         	5.227          	0.016
MS.459         	5.215          	0.02
MS.460         	5.205          	0.02
MS.461         	5.195          	0.018
MS.462         	5.185          	0.02
MS.463         	5.175          	0.02
MS.464         	5.165          	0.014
MS.465         	5.155          	0.016
MS.466         	5.142          	0.014
MS.467         	5.132          	0.02
MS.468         	5.122          	0.016
MS.469         	5.112          	0.018
MS.470         	5.102          	0.018
MS.471         	5.092          	0.02
DERIVED EXCITABILITY VARIABLES
Program = QTracP 3/4/2020
Threshold method = 6 (optimised for CAP, using data for present condition only)
SR method = 1 (using actual data values)
6.                 	0.000               	Peak response\(mV)
9.                 	34.6                	Temperature ( C)
17.                	52                  	Age (years)
18.                	2                   	Sex (M=1, F=2)

EXTRA VARIABLES

MScPeak(mV) = 9.64
MScS5(mA) = 6.5
MScS50(mA) = 7.56
MScS95(mA) = 9.71
MScNSteps = 7
MScSteps(%) = 20.5
MScStepMax(%) = 4.2
MScD50 = 25
MScSlope = 7.23
MSFPeakAmp(mV) = 9.68
MSFNUnits = 87
MSFMeanUnitAmp(uV) = 111.3
MSFHuntTime(m) = 2.18
MSFError(%) = 6.36
MSFNLarge = 27.89
MSFMedianAmp(%) = 1.12
MSFMedianAmp(mV) = 0.108
MSFHalfAmpAmp(%) = 1.36
MSFHalfAmpAmp(mV) = 0.132
MSFLargestAmp(%) = 5.39
MSFLargestAmp(mV) = 0.522
MSFMeanRS(%) = 1.99
MSFOpts = 10106121
MScDuration(min) = 4.3
MSFTraces = 423
MSFSizeLimit(uV) = 24.2
MSFLimitType = 1
MSFSmallestAmp(uV) = 32.1

EXTRA WAVEFORMS


!MScan Model
!87
	1	5.36	0.5	2
	2	5.93	0.51	2
	3	6.11	0.51	2
	4	6.18	0.33	2
	5	6.25	0.42	2
