File:              	C:\Qtrac\Data\Daniel M Sørensen\MScan multicentre study\Data from centres\Oslo\IronKey\Oslo_NC_first examination\SZC00611A.QZD
Name:              	NO.OSL.NC.18.1
Protocol:          	MSCAN-R2
Date:              	11/6/20
Start time:        	17:07:57
Age:               	32
Sex:               	F
Temperature:       	30.8
S/R sites:         	Median Wr-APB
NC/disease:        	NC18
Operator:          	SZ
Comments:          	Test1
M-SCAN DATA (8.2-2.8m)
Scanpts: 198, 201, 562, 584
Stim. (mA)     	Amp. (mV)
MS.1           	14.5           	10.085
MS.2           	14.5           	10.065
MS.3           	14.5           	10.077
MS.4           	14.5           	10.075
MS.5           	14.5           	10.061
MS.6           	14.5           	10.077
MS.7           	14.5           	10.069
MS.8           	14.5           	10.121
MS.9           	14.5           	10.085
MS.10          	14.5           	10.099
MS.11          	14.5           	10.129
MS.12          	14.5           	10.139
MS.13          	14.5           	10.109
MS.14          	14.5           	10.121
MS.15          	14.5           	10.109
MS.16          	14.5           	10.131
MS.17          	14.5           	10.123
MS.18          	14.5           	10.109
MS.19          	14.5           	10.129
MS.20          	14.5           	10.127
MS.21          	14.5           	10.131
MS.22          	14.5           	10.115
MS.23          	14.5           	10.133
MS.24          	14.443         	10.113
MS.25          	14.412         	10.097
MS.26          	14.385         	10.115
MS.27          	14.355         	10.133
MS.28          	14.327         	10.121
MS.29          	14.297         	10.115
MS.30          	14.27          	10.131
MS.31          	14.242         	10.137
MS.32          	14.212         	10.129
MS.33          	14.185         	10.135
MS.34          	14.155         	10.127
MS.35          	14.127         	10.129
MS.36          	14.1           	10.121
MS.37          	14.072         	10.127
MS.38          	14.042         	10.143
MS.39          	14.015         	10.123
MS.40          	13.987         	10.131
MS.41          	13.96          	10.137
MS.42          	13.932         	10.135
MS.43          	13.903         	10.145
MS.44          	13.875         	10.147
MS.45          	13.847         	10.139
MS.46          	13.82          	10.147
MS.47          	13.792         	10.131
MS.48          	13.765         	10.139
MS.49          	13.737         	10.131
MS.50          	13.71          	10.125
MS.51          	13.682         	10.123
MS.52          	13.655         	10.149
MS.53          	13.627         	10.147
MS.54          	13.6           	10.147
MS.55          	13.575         	10.147
MS.56          	13.547         	10.139
MS.57          	13.52          	10.145
MS.58          	13.492         	10.141
MS.59          	13.465         	10.147
MS.60          	13.44          	10.135
MS.61          	13.412         	10.157
MS.62          	13.385         	10.145
MS.63          	13.358         	10.153
MS.64          	13.332         	10.161
MS.65          	13.305         	10.157
MS.66          	13.278         	10.151
MS.67          	13.252         	10.165
MS.68          	13.225         	10.157
MS.69          	13.2           	10.159
MS.70          	13.172         	10.131
MS.71          	13.148         	10.141
MS.72          	13.12          	10.145
MS.73          	13.095         	10.139
MS.74          	13.068         	10.161
MS.75          	13.042         	10.155
MS.76          	13.015         	10.174
MS.77          	12.99          	10.178
MS.78          	12.962         	10.163
MS.79          	12.938         	10.172
MS.80          	12.912         	10.176
MS.81          	12.885         	10.165
MS.82          	12.86          	10.161
MS.83          	12.835         	10.147
MS.84          	12.81          	10.145
MS.85          	12.782         	10.169
MS.86          	12.757         	10.149
MS.87          	12.733         	10.172
MS.88          	12.707         	10.155
MS.89          	12.682         	10.145
MS.90          	12.655         	10.161
MS.91          	12.63          	10.167
MS.92          	12.605         	10.18
MS.93          	12.58          	10.167
MS.94          	12.555         	10.188
MS.95          	12.53          	10.155
MS.96          	12.505         	10.157
MS.97          	12.48          	10.163
MS.98          	12.455         	10.159
MS.99          	12.43          	10.153
MS.100         	12.405         	10.143
MS.101         	12.38          	10.167
MS.102         	12.355         	10.141
MS.103         	12.332         	10.176
MS.104         	12.307         	10.176
MS.105         	12.282         	10.155
MS.106         	12.257         	10.143
MS.107         	12.233         	10.167
MS.108         	12.207         	10.155
MS.109         	12.185         	10.151
MS.110         	12.16          	10.176
MS.111         	12.135         	10.159
MS.112         	12.113         	10.174
MS.113         	12.087         	10.178
MS.114         	12.062         	10.161
MS.115         	12.04          	10.153
MS.116         	12.015         	10.172
MS.117         	11.99          	10.167
MS.118         	11.967         	10.176
MS.119         	11.943         	10.163
MS.120         	11.92          	10.163
MS.121         	11.895         	10.161
MS.122         	11.872         	10.165
MS.123         	11.847         	10.167
MS.124         	11.825         	10.169
MS.125         	11.8           	10.165
MS.126         	11.778         	10.18
MS.127         	11.752         	10.18
MS.128         	11.73          	10.176
MS.129         	11.707         	10.186
MS.130         	11.682         	10.188
MS.131         	11.66          	10.169
MS.132         	11.637         	10.182
MS.133         	11.613         	10.186
MS.134         	11.59          	10.184
MS.135         	11.568         	10.188
MS.136         	11.545         	10.19
MS.137         	11.52          	10.178
MS.138         	11.497         	10.176
MS.139         	11.475         	10.165
MS.140         	11.452         	10.178
MS.141         	11.43          	10.186
MS.142         	11.405         	10.161
MS.143         	11.382         	10.174
MS.144         	11.36          	10.178
MS.145         	11.337         	10.182
MS.146         	11.315         	10.18
MS.147         	11.292         	10.178
MS.148         	11.27          	10.18
MS.149         	11.247         	10.196
MS.150         	11.225         	10.198
MS.151         	11.202         	10.176
MS.152         	11.18          	10.192
MS.153         	11.157         	10.186
MS.154         	11.135         	10.167
MS.155         	11.113         	10.19
MS.156         	11.09          	10.178
MS.157         	11.07          	10.2
MS.158         	11.047         	10.184
MS.159         	11.025         	10.169
MS.160         	11.002         	10.184
MS.161         	10.98          	10.198
MS.162         	10.96          	10.19
MS.163         	10.938         	10.161
MS.164         	10.915         	10.161
MS.165         	10.892         	10.194
MS.166         	10.872         	10.18
MS.167         	10.85          	10.194
MS.168         	10.827         	10.196
MS.169         	10.807         	10.188
MS.170         	10.785         	10.192
MS.171         	10.762         	10.188
MS.172         	10.742         	10.188
MS.173         	10.72          	10.184
MS.174         	10.7           	10.188
MS.175         	10.677         	10.196
MS.176         	10.655         	10.188
MS.177         	10.635         	10.204
MS.178         	10.613         	10.2
MS.179         	10.592         	10.192
MS.180         	10.573         	10.198
MS.181         	10.55          	10.186
MS.182         	10.53          	10.2
MS.183         	10.507         	10.21
MS.184         	10.488         	10.198
MS.185         	10.465         	10.2
MS.186         	10.445         	10.206
MS.187         	10.425         	10.194
MS.188         	10.403         	10.2
MS.189         	10.382         	10.2
MS.190         	10.363         	10.19
MS.191         	10.342         	10.198
MS.192         	10.32          	10.186
MS.193         	10.3           	10.19
MS.194         	10.28          	10.172
MS.195         	10.26          	10.19
MS.196         	10.238         	10.188
MS.197         	10.217         	10.192
MS.198         	10.198         	10.18
MS.199         	10.177         	10.182
MS.200         	10.157         	10.184
MS.201         	10.137         	10.167
MS.202         	10.117         	10.182
MS.203         	10.095         	10.18
MS.204         	10.075         	10.172
MS.205         	10.055         	10.178
MS.206         	10.035         	10.19
MS.207         	10.015         	10.184
MS.208         	9.995          	10.182
MS.209         	9.975          	10.174
MS.210         	9.955          	10.194
MS.211         	9.935          	10.198
MS.212         	9.915          	10.196
MS.213         	9.895          	10.165
MS.214         	9.877          	10.18
MS.215         	9.858          	10.186
MS.216         	9.837          	10.184
MS.217         	9.818          	10.18
MS.218         	9.797          	10.18
MS.219         	9.778          	10.206
MS.220         	9.757          	10.202
MS.221         	9.74           	10.188
MS.222         	9.72           	10.184
MS.223         	9.7            	10.186
MS.224         	9.68           	10.182
MS.225         	9.662          	10.174
MS.226         	9.642          	10.188
MS.227         	9.622          	10.186
MS.228         	9.602          	10.182
MS.229         	9.585          	10.182
MS.230         	9.565          	10.19
MS.231         	9.545          	9.918
MS.232         	9.528          	10.174
MS.233         	9.507          	10.172
MS.234         	9.49           	9.912
MS.235         	9.47           	9.908
MS.236         	9.45           	9.916
MS.237         	9.432          	10.19
MS.238         	9.412          	9.908
MS.239         	9.395          	9.861
MS.240         	9.375          	10.184
MS.241         	9.358          	10.153
MS.242         	9.337          	10.188
MS.243         	9.32           	9.894
MS.244         	9.3            	9.904
MS.245         	9.283          	9.883
MS.246         	9.265          	9.67
MS.247         	9.245          	9.888
MS.248         	9.227          	9.92
MS.249         	9.207          	9.69
MS.250         	9.19           	10.149
MS.251         	9.172          	9.902
MS.252         	9.153          	9.928
MS.253         	9.135          	9.73
MS.254         	9.117          	9.9
MS.255         	9.1            	9.69
MS.256         	9.08           	9.883
MS.257         	9.062          	9.684
MS.258         	9.045          	9.71
MS.259         	9.028          	9.66
MS.260         	9.007          	9.67
MS.261         	8.99           	9.654
MS.262         	8.972          	9.674
MS.263         	8.955          	9.682
MS.264         	8.938          	9.67
MS.265         	8.917          	9.672
MS.266         	8.9            	9.646
MS.267         	8.882          	9.676
MS.268         	8.865          	9.658
MS.269         	8.847          	9.674
MS.270         	8.83           	9.67
MS.271         	8.812          	9.686
MS.272         	8.795          	9.678
MS.273         	8.778          	9.688
MS.274         	8.76           	9.684
MS.275         	8.742          	9.686
MS.276         	8.725          	9.652
MS.277         	8.707          	9.686
MS.278         	8.69           	9.676
MS.279         	8.672          	9.698
MS.280         	8.655          	9.698
MS.281         	8.637          	9.698
MS.282         	8.62           	9.666
MS.283         	8.602          	9.63
MS.284         	8.585          	9.692
MS.285         	8.57           	9.591
MS.286         	8.552          	9.088
MS.287         	8.535          	9.63
MS.288         	8.517          	9.632
MS.289         	8.5            	9.118
MS.290         	8.483          	9.67
MS.291         	8.467          	9.622
MS.292         	8.45           	8.989
MS.293         	8.432          	9.674
MS.294         	8.415          	9.036
MS.295         	8.4            	9.547
MS.296         	8.382          	8.544
MS.297         	8.365          	9.001
MS.298         	8.35           	8.989
MS.299         	8.332          	9.001
MS.300         	8.315          	9.031
MS.301         	8.3            	9.019
MS.302         	8.283          	9.102
MS.303         	8.265          	8.554
MS.304         	8.25           	8.868
MS.305         	8.233          	9.023
MS.306         	8.217          	9.003
MS.307         	8.2            	8.474
MS.308         	8.182          	8.484
MS.309         	8.167          	8.566
MS.310         	8.15           	8.943
MS.311         	8.135          	8.79
MS.312         	8.117          	8.337
MS.313         	8.102          	8.212
MS.314         	8.085          	8.063
MS.315         	8.07           	8.77
MS.316         	8.055          	8.192
MS.317         	8.037          	8.3
MS.318         	8.023          	8.111
MS.319         	8.005          	8.073
MS.320         	7.99           	8.206
MS.321         	7.972          	8.188
MS.322         	7.957          	8.063
MS.323         	7.942          	7.982
MS.324         	7.925          	8.147
MS.325         	7.91           	8.034
MS.326         	7.895          	8.194
MS.327         	7.878          	8.002
MS.328         	7.862          	7.763
MS.329         	7.847          	7.887
MS.330         	7.832          	8.008
MS.331         	7.815          	8.026
MS.332         	7.8            	7.871
MS.333         	7.785          	7.956
MS.334         	7.77           	7.883
MS.335         	7.753          	7.883
MS.336         	7.737          	7.944
MS.337         	7.722          	7.73
MS.338         	7.707          	7.898
MS.339         	7.692          	7.589
MS.340         	7.677          	7.744
MS.341         	7.66           	7.777
MS.342         	7.645          	7.678
MS.343         	7.63           	7.628
MS.344         	7.615          	7.628
MS.345         	7.6            	7.487
MS.346         	7.585          	7.211
MS.347         	7.57           	7.662
MS.348         	7.555          	7.763
MS.349         	7.54           	7.098
MS.350         	7.525          	7.352
MS.351         	7.51           	7.307
MS.352         	7.495          	7.392
MS.353         	7.48           	6.868
MS.354         	7.465          	7.094
MS.355         	7.45           	7.434
MS.356         	7.435          	6.794
MS.357         	7.42           	6.88
MS.358         	7.405          	6.88
MS.359         	7.39           	6.788
MS.360         	7.375          	6.937
MS.361         	7.36           	6.896
MS.362         	7.345          	6.876
MS.363         	7.33           	6.578
MS.364         	7.317          	6.496
MS.365         	7.302          	6.459
MS.366         	7.287          	6.625
MS.367         	7.273          	6.528
MS.368         	7.257          	6.304
MS.369         	7.245          	6.453
MS.370         	7.23           	6.337
MS.371         	7.215          	6.755
MS.372         	7.2            	6.526
MS.373         	7.185          	6.073
MS.374         	7.172          	6.232
MS.375         	7.157          	6.24
MS.376         	7.142          	6.502
MS.377         	7.13           	6.244
MS.378         	7.115          	6.29
MS.379         	7.1            	5.976
MS.380         	7.085          	6.2
MS.381         	7.072          	6.141
MS.382         	7.057          	6.163
MS.383         	7.045          	5.954
MS.384         	7.03           	5.829
MS.385         	7.015          	6.081
MS.386         	7.003          	6.135
MS.387         	6.987          	5.642
MS.388         	6.972          	5.515
MS.389         	6.96           	5.795
MS.390         	6.945          	5.851
MS.391         	6.932          	5.096
MS.392         	6.918          	4.991
MS.393         	6.905          	4.858
MS.394         	6.89           	5.404
MS.395         	6.878          	5.315
MS.396         	6.862          	5.567
MS.397         	6.85           	4.955
MS.398         	6.835          	4.933
MS.399         	6.822          	5.205
MS.400         	6.807          	4.778
MS.401         	6.795          	5.062
MS.402         	6.78           	4.667
MS.403         	6.767          	4.81
MS.404         	6.755          	4.933
MS.405         	6.74           	4.808
MS.406         	6.727          	4.62
MS.407         	6.712          	4.522
MS.408         	6.7            	4.625
MS.409         	6.688          	4.625
MS.410         	6.672          	4.139
MS.411         	6.66           	4.622
MS.412         	6.648          	4.427
MS.413         	6.632          	4.564
MS.414         	6.62           	4.385
MS.415         	6.608          	3.944
MS.416         	6.595          	4.059
MS.417         	6.58           	4.032
MS.418         	6.567          	4.23
MS.419         	6.555          	4.185
MS.420         	6.543          	3.567
MS.421         	6.527          	3.871
MS.422         	6.515          	4.073
MS.423         	6.503          	4.002
MS.424         	6.49           	3.555
MS.425         	6.477          	3.789
MS.426         	6.462          	3.051
MS.427         	6.45           	3.344
MS.428         	6.438          	3.577
MS.429         	6.425          	3.625
MS.430         	6.412          	3.154
MS.431         	6.4            	3.474
MS.432         	6.385          	3.329
MS.433         	6.372          	2.844
MS.434         	6.36           	3.188
MS.435         	6.347          	2.878
MS.436         	6.335          	2.763
MS.437         	6.322          	2.953
MS.438         	6.31           	3.09
MS.439         	6.297          	2.989
MS.440         	6.285          	2.725
MS.441         	6.273          	2.917
MS.442         	6.26           	2.784
MS.443         	6.247          	2.379
MS.444         	6.235          	2.085
MS.445         	6.222          	2.286
MS.446         	6.21           	2.29
MS.447         	6.197          	2.389
MS.448         	6.185          	2.179
MS.449         	6.172          	1.728
MS.450         	6.16           	2.016
MS.451         	6.148          	1.833
MS.452         	6.135          	2.089
MS.453         	6.122          	1.93
MS.454         	6.112          	2.121
MS.455         	6.1            	1.748
MS.456         	6.088          	1.847
MS.457         	6.075          	1.785
MS.458         	6.062          	1.698
MS.459         	6.05           	1.609
MS.460         	6.037          	1.569
MS.461         	6.027          	1.509
MS.462         	6.015          	1.613
MS.463         	6.003          	1.64
MS.464         	5.99           	1.233
MS.465         	5.977          	1.505
MS.466         	5.967          	1.38
MS.467         	5.955          	1.416
MS.468         	5.942          	1.275
MS.469         	5.93           	1.374
MS.470         	5.92           	1.343
MS.471         	5.907          	1.239
MS.472         	5.895          	1.239
MS.473         	5.882          	1.221
MS.474         	5.872          	1.366
MS.475         	5.86           	1.186
MS.476         	5.847          	1.039
MS.477         	5.838          	1.027
MS.478         	5.825          	1.253
MS.479         	5.812          	1.2
MS.480         	5.802          	0.804
MS.481         	5.79           	1.037
MS.482         	5.777          	0.753
MS.483         	5.767          	1.08
MS.484         	5.755          	0.779
MS.485         	5.745          	1.047
MS.486         	5.733          	0.733
MS.487         	5.72           	0.804
MS.488         	5.71           	0.661
MS.489         	5.697          	0.655
MS.490         	5.688          	0.695
MS.491         	5.675          	0.761
MS.492         	5.665          	0.951
MS.493         	5.652          	0.661
MS.494         	5.642          	0.669
