File:              	C:\Qtrac\Data\Daniel M Sørensen\MScan multicentre study\Data from centres\Oslo\Processed data\SZC00520B.QZD
Name:              	NO.OSL.NC.9.2
Protocol:          	MSCAN-R2
Date:              	20/5/20
Start time:        	17:23:22
Age:               	20
Sex:               	F
Temperature:       	33.0
S/R sites:         	APB
NC/disease:        	NC9
Operator:          	SZ
Comments:          	Test2
M-SCAN DATA (4-0.9m)
Scanpts: 15, 21, 298, 308
Stim. (mA)     	Amp. (mV)
MS.1           	15.5           	10.729
MS.2           	15.5           	10.764
MS.3           	15.5           	10.786
MS.4           	15.5           	10.764
MS.5           	15.5           	10.717
MS.6           	15.5           	10.804
MS.7           	15.5           	10.802
MS.8           	15.5           	10.832
MS.9           	15.5           	10.856
MS.10          	15.5           	10.852
MS.11          	15.5           	10.876
MS.12          	15.5           	10.925
MS.13          	15.5           	10.903
MS.14          	15.5           	10.838
MS.15          	15.5           	10.814
MS.16          	15.5           	10.86
MS.17          	15.5           	10.887
MS.18          	15.5           	10.878
MS.19          	15.5           	10.889
MS.20          	15.5           	10.903
MS.21          	15.5           	10.911
MS.22          	15.5           	10.913
MS.23          	15.5           	10.949
MS.24          	15.407         	10.965
MS.25          	15.377         	10.868
MS.26          	15.345         	10.951
MS.27          	15.315         	10.969
MS.28          	15.285         	10.599
MS.29          	15.255         	10.921
MS.30          	15.222         	10.705
MS.31          	15.193         	10.691
MS.32          	15.162         	10.613
MS.33          	15.132         	10.889
MS.34          	15.102         	10.588
MS.35          	15.072         	10.613
MS.36          	15.042         	10.643
MS.37          	15.012         	10.552
MS.38          	14.983         	10.508
MS.39          	14.952         	10.441
MS.40          	14.922         	10.528
MS.41          	14.892         	10.5
MS.42          	14.862         	10.478
MS.43          	14.832         	10.576
MS.44          	14.802         	10.456
MS.45          	14.773         	10.447
MS.46          	14.745         	10.449
MS.47          	14.715         	10.466
MS.48          	14.685         	10.492
MS.49          	14.655         	10.431
MS.50          	14.627         	10.439
MS.51          	14.597         	10.433
MS.52          	14.568         	10.415
MS.53          	14.54          	10.453
MS.54          	14.51          	10.415
MS.55          	14.48          	10.462
MS.56          	14.452         	10.379
MS.57          	14.422         	9.986
MS.58          	14.395         	10.472
MS.59          	14.365         	9.96
MS.60          	14.337         	10.476
MS.61          	14.307         	10.451
MS.62          	14.28          	9.976
MS.63          	14.25          	9.89
MS.64          	14.222         	9.948
MS.65          	14.195         	9.753
MS.66          	14.165         	9.964
MS.67          	14.137         	9.859
MS.68          	14.11          	9.888
MS.69          	14.08          	9.867
MS.70          	14.052         	9.857
MS.71          	14.025         	9.801
MS.72          	13.997         	9.829
MS.73          	13.97          	9.855
MS.74          	13.94          	9.845
MS.75          	13.912         	9.738
MS.76          	13.885         	9.821
MS.77          	13.858         	9.829
MS.78          	13.83          	9.742
MS.79          	13.802         	9.624
MS.80          	13.775         	9.495
MS.81          	13.747         	9.356
MS.82          	13.72          	9.676
MS.83          	13.693         	9.65
MS.84          	13.665         	9.509
MS.85          	13.637         	9.497
MS.86          	13.61          	9.251
MS.87          	13.582         	9.394
MS.88          	13.555         	9.263
MS.89          	13.53          	9.209
MS.90          	13.502         	9.16
MS.91          	13.475         	9.072
MS.92          	13.447         	9.166
MS.93          	13.42          	9.013
MS.94          	13.395         	9.072
MS.95          	13.367         	8.905
MS.96          	13.34          	8.987
MS.97          	13.315         	9.007
MS.98          	13.287         	8.729
MS.99          	13.26          	8.685
MS.100         	13.235         	8.788
MS.101         	13.207         	8.816
MS.102         	13.182         	8.832
MS.103         	13.155         	8.433
MS.104         	13.13          	8.552
MS.105         	13.102         	8.584
MS.106         	13.077         	8.604
MS.107         	13.05          	8.423
MS.108         	13.025         	8.508
MS.109         	12.997         	8.169
MS.110         	12.972         	8.252
MS.111         	12.947         	8.389
MS.112         	12.92          	8.302
MS.113         	12.895         	8.067
MS.114         	12.87          	8.101
MS.115         	12.842         	8.03
MS.116         	12.818         	8.347
MS.117         	12.792         	7.616
MS.118         	12.767         	7.368
MS.119         	12.74          	7.666
MS.120         	12.715         	7.154
MS.121         	12.69          	7.805
MS.122         	12.665         	7.185
MS.123         	12.64          	7.176
MS.124         	12.615         	7.251
MS.125         	12.59          	6.903
MS.126         	12.565         	7.519
MS.127         	12.54          	6.862
MS.128         	12.515         	6.318
MS.129         	12.49          	6.202
MS.130         	12.465         	6.375
MS.131         	12.44          	6.653
MS.132         	12.415         	6.298
MS.133         	12.39          	6.089
MS.134         	12.365         	6.351
MS.135         	12.34          	5.219
MS.136         	12.315         	5.982
MS.137         	12.29          	5.702
MS.138         	12.265         	5.207
MS.139         	12.242         	5.432
MS.140         	12.217         	5.12
MS.141         	12.193         	5.505
MS.142         	12.167         	5.041
MS.143         	12.145         	5.207
MS.144         	12.12          	4.937
MS.145         	12.095         	5.021
MS.146         	12.072         	4.959
MS.147         	12.047         	4.51
MS.148         	12.023         	4.681
MS.149         	12             	4.608
MS.150         	11.975         	4.177
MS.151         	11.95          	4.735
MS.152         	11.927         	4.465
MS.153         	11.903         	4.715
MS.154         	11.88          	4.085
MS.155         	11.855         	4.592
MS.156         	11.832         	3.833
MS.157         	11.807         	3.771
MS.158         	11.785         	3.71
MS.159         	11.762         	3.946
MS.160         	11.738         	3.799
MS.161         	11.715         	3.335
MS.162         	11.69          	3.013
MS.163         	11.667         	2.971
MS.164         	11.645         	3.35
MS.165         	11.622         	3.211
MS.166         	11.597         	3.392
MS.167         	11.575         	2.999
MS.168         	11.552         	2.804
MS.169         	11.528         	2.51
MS.170         	11.505         	2.445
MS.171         	11.483         	2.268
MS.172         	11.46          	2.091
MS.173         	11.438         	1.785
MS.174         	11.415         	1.623
MS.175         	11.39          	1.557
MS.176         	11.367         	1.593
MS.177         	11.345         	1.372
MS.178         	11.322         	1.666
MS.179         	11.3           	1.686
MS.180         	11.278         	1.503
MS.181         	11.255         	1.265
MS.182         	11.233         	1.609
MS.183         	11.21          	1.533
MS.184         	11.188         	1.39
MS.185         	11.165         	1.37
MS.186         	11.142         	1.17
MS.187         	11.12          	1.019
MS.188         	11.1           	1.156
MS.189         	11.077         	1.023
MS.190         	11.055         	1.09
MS.191         	11.032         	1.045
MS.192         	11.01          	1.134
MS.193         	10.988         	0.987
MS.194         	10.967         	1.011
MS.195         	10.945         	0.84
MS.196         	10.922         	0.755
MS.197         	10.9           	0.872
MS.198         	10.88          	0.689
MS.199         	10.858         	0.961
MS.200         	10.835         	0.6
MS.201         	10.815         	0.641
MS.202         	10.792         	0.604
MS.203         	10.77          	0.693
MS.204         	10.75          	0.481
MS.205         	10.727         	0.731
MS.206         	10.707         	0.53
MS.207         	10.685         	0.504
MS.208         	10.662         	0.602
MS.209         	10.642         	0.52
MS.210         	10.62          	0.518
MS.211         	10.6           	0.504
MS.212         	10.577         	0.457
MS.213         	10.557         	0.443
MS.214         	10.537         	0.463
MS.215         	10.515         	0.417
MS.216         	10.495         	0.433
MS.217         	10.472         	0.403
MS.218         	10.452         	0.403
MS.219         	10.432         	0.35
MS.220         	10.41          	0.365
MS.221         	10.39          	0.342
MS.222         	10.37          	0.272
MS.223         	10.347         	0.381
MS.224         	10.327         	0.29
MS.225         	10.307         	0.34
MS.226         	10.287         	0.314
MS.227         	10.265         	0.274
MS.228         	10.245         	0.314
MS.229         	10.225         	0.28
MS.230         	10.205         	0.322
MS.231         	10.185         	0.256
MS.232         	10.165         	0.328
MS.233         	10.142         	0.326
MS.234         	10.122         	0.278
MS.235         	10.102         	0.294
MS.236         	10.082         	0.268
MS.237         	10.062         	0.264
MS.238         	10.042         	0.232
MS.239         	10.023         	0.262
MS.240         	10.002         	0.236
MS.241         	9.983          	0.238
MS.242         	9.962          	0.264
MS.243         	9.943          	0.23
MS.244         	9.922          	0.264
MS.245         	9.903          	0.161
MS.246         	9.882          	0.185
MS.247         	9.863          	0.228
MS.248         	9.842          	0.23
MS.249         	9.825          	0.189
MS.250         	9.805          	0.153
MS.251         	9.785          	0.155
MS.252         	9.765          	0.193
MS.253         	9.745          	0.185
MS.254         	9.727          	0.185
MS.255         	9.707          	0.183
MS.256         	9.688          	0.193
MS.257         	9.667          	0.157
MS.258         	9.65           	0.151
MS.259         	9.63           	0.147
MS.260         	9.61           	0.147
MS.261         	9.59           	0.145
MS.262         	9.573          	0.123
MS.263         	9.552          	0.081
MS.264         	9.532          	0.089
MS.265         	9.515          	0.091
MS.266         	9.495          	0.125
MS.267         	9.477          	0.107
MS.268         	9.457          	0.139
MS.269         	9.44           	0.173
MS.270         	9.42           	0.093
MS.271         	9.4            	0.127
MS.272         	9.382          	0.147
MS.273         	9.363          	0.123
MS.274         	9.345          	0.095
MS.275         	9.327          	0.091
MS.276         	9.307          	0.091
MS.277         	9.29           	0.089
MS.278         	9.27           	0.091
MS.279         	9.252          	0.105
MS.280         	9.233          	0.091
MS.281         	9.215          	0.091
MS.282         	9.198          	0.097
MS.283         	9.177          	0.087
MS.284         	9.16           	0.089
MS.285         	9.142          	0.091
MS.286         	9.122          	0.091
MS.287         	9.105          	0.083
MS.288         	9.087          	0.083
MS.289         	9.07           	0.089
MS.290         	9.05           	0.085
MS.291         	9.033          	0.089
MS.292         	9.015          	0.089
MS.293         	8.997          	0.091
MS.294         	8.977          	0.091
MS.295         	8.96           	0.091
MS.296         	8.943          	0.085
MS.297         	8.925          	0.089
MS.298         	8.908          	0.091
MS.299         	8.89           	0.085
MS.300         	8.872          	0.089
MS.301         	8.852          	0.085
MS.302         	8.835          	0.085
MS.303         	8.818          	0.091
MS.304         	8.8            	0.095
MS.305         	8.783          	0.091
MS.306         	8.765          	0.095
MS.307         	8.747          	0.087
MS.308         	8.73           	0.093
MS.309         	8.712          	0.089
MS.310         	8.695          	0.091
MS.311         	8.677          	0.091
MS.312         	8.66           	0.087
MS.313         	8.642          	0.085
MS.314         	8.627          	0.095
MS.315         	8.61           	0.091
MS.316         	8.592          	0.089
MS.317         	8.575          	0.091
MS.318         	8.557          	0.091
MS.319         	8.54           	0.089
MS.320         	8.523          	0.089
MS.321         	8.507          	0.095
MS.322         	8.49           	0.089
MS.323         	8.472          	0.091
MS.324         	8.455          	0.093
MS.325         	8.44           	0.093
MS.326         	8.422          	0.097
MS.327         	8.405          	0.097
MS.328         	8.387          	0.099
MS.329         	8.372          	0.093
MS.330         	8.355          	0.103
MS.331         	8.337          	0.097
MS.332         	8.323          	0.089
MS.333         	8.305          	0.087
MS.334         	8.287          	0.091
MS.335         	8.273          	0.083
MS.336         	8.255          	0.097
MS.337         	8.238          	0.097
MS.338         	8.222          	0.091
MS.339         	8.205          	0.093
MS.340         	8.19           	0.093
MS.341         	8.172          	0.091
MS.342         	8.158          	0.087
MS.343         	8.14           	0.087
MS.344         	8.125          	0.095
MS.345         	8.108          	0.091
MS.346         	8.092          	0.093
MS.347         	8.075          	0.095
MS.348         	8.06           	0.093
MS.349         	8.042          	0.087
MS.350         	8.028          	0.091
MS.351         	8.01           	0.087
MS.352         	7.995          	0.093
MS.353         	7.98           	0.089
MS.354         	7.962          	0.099
MS.355         	7.947          	0.089
MS.356         	7.932          	0.091
MS.357         	7.915          	0.093
MS.358         	7.9            	0.095
MS.359         	7.885          	0.085
DERIVED EXCITABILITY VARIABLES
Program = QTracP 3/4/2020
Threshold method = 6 (optimised for CAP, using data for present condition only)
SR method = 1 (using actual data values)
6.                 	0.000               	Peak response\(mV)
9.                 	33                  	Temperature ( C)
17.                	20                  	Age (years)
18.                	2                   	Sex (M=1, F=2)

EXTRA VARIABLES

MScPeak(mV) = 10.75
MScS5(mA) = 10.71
MScS50(mA) = 12.26
MScS95(mA) = 14.37
MScNSteps = 3
MScSteps(%) = 8.7
MScStepMax(%) = 3.7
MScD50 = 28
MScSlope = 9.49
MSFPeakAmp(mV) = 10.8
MSFNUnits = 111
MSFMeanUnitAmp(uV) = 97.2
MSFHuntTime(m) = 1.69
MSFError(%) = 9.48
MSFNLarge = 32.04
MSFMedianAmp(%) = 0.784
MSFMedianAmp(mV) = 0.0846
MSFHalfAmpAmp(%) = 1.14
MSFHalfAmpAmp(mV) = 0.123
MSFLargestAmp(%) = 3.28
MSFLargestAmp(mV) = 0.354
MSFMeanRS(%) = 2.01
MSFOpts = 10106121
MScDuration(min) = 3.1
MSFTraces = 294
MSFSizeLimit(uV) = 27
MSFLimitType = 1
MSFSmallestAmp(uV) = 30.9

EXTRA WAVEFORMS


!MScan Model
!111
	1	9.52	0.45	2
	2	9.77	0.45	2
	3	9.94	0.37	2
	4	10.19	0.78	2
	5	10.42	0.61	2
	6	10.5	0.39	2
	7	10.55	0.34	2
	8	10.61	0.49	2
	9	10.68	0.45	2
	10	10.75	0.72	2
	11	10.79	0.33	2
	12	10.82	0.44	2
	13	10.86	0.51	2
	14	10.9	0.64	2
	15	10.94	0.29	2
	16	10.97	0.58	2
	17	11.01	0.43	2
	18	11.04	0.89	2
	19	11.07	0.53	2
	20	11.13	0.96	2
	21	11.19	0.95	2
	22	11.27	1.39	2
	23	11.31	0.94	2
	24	11.33	0.42	2
	25	11.35	0.73	2
	26	11.37	1.11	2
	27	11.39	0.82	2
	28	11.42	0.94	2
	29	11.43	1.03	2
	30	11.45	0.85	2
	31	11.5	1.24	2
	32	11.52	0.96	2
	33	11.54	1.02	2
	34	11.56	0.98	2
	35	11.58	1.13	2
	36	11.6	1.51	2
	37	11.62	0.75	2
	38	11.64	0.82	2
	39	11.67	1.17	2
	40	11.7	1.46	2
	41	11.73	2	2
	42	11.76	1.23	2
	43	11.79	1.55	2
	44	11.83	0.45	2
	45	11.86	1.35	2
	46	11.9	1.43	2
	47	11.94	1.73	2
	48	11.99	1.39	2
	49	12.02	1.03	2
	50	12.05	0.96	2
	51	12.08	0.46	2
	52	12.1	0.98	2
	53	12.13	0.92	2
	54	12.16	0.97	2
	55	12.19	0.91	2
	56	12.22	1.14	2
	57	12.25	1.22	2
	58	12.28	1.51	2
	59	12.32	0.68	2
	60	12.35	1.67	2
	61	12.39	1.51	2
	62	12.42	1.49	2
	63	12.45	1.34	2
	64	12.48	1.48	2
	65	12.53	1.86	2
	66	12.57	1.32	2
	67	12.61	1.74	2
	68	12.66	1.7	2
	69	12.71	2.31	2
	70	12.75	1.43	2
	71	12.79	1.4	2
	72	12.83	0.63	2
	73	12.88	1.26	2
	74	12.93	1.74	2
	75	12.99	1.31	2
	76	13.03	0.68	2
	77	13.07	0.62	2
	78	13.1	0.58	2
	79	13.14	0.53	2
	80	13.16	0.43	2
	81	13.19	0.42	2
	82	13.22	0.4	2
	83	13.25	0.41	2
	84	13.27	0.4	2
	85	13.3	0.37	2
	86	13.33	0.48	2
	87	13.35	0.48	2
	88	13.38	0.33	2
	89	13.41	0.36	2
	90	13.44	0.39	2
	91	13.47	0.45	2
	92	13.5	0.5	2
	93	13.53	0.44	2
	94	13.56	0.43	2
	95	13.59	0.43	2
	96	13.62	0.44	2
	97	13.65	0.44	2
	98	13.68	0.44	2
	99	13.72	0.67	2
	100	13.78	0.76	2
	101	13.86	0.8	2
	102	13.98	0.7	2
	103	14.11	1.46	2
	104	14.23	0.85	2
	105	14.53	3.28	2.4
	106	14.79	0.53	2
	107	14.89	0.32	2
	108	14.99	0.52	2
	109	15.07	0.47	2
	110	15.16	0.75	2
	111	15.44	1.49	2

