File:              	C:\Qtrac\Data\Daniel M Sørensen\MScan multicentre study\Data from centres\Oslo\IronKey\Oslo_NC_first examination\SZC00604B.QZD
Name:              	NO.OSL.NC.16.1
Protocol:          	MSCAN-R2
Date:              	4/6/20
Start time:        	15:47:49
Age:               	64
Sex:               	M
Temperature:       	34.0
S/R sites:         	Median Wr-APB
NC/disease:        	NC16
Operator:          	SZ
Comments:          	Test1
M-SCAN DATA (11.6-4.6m)
Scanpts: 99, 103, 724, 745
Stim. (mA)     	Amp. (mV)
MS.1           	26             	12.242
MS.2           	26             	12.258
MS.3           	26             	12.288
MS.4           	26             	12.278
MS.5           	26             	12.321
MS.6           	26             	12.317
MS.7           	26             	12.331
MS.8           	26             	12.367
MS.9           	26             	12.397
MS.10          	26             	12.45
MS.11          	26             	12.47
MS.12          	26             	12.46
MS.13          	26             	12.468
MS.14          	26             	12.445
MS.15          	26             	12.431
MS.16          	26             	12.48
MS.17          	26             	12.48
MS.18          	26             	12.482
MS.19          	26             	12.48
MS.20          	26             	12.46
MS.21          	26             	12.476
MS.22          	26             	12.494
MS.23          	26             	12.48
MS.24          	25.895         	12.45
MS.25          	25.845         	12.48
MS.26          	25.792         	12.5
MS.27          	25.74          	12.514
MS.28          	25.69          	12.508
MS.29          	25.637         	12.512
MS.30          	25.587         	12.506
MS.31          	25.535         	12.502
MS.32          	25.485         	12.514
MS.33          	25.435         	12.498
MS.34          	25.382         	12.504
MS.35          	25.332         	12.512
MS.36          	25.282         	12.522
MS.37          	25.233         	12.544
MS.38          	25.18          	12.538
MS.39          	25.13          	12.526
MS.40          	25.08          	12.508
MS.41          	25.03          	12.55
MS.42          	24.98          	12.542
MS.43          	24.93          	12.536
MS.44          	24.88          	12.544
MS.45          	24.83          	12.536
MS.46          	24.782         	12.518
MS.47          	24.733         	12.536
MS.48          	24.682         	12.538
MS.49          	24.632         	12.53
MS.50          	24.585         	12.502
MS.51          	24.535         	12.512
MS.52          	24.485         	12.546
MS.53          	24.438         	12.532
MS.54          	24.387         	12.528
MS.55          	24.34          	12.52
MS.56          	24.29          	12.53
MS.57          	24.243         	12.504
MS.58          	24.192         	12.516
MS.59          	24.145         	12.506
MS.60          	24.097         	12.516
MS.61          	24.05          	12.518
MS.62          	24             	12.502
MS.63          	23.952         	12.514
MS.64          	23.905         	12.524
MS.65          	23.858         	12.486
MS.66          	23.81          	12.502
MS.67          	23.762         	12.506
MS.68          	23.715         	12.496
MS.69          	23.667         	12.468
MS.70          	23.62          	12.53
MS.71          	23.573         	12.532
MS.72          	23.525         	12.534
MS.73          	23.477         	12.56
MS.74          	23.432         	12.518
MS.75          	23.385         	12.546
MS.76          	23.337         	12.558
MS.77          	23.292         	12.49
MS.78          	23.245         	12.504
MS.79          	23.198         	12.558
MS.80          	23.153         	12.546
MS.81          	23.105         	12.508
MS.82          	23.06          	12.494
MS.83          	23.015         	12.548
MS.84          	22.967         	12.558
MS.85          	22.922         	12.508
MS.86          	22.875         	12.578
MS.87          	22.83          	12.528
MS.88          	22.785         	12.56
MS.89          	22.74          	12.52
MS.90          	22.695         	12.552
MS.91          	22.647         	12.508
MS.92          	22.602         	12.536
MS.93          	22.557         	12.55
MS.94          	22.512         	12.536
MS.95          	22.467         	12.53
MS.96          	22.422         	12.532
MS.97          	22.377         	12.496
MS.98          	22.332         	12.536
MS.99          	22.29          	12.512
MS.100         	22.245         	12.518
MS.101         	22.2           	12.538
MS.102         	22.155         	12.522
MS.103         	22.112         	12.51
MS.104         	22.067         	12.544
MS.105         	22.022         	12.512
MS.106         	21.98          	12.524
MS.107         	21.935         	12.52
MS.108         	21.892         	12.532
MS.109         	21.847         	12.51
MS.110         	21.805         	12.514
MS.111         	21.76          	12.496
MS.112         	21.717         	12.516
MS.113         	21.672         	12.51
MS.114         	21.63          	12.496
MS.115         	21.587         	12.502
MS.116         	21.545         	12.508
MS.117         	21.5           	12.498
MS.118         	21.458         	12.524
MS.119         	21.415         	12.494
MS.120         	21.372         	12.51
MS.121         	21.33          	12.514
MS.122         	21.288         	12.51
MS.123         	21.245         	12.502
MS.124         	21.202         	12.48
MS.125         	21.16          	12.478
MS.126         	21.118         	12.504
MS.127         	21.075         	12.482
MS.128         	21.032         	12.478
MS.129         	20.99          	12.468
MS.130         	20.95          	12.482
MS.131         	20.907         	12.502
MS.132         	20.865         	12.47
MS.133         	20.823         	12.462
MS.134         	20.782         	12.407
MS.135         	20.74          	12.488
MS.136         	20.7           	12.468
MS.137         	20.657         	12.433
MS.138         	20.618         	12.443
MS.139         	20.575         	12.429
MS.140         	20.535         	12.433
MS.141         	20.493         	12.49
MS.142         	20.452         	12.448
MS.143         	20.413         	12.45
MS.144         	20.37          	12.399
MS.145         	20.33          	12.431
MS.146         	20.29          	12.413
MS.147         	20.247         	12.445
MS.148         	20.208         	12.435
MS.149         	20.167         	12.429
MS.150         	20.127         	12.445
MS.151         	20.087         	12.234
MS.152         	20.047         	12.454
MS.153         	20.007         	12.474
MS.154         	19.967         	12.48
MS.155         	19.927         	12.46
MS.156         	19.887         	12.441
MS.157         	19.847         	12.484
MS.158         	19.807         	12.468
MS.159         	19.767         	12.476
MS.160         	19.73          	12.472
MS.161         	19.69          	12.278
MS.162         	19.65          	12.498
MS.163         	19.61          	12.488
MS.164         	19.573         	12.506
MS.165         	19.532         	12.472
MS.166         	19.493         	12.53
MS.167         	19.455         	12.274
MS.168         	19.415         	12.514
MS.169         	19.377         	12.502
MS.170         	19.337         	12.506
MS.171         	19.3           	12.488
MS.172         	19.26          	12.294
MS.173         	19.222         	12.488
MS.174         	19.185         	12.445
MS.175         	19.145         	12.266
MS.176         	19.108         	12.238
MS.177         	19.07          	12.208
MS.178         	19.032         	12.425
MS.179         	18.993         	12.222
MS.180         	18.955         	12.246
MS.181         	18.917         	12.222
MS.182         	18.88          	12.22
MS.183         	18.842         	12.244
MS.184         	18.805         	12.456
MS.185         	18.767         	12.212
MS.186         	18.73          	12.214
MS.187         	18.692         	12.236
MS.188         	18.655         	12.236
MS.189         	18.618         	12.23
MS.190         	18.58          	12.226
MS.191         	18.542         	12.234
MS.192         	18.505         	12.202
MS.193         	18.47          	12.204
MS.194         	18.432         	12.23
MS.195         	18.395         	12.204
MS.196         	18.358         	12.23
MS.197         	18.323         	12.178
MS.198         	18.285         	12.238
MS.199         	18.247         	12.194
MS.200         	18.212         	12.178
MS.201         	18.175         	12.198
MS.202         	18.14          	12.196
MS.203         	18.102         	12.198
MS.204         	18.067         	12.19
MS.205         	18.03          	12.186
MS.206         	17.995         	12.206
MS.207         	17.96          	12.214
MS.208         	17.922         	12.157
MS.209         	17.887         	12.137
MS.210         	17.852         	12.164
MS.211         	17.815         	12.147
MS.212         	17.78          	12.19
MS.213         	17.745         	12.178
MS.214         	17.71          	12.139
MS.215         	17.675         	12.161
MS.216         	17.637         	12.143
MS.217         	17.602         	12.145
MS.218         	17.567         	12.161
MS.219         	17.532         	12.137
MS.220         	17.497         	12.151
MS.221         	17.462         	12.103
MS.222         	17.427         	12.143
MS.223         	17.392         	12.031
MS.224         	17.358         	12.147
MS.225         	17.325         	12.141
MS.226         	17.29          	12.107
MS.227         	17.255         	12
MS.228         	17.22          	12.137
MS.229         	17.185         	11.97
MS.230         	17.153         	12.137
MS.231         	17.118         	12.119
MS.232         	17.083         	12.095
MS.233         	17.05          	11.988
MS.234         	17.015         	11.968
MS.235         	16.98          	11.946
MS.236         	16.948         	11.986
MS.237         	16.913         	11.982
MS.238         	16.88          	11.932
MS.239         	16.845         	11.958
MS.240         	16.812         	11.954
MS.241         	16.778         	11.926
MS.242         	16.745         	11.918
MS.243         	16.712         	11.861
MS.244         	16.677         	11.922
MS.245         	16.645         	11.906
MS.246         	16.612         	11.914
MS.247         	16.577         	11.95
MS.248         	16.545         	11.849
MS.249         	16.512         	11.839
MS.250         	16.48          	11.849
MS.251         	16.445         	11.869
MS.252         	16.413         	11.785
MS.253         	16.38          	11.861
MS.254         	16.347         	11.825
MS.255         	16.315         	11.791
MS.256         	16.282         	11.757
MS.257         	16.25          	11.805
MS.258         	16.217         	11.706
MS.259         	16.185         	11.688
MS.260         	16.153         	11.724
MS.261         	16.12          	11.626
MS.262         	16.087         	11.664
MS.263         	16.055         	11.686
MS.264         	16.025         	11.616
MS.265         	15.992         	11.668
MS.266         	15.96          	11.654
MS.267         	15.927         	11.642
MS.268         	15.898         	11.614
MS.269         	15.865         	11.634
MS.270         	15.832         	11.658
MS.271         	15.802         	11.614
MS.272         	15.77          	11.553
MS.273         	15.737         	11.459
MS.274         	15.707         	11.39
MS.275         	15.675         	11.537
MS.276         	15.645         	11.535
MS.277         	15.612         	11.604
MS.278         	15.582         	11.453
MS.279         	15.55          	11.535
MS.280         	15.52          	11.465
MS.281         	15.487         	11.491
MS.282         	15.457         	11.467
MS.283         	15.427         	11.267
MS.284         	15.395         	11.408
MS.285         	15.365         	11.38
MS.286         	15.335         	11.303
MS.287         	15.302         	11.243
MS.288         	15.273         	11.382
MS.289         	15.242         	11.193
MS.290         	15.212         	11.303
MS.291         	15.182         	11.175
MS.292         	15.152         	11.305
MS.293         	15.12          	11.156
MS.294         	15.09          	11.205
MS.295         	15.06          	11.026
MS.296         	15.03          	11.183
MS.297         	15             	11.05
MS.298         	14.97          	10.951
MS.299         	14.94          	11.056
MS.300         	14.91          	10.965
MS.301         	14.88          	10.917
MS.302         	14.852         	11.114
MS.303         	14.822         	11.017
MS.304         	14.792         	11.098
MS.305         	14.762         	10.858
MS.306         	14.733         	10.927
MS.307         	14.702         	10.919
MS.308         	14.675         	10.748
MS.309         	14.645         	10.893
MS.310         	14.615         	10.893
MS.311         	14.587         	10.796
MS.312         	14.557         	10.78
MS.313         	14.527         	10.744
MS.314         	14.5           	10.727
MS.315         	14.47          	10.762
MS.316         	14.443         	10.707
MS.317         	14.412         	10.717
MS.318         	14.382         	10.721
MS.319         	14.355         	10.677
MS.320         	14.325         	10.649
MS.321         	14.297         	10.713
MS.322         	14.27          	10.701
MS.323         	14.24          	10.663
MS.324         	14.212         	10.554
MS.325         	14.182         	10.705
MS.326         	14.155         	10.631
MS.327         	14.127         	10.651
MS.328         	14.1           	10.504
MS.329         	14.07          	10.663
MS.330         	14.042         	10.522
MS.331         	14.015         	10.689
MS.332         	13.987         	10.58
MS.333         	13.957         	10.592
MS.334         	13.93          	10.59
MS.335         	13.903         	10.419
MS.336         	13.875         	10.417
MS.337         	13.847         	10.286
MS.338         	13.82          	10.262
MS.339         	13.792         	9.952
MS.340         	13.765         	10.107
MS.341         	13.737         	10.103
MS.342         	13.71          	10.365
MS.343         	13.682         	10.137
MS.344         	13.655         	9.873
MS.345         	13.627         	9.922
MS.346         	13.6           	10.037
MS.347         	13.572         	9.956
MS.348         	13.545         	9.593
MS.349         	13.52          	9.779
MS.350         	13.492         	9.71
MS.351         	13.465         	9.765
MS.352         	13.438         	9.606
MS.353         	13.41          	9.742
MS.354         	13.385         	9.589
MS.355         	13.358         	9.557
MS.356         	13.33          	9.656
MS.357         	13.305         	9.648
MS.358         	13.278         	9.497
MS.359         	13.252         	9.525
MS.360         	13.225         	9.408
MS.361         	13.197         	9.525
MS.362         	13.172         	9.277
MS.363         	13.145         	9.221
MS.364         	13.12          	9.328
MS.365         	13.092         	9.426
MS.366         	13.068         	9.275
MS.367         	13.04          	9.146
MS.368         	13.015         	9.148
MS.369         	12.99          	9.33
MS.370         	12.962         	9.068
MS.371         	12.938         	9.011
MS.372         	12.91          	9.06
MS.373         	12.885         	9.058
MS.374         	12.86          	9.021
MS.375         	12.835         	8.991
MS.376         	12.807         	8.858
MS.377         	12.782         	8.897
MS.378         	12.757         	8.856
MS.379         	12.733         	8.659
MS.380         	12.705         	8.623
MS.381         	12.68          	8.683
MS.382         	12.655         	8.689
MS.383         	12.63          	8.397
MS.384         	12.605         	8.371
MS.385         	12.58          	8.508
MS.386         	12.555         	8.512
MS.387         	12.53          	8.391
MS.388         	12.505         	8.655
MS.389         	12.48          	8.254
MS.390         	12.455         	8.518
MS.391         	12.43          	8.175
MS.392         	12.405         	8.405
MS.393         	12.38          	8.155
MS.394         	12.355         	8.109
MS.395         	12.33          	8.127
MS.396         	12.305         	8.055
MS.397         	12.282         	8.196
MS.398         	12.257         	7.93
MS.399         	12.233         	8.101
MS.400         	12.207         	7.902
MS.401         	12.182         	7.823
MS.402         	12.16          	7.972
MS.403         	12.135         	8.103
MS.404         	12.11          	7.748
MS.405         	12.087         	7.545
MS.406         	12.062         	7.479
MS.407         	12.037         	7.609
MS.408         	12.015         	7.342
MS.409         	11.99          	7.605
MS.410         	11.967         	7.575
MS.411         	11.943         	7.406
MS.412         	11.917         	7.136
MS.413         	11.895         	7.293
MS.414         	11.87          	6.921
MS.415         	11.847         	7.199
MS.416         	11.822         	6.665
MS.417         	11.8           	6.677
MS.418         	11.778         	6.991
MS.419         	11.752         	6.546
MS.420         	11.73          	6.806
MS.421         	11.705         	6.619
MS.422         	11.682         	6.673
MS.423         	11.66          	6.3
MS.424         	11.635         	6.204
MS.425         	11.613         	6.228
MS.426         	11.59          	6.403
MS.427         	11.568         	6.705
MS.428         	11.542         	6.171
MS.429         	11.52          	6.167
MS.430         	11.497         	6.121
MS.431         	11.475         	6.161
MS.432         	11.45          	6.22
MS.433         	11.427         	6.155
MS.434         	11.405         	6.012
MS.435         	11.382         	6.069
MS.436         	11.36          	6.018
MS.437         	11.337         	5.954
MS.438         	11.315         	5.97
MS.439         	11.292         	5.893
MS.440         	11.27          	5.924
MS.441         	11.247         	5.819
MS.442         	11.225         	5.736
MS.443         	11.202         	5.811
MS.444         	11.18          	5.668
MS.445         	11.157         	5.797
MS.446         	11.135         	5.916
MS.447         	11.113         	5.714
MS.448         	11.09          	5.825
MS.449         	11.068         	5.67
MS.450         	11.047         	5.827
MS.451         	11.025         	5.652
MS.452         	11.002         	5.622
MS.453         	10.98          	5.668
MS.454         	10.957         	5.658
MS.455         	10.938         	5.595
MS.456         	10.915         	5.47
MS.457         	10.892         	5.622
MS.458         	10.87          	5.599
MS.459         	10.85          	5.638
MS.460         	10.827         	5.593
MS.461         	10.805         	5.448
MS.462         	10.785         	5.418
MS.463         	10.762         	5.493
MS.464         	10.742         	5.47
MS.465         	10.72          	5.342
MS.466         	10.698         	5.364
MS.467         	10.677         	5.587
MS.468         	10.655         	5.182
MS.469         	10.635         	5.174
MS.470         	10.613         	5.358
MS.471         	10.592         	5.364
MS.472         	10.57          	5.452
MS.473         	10.55          	5.223
MS.474         	10.528         	5.273
MS.475         	10.507         	5.229
MS.476         	10.488         	5.152
MS.477         	10.465         	4.947
MS.478         	10.445         	5.126
MS.479         	10.425         	5.094
MS.480         	10.403         	5.056
MS.481         	10.382         	5.078
MS.482         	10.363         	5.015
MS.483         	10.34          	4.826
MS.484         	10.32          	4.475
MS.485         	10.3           	4.643
MS.486         	10.28          	4.232
MS.487         	10.257         	4.689
MS.488         	10.238         	4.618
MS.489         	10.217         	4.973
MS.490         	10.198         	4.766
MS.491         	10.177         	4.048
