File:              	C:\Qtrac\Data\Daniel M Sørensen\MScan multicentre study\Data from centres\Oslo\Processed data\SZC00714A.QZD
Name:              	NO.OSL.NC.23.2
Protocol:          	MSCAN-R2
Date:              	14/7/20
Start time:        	15:31:41
Age:               	35
Sex:               	F
Temperature:       	31.1
S/R sites:         	APB
NC/disease:        	NC23
Operator:          	SZ
Comments:          	Test2
M-SCAN DATA (7.6-2.2m)
Scanpts: 100, 112, 572, 593
Stim. (mA)     	Amp. (mV)
MS.1           	10             	12.788
MS.2           	10             	12.796
MS.3           	10             	12.81
MS.4           	10             	12.806
MS.5           	10             	12.792
MS.6           	10             	12.784
MS.7           	10             	12.79
MS.8           	10             	12.784
MS.9           	10             	12.778
MS.10          	10             	12.742
MS.11          	10             	12.75
MS.12          	10             	12.78
MS.13          	10             	12.796
MS.14          	10             	12.804
MS.15          	10             	12.82
MS.16          	10             	12.82
MS.17          	10             	12.808
MS.18          	10             	12.818
MS.19          	10             	12.814
MS.20          	10             	12.824
MS.21          	10             	12.832
MS.22          	10             	12.832
MS.23          	10             	12.832
MS.24          	9.96           	12.836
MS.25          	9.94           	12.842
MS.26          	9.92           	12.852
MS.27          	9.9            	12.846
MS.28          	9.88           	12.842
MS.29          	9.86           	12.852
MS.30          	9.84           	12.822
MS.31          	9.823          	12.826
MS.32          	9.802          	12.858
MS.33          	9.782          	12.854
MS.34          	9.762          	12.848
MS.35          	9.742          	12.86
MS.36          	9.725          	12.86
MS.37          	9.705          	12.862
MS.38          	9.685          	12.881
MS.39          	9.665          	12.885
MS.40          	9.648          	12.866
MS.41          	9.627          	12.881
MS.42          	9.608          	12.901
MS.43          	9.587          	12.897
MS.44          	9.57           	12.889
MS.45          	9.55           	12.895
MS.46          	9.532          	12.903
MS.47          	9.512          	12.899
MS.48          	9.492          	12.893
MS.49          	9.475          	12.905
MS.50          	9.455          	12.903
MS.51          	9.438          	12.913
MS.52          	9.417          	12.911
MS.53          	9.4            	12.927
MS.54          	9.38           	12.915
MS.55          	9.363          	12.913
MS.56          	9.342          	12.935
MS.57          	9.325          	12.941
MS.58          	9.305          	12.937
MS.59          	9.287          	12.935
MS.60          	9.267          	12.943
MS.61          	9.25           	12.935
MS.62          	9.23           	12.953
MS.63          	9.212          	12.947
MS.64          	9.195          	12.967
MS.65          	9.175          	12.953
MS.66          	9.158          	12.967
MS.67          	9.14           	12.973
MS.68          	9.12           	12.979
MS.69          	9.102          	12.969
MS.70          	9.085          	12.971
MS.71          	9.068          	12.985
MS.72          	9.047          	12.979
MS.73          	9.03           	12.991
MS.74          	9.012          	12.985
MS.75          	8.995          	12.999
MS.76          	8.975          	13.007
MS.77          	8.957          	12.999
MS.78          	8.94           	12.993
MS.79          	8.922          	12.979
MS.80          	8.905          	12.989
MS.81          	8.887          	12.995
MS.82          	8.87           	13.016
MS.83          	8.852          	13.003
MS.84          	8.835          	13.03
MS.85          	8.815          	13.024
MS.86          	8.797          	13.032
MS.87          	8.78           	13.011
MS.88          	8.762          	13.007
MS.89          	8.745          	13.044
MS.90          	8.727          	13.04
MS.91          	8.71           	13.04
MS.92          	8.693          	13.036
MS.93          	8.675          	13.018
MS.94          	8.66           	13.03
MS.95          	8.642          	13.034
MS.96          	8.625          	13.034
MS.97          	8.608          	13.034
MS.98          	8.59           	13.058
MS.99          	8.573          	13.044
MS.100         	8.555          	13.048
MS.101         	8.537          	13.054
MS.102         	8.523          	13.062
MS.103         	8.505          	13.054
MS.104         	8.488          	13.038
MS.105         	8.47           	13.052
MS.106         	8.452          	13.062
MS.107         	8.438          	13.06
MS.108         	8.42           	13.048
MS.109         	8.403          	13.06
MS.110         	8.385          	13.062
MS.111         	8.37           	13.064
MS.112         	8.352          	13.07
MS.113         	8.335          	13.068
MS.114         	8.32           	13.074
MS.115         	8.302          	13.086
MS.116         	8.285          	13.084
MS.117         	8.27           	13.082
MS.118         	8.252          	13.076
MS.119         	8.238          	13.08
MS.120         	8.22           	13.076
MS.121         	8.202          	12.816
MS.122         	8.188          	12.834
MS.123         	8.17           	13.098
MS.124         	8.155          	12.83
MS.125         	8.137          	13.096
MS.126         	8.122          	13.088
MS.127         	8.105          	12.834
MS.128         	8.09           	13.096
MS.129         	8.073          	12.834
MS.130         	8.057          	13.084
MS.131         	8.04           	12.852
MS.132         	8.025          	12.844
MS.133         	8.01           	12.832
MS.134         	7.992          	12.848
MS.135         	7.977          	12.846
MS.136         	7.96           	12.838
MS.137         	7.945          	12.858
MS.138         	7.93           	12.852
MS.139         	7.912          	12.854
MS.140         	7.898          	12.862
MS.141         	7.882          	12.858
MS.142         	7.865          	12.856
MS.143         	7.85           	12.846
MS.144         	7.835          	12.856
MS.145         	7.82           	12.852
MS.146         	7.802          	12.86
MS.147         	7.787          	12.858
MS.148         	7.773          	12.858
MS.149         	7.757          	12.883
MS.150         	7.742          	12.868
MS.151         	7.725          	12.866
MS.152         	7.71           	12.875
MS.153         	7.695          	12.875
MS.154         	7.68           	12.87
MS.155         	7.665          	12.868
MS.156         	7.65           	12.875
MS.157         	7.635          	12.866
MS.158         	7.617          	12.872
MS.159         	7.602          	12.862
MS.160         	7.587          	12.887
MS.161         	7.572          	12.864
MS.162         	7.557          	12.864
MS.163         	7.543          	12.897
MS.164         	7.527          	12.852
MS.165         	7.512          	12.862
MS.166         	7.497          	12.842
MS.167         	7.482          	12.913
MS.168         	7.467          	12.872
MS.169         	7.452          	12.858
MS.170         	7.438          	12.862
MS.171         	7.422          	12.909
MS.172         	7.407          	12.852
MS.173         	7.392          	12.84
MS.174         	7.378          	12.885
MS.175         	7.365          	12.609
MS.176         	7.35           	12.893
MS.177         	7.335          	12.85
MS.178         	7.32           	12.86
MS.179         	7.305          	12.852
MS.180         	7.29           	12.603
MS.181         	7.275          	12.881
MS.182         	7.262          	12.617
MS.183         	7.247          	12.868
MS.184         	7.233          	12.609
MS.185         	7.217          	12.589
MS.186         	7.202          	12.409
MS.187         	7.19           	12.83
MS.188         	7.175          	12.423
MS.189         	7.16           	12.86
MS.190         	7.145          	12.327
MS.191         	7.132          	12.445
MS.192         	7.117          	12.375
MS.193         	7.102          	12.347
MS.194         	7.09           	12.671
MS.195         	7.075          	12.139
MS.196         	7.06           	12.246
MS.197         	7.047          	12.145
MS.198         	7.032          	12.204
MS.199         	7.017          	12.359
MS.200         	7.005          	12.166
MS.201         	6.99           	12.186
MS.202         	6.977          	11.803
MS.203         	6.962          	11.93
MS.204         	6.95           	11.741
MS.205         	6.935          	11.88
MS.206         	6.92           	11.888
MS.207         	6.907          	11.406
MS.208         	6.892          	11.922
MS.209         	6.88           	11.318
MS.210         	6.865          	11.16
MS.211         	6.852          	11.402
MS.212         	6.837          	11.144
MS.213         	6.825          	11.154
MS.214         	6.812          	11.261
MS.215         	6.797          	10.959
MS.216         	6.785          	11.032
MS.217         	6.77           	10.903
MS.218         	6.757          	11.009
MS.219         	6.742          	11.217
MS.220         	6.73           	11.007
MS.221         	6.717          	10.784
MS.222         	6.702          	10.796
MS.223         	6.69           	10.834
MS.224         	6.677          	10.566
MS.225         	6.662          	10.661
MS.226         	6.65           	10.496
MS.227         	6.637          	10.54
MS.228         	6.622          	10.512
MS.229         	6.61           	10.403
MS.230         	6.597          	10.572
MS.231         	6.582          	10.464
MS.232         	6.57           	10.492
MS.233         	6.557          	10.389
MS.234         	6.545          	10.333
MS.235         	6.53           	10.353
MS.236         	6.517          	10.369
MS.237         	6.505          	10.033
MS.238         	6.492          	10.252
MS.239         	6.48           	10.139
MS.240         	6.465          	10.371
MS.241         	6.452          	10.125
MS.242         	6.44           	10.043
MS.243         	6.427          	9.73
MS.244         	6.415          	9.666
MS.245         	6.402          	9.94
MS.246         	6.39           	9.827
MS.247         	6.378          	9.587
MS.248         	6.362          	9.718
MS.249         	6.35           	9.775
MS.250         	6.338          	9.519
MS.251         	6.325          	9.583
MS.252         	6.312          	9.09
MS.253         	6.3            	9.04
MS.254         	6.287          	9.406
MS.255         	6.275          	8.596
MS.256         	6.262          	9.664
MS.257         	6.25           	8.886
MS.258         	6.237          	8.679
MS.259         	6.225          	9.269
MS.260         	6.213          	8.741
MS.261         	6.2            	8.804
MS.262         	6.188          	8.981
MS.263         	6.175          	7.263
MS.264         	6.162          	7.485
MS.265         	6.15           	7.773
MS.266         	6.137          	8.012
MS.267         	6.125          	7.38
MS.268         	6.115          	7.217
MS.269         	6.102          	7.328
MS.270         	6.09           	7.376
MS.271         	6.077          	7.052
MS.272         	6.065          	6.772
MS.273         	6.052          	6.687
MS.274         	6.04           	6.127
MS.275         	6.03           	6.806
MS.276         	6.017          	5.986
MS.277         	6.005          	6.737
MS.278         	5.992          	6.997
MS.279         	5.98           	5.992
MS.280         	5.97           	6.469
MS.281         	5.957          	5.277
MS.282         	5.945          	5.436
MS.283         	5.932          	5.398
MS.284         	5.922          	5.068
MS.285         	5.91           	6.161
MS.286         	5.898          	5.172
MS.287         	5.885          	5.104
MS.288         	5.875          	5.63
MS.289         	5.862          	4.703
MS.290         	5.85           	4.548
MS.291         	5.84           	4.548
MS.292         	5.827          	5.14
MS.293         	5.815          	4.345
MS.294         	5.805          	4.482
MS.295         	5.793          	4.449
MS.296         	5.78           	4.232
MS.297         	5.77           	3.901
MS.298         	5.757          	4.27
MS.299         	5.747          	3.897
MS.300         	5.735          	3.962
MS.301         	5.722          	3.601
MS.302         	5.713          	3.678
MS.303         	5.7            	3.484
MS.304         	5.69           	3.066
MS.305         	5.677          	2.78
MS.306         	5.668          	3.295
MS.307         	5.655          	3.031
MS.308         	5.645          	3.118
MS.309         	5.632          	3.088
MS.310         	5.622          	3.017
MS.311         	5.61           	2.763
MS.312         	5.6            	2.292
MS.313         	5.588          	2.594
MS.314         	5.577          	2.524
MS.315         	5.565          	2.538
MS.316         	5.555          	2.367
MS.317         	5.543          	1.994
MS.318         	5.532          	2.206
MS.319         	5.52           	2.437
MS.320         	5.51           	2.401
MS.321         	5.5            	1.998
MS.322         	5.487          	1.718
MS.323         	5.477          	1.638
MS.324         	5.465          	1.748
MS.325         	5.455          	1.668
MS.326         	5.445          	1.609
MS.327         	5.432          	1.543
MS.328         	5.422          	1.484
MS.329         	5.412          	1.196
MS.330         	5.4            	1.577
MS.331         	5.39           	1.186
MS.332         	5.38           	1.567
MS.333         	5.367          	1.206
MS.334         	5.358          	1.166
MS.335         	5.347          	1.194
MS.336         	5.338          	1.14
MS.337         	5.325          	1.088
MS.338         	5.315          	1.184
MS.339         	5.305          	0.991
MS.340         	5.295          	1.092
MS.341         	5.282          	0.979
MS.342         	5.273          	1.372
MS.343         	5.262          	0.995
MS.344         	5.253          	0.862
MS.345         	5.242          	0.848
MS.346         	5.23           	0.84
MS.347         	5.22           	0.784
MS.348         	5.21           	0.9
MS.349         	5.2            	0.894
MS.350         	5.19           	0.81
MS.351         	5.18           	0.83
MS.352         	5.168          	0.775
MS.353         	5.157          	0.751
MS.354         	5.148          	0.733
MS.355         	5.137          	0.85
MS.356         	5.128          	0.838
MS.357         	5.117          	0.741
MS.358         	5.108          	0.779
MS.359         	5.097          	0.735
MS.360         	5.088          	0.673
MS.361         	5.077          	0.721
MS.362         	5.065          	0.685
MS.363         	5.055          	0.719
MS.364         	5.045          	0.643
MS.365         	5.035          	0.649
MS.366         	5.025          	0.63
MS.367         	5.015          	0.663
MS.368         	5.005          	0.632
MS.369         	4.995          	0.665
MS.370         	4.985          	0.62
MS.371         	4.975          	0.514
MS.372         	4.965          	0.667
MS.373         	4.955          	0.663
MS.374         	4.945          	0.512
MS.375         	4.935          	0.518
MS.376         	4.927          	0.558
MS.377         	4.918          	0.634
MS.378         	4.907          	0.514
MS.379         	4.898          	0.514
MS.380         	4.887          	0.524
MS.381         	4.878          	0.506
MS.382         	4.867          	0.516
MS.383         	4.858          	0.596
MS.384         	4.847          	0.352
MS.385         	4.838          	0.522
MS.386         	4.827          	0.514
MS.387         	4.82           	0.504
MS.388         	4.81           	0.346
MS.389         	4.8            	0.359
MS.390         	4.79           	0.371
MS.391         	4.78           	0.34
MS.392         	4.77           	0.506
MS.393         	4.762          	0.334
MS.394         	4.753          	0.5
MS.395         	4.742          	0.493
MS.396         	4.733          	0.334
MS.397         	4.722          	0.487
MS.398         	4.715          	0.34
MS.399         	4.705          	0.497
MS.400         	4.695          	0.477
MS.401         	4.685          	0.348
MS.402         	4.677          	0.483
MS.403         	4.668          	0.5
MS.404         	4.657          	0.338
MS.405         	4.648          	0.483
MS.406         	4.64           	0.479
MS.407         	4.63           	0.338
MS.408         	4.62           	0.352
MS.409         	4.612          	0.35
MS.410         	4.602          	0.336
MS.411         	4.592          	0.477
MS.412         	4.585          	0.334
MS.413         	4.575          	0.338
MS.414         	4.565          	0.326
MS.415         	4.557          	0.481
MS.416         	4.548          	0.328
MS.417         	4.537          	0.338
MS.418         	4.53           	0.332
MS.419         	4.52           	0.334
MS.420         	4.512          	0.332
MS.421         	4.503          	0.328
MS.422         	4.492          	0.328
MS.423         	4.485          	0.338
MS.424         	4.475          	0.33
MS.425         	4.467          	0.336
MS.426         	4.457          	0.33
MS.427         	4.447          	0.332
MS.428         	4.44           	0.33
MS.429         	4.43           	0.33
MS.430         	4.423          	0.336
MS.431         	4.412          	0.344
MS.432         	4.405          	0.332
MS.433         	4.395          	0.336
MS.434         	4.387          	0.332
MS.435         	4.378          	0.334
MS.436         	4.37           	0.33
MS.437         	4.36           	0.334
MS.438         	4.352          	0.334
MS.439         	4.342          	0.332
MS.440         	4.335          	0.334
MS.441         	4.325          	0.33
MS.442         	4.318          	0.332
MS.443         	4.307          	0.33
MS.444         	4.3            	0.332
MS.445         	4.293          	0.332
MS.446         	4.282          	0.308
MS.447         	4.275          	0.332
MS.448         	4.265          	0.336
MS.449         	4.257          	0.336
MS.450         	4.247          	0.334
MS.451         	4.24           	0.334
MS.452         	4.233          	0.334
MS.453         	4.222          	0.332
MS.454         	4.215          	0.332
MS.455         	4.207          	0.332
MS.456         	4.197          	0.304
MS.457         	4.19           	0.332
MS.458         	4.18           	0.33
MS.459         	4.173          	0.304
MS.460         	4.165          	0.332
MS.461         	4.155          	0.336
MS.462         	4.148          	0.338
MS.463         	4.14           	0.22
MS.464         	4.132          	0.332
MS.465         	4.122          	0.304
MS.466         	4.115          	0.302
MS.467         	4.108          	0.328
MS.468         	4.097          	0.302
MS.469         	4.09           	0.218
MS.470         	4.082          	0.224
MS.471         	4.075          	0.222
MS.472         	4.065          	0.218
MS.473         	4.057          	0.306
MS.474         	4.05           	0.3
MS.475         	4.043          	0.211
MS.476         	4.032          	0.224
MS.477         	4.025          	0.222
MS.478         	4.017          	0.22
MS.479         	4.01           	0.222
MS.480         	4              	0.222
MS.481         	3.992          	0.218
MS.482         	3.985          	0.22
MS.483         	3.977          	0.22
MS.484         	3.97           	0.224
MS.485         	3.962          	0.214
MS.486         	3.952          	0.218
MS.487         	3.945          	0.216
MS.488         	3.938          	0.22
MS.489         	3.93           	0.216
MS.490         	3.922          	0.218
MS.491         	3.915          	0.216
MS.492         	3.908          	0.214
MS.493         	3.897          	0.216
MS.494         	3.89           	0.218
MS.495         	3.882          	0.22
