File:              	C:\Qtrac\Data\Daniel M Sørensen\MScan multicentre study\Data from centres\Oslo\IronKey\Oslo_NC_first examination\SZC00618A.QZD
Name:              	NO.OSL.NC.19.1
Protocol:          	MSCAN-R2
Date:              	18/6/20
Start time:        	09:45:27
Age:               	39
Sex:               	M
Temperature:       	34.7
S/R sites:         	Median Wr-APB
NC/disease:        	NC19
Operator:          	SZ
Comments:          	Test1
M-SCAN DATA (8.5-3.9m)
Scanpts: 102, 109, 490, 511
Stim. (mA)     	Amp. (mV)
MS.1           	13             	15.565
MS.2           	13             	15.578
MS.3           	13             	15.586
MS.4           	13             	15.553
MS.5           	13             	15.573
MS.6           	13             	15.569
MS.7           	13             	15.576
MS.8           	13             	15.61
MS.9           	13             	15.6
MS.10          	13             	15.578
MS.11          	13             	15.61
MS.12          	13             	15.586
MS.13          	13             	15.614
MS.14          	13             	15.622
MS.15          	13             	15.634
MS.16          	13             	15.64
MS.17          	13             	15.634
MS.18          	13             	15.614
MS.19          	13             	15.638
MS.20          	13             	15.62
MS.21          	13             	15.608
MS.22          	13             	15.634
MS.23          	13             	15.636
MS.24          	12.947         	15.608
MS.25          	12.922         	15.596
MS.26          	12.898         	15.6
MS.27          	12.87          	15.61
MS.28          	12.845         	15.654
MS.29          	12.82          	15.648
MS.30          	12.792         	15.63
MS.31          	12.767         	15.632
MS.32          	12.742         	15.618
MS.33          	12.717         	15.652
MS.34          	12.693         	15.626
MS.35          	12.667         	15.64
MS.36          	12.64          	15.64
MS.37          	12.615         	15.618
MS.38          	12.59          	15.632
MS.39          	12.565         	15.622
MS.40          	12.54          	15.616
MS.41          	12.515         	15.608
MS.42          	12.49          	15.586
MS.43          	12.465         	15.612
MS.44          	12.44          	15.606
MS.45          	12.415         	15.598
MS.46          	12.39          	15.606
MS.47          	12.365         	15.59
MS.48          	12.34          	15.614
MS.49          	12.318         	15.604
MS.50          	12.292         	15.586
MS.51          	12.267         	15.618
MS.52          	12.242         	15.606
MS.53          	12.217         	15.626
MS.54          	12.195         	15.626
MS.55          	12.17          	15.618
MS.56          	12.145         	15.632
MS.57          	12.12          	15.614
MS.58          	12.097         	15.634
MS.59          	12.072         	15.622
MS.60          	12.047         	15.618
MS.61          	12.025         	15.644
MS.62          	12             	15.648
MS.63          	11.977         	15.626
MS.64          	11.952         	15.62
MS.65          	11.927         	15.602
MS.66          	11.905         	15.628
MS.67          	11.88          	15.608
MS.68          	11.858         	15.612
MS.69          	11.832         	15.62
MS.70          	11.81          	15.596
MS.71          	11.787         	15.624
MS.72          	11.762         	15.6
MS.73          	11.74          	15.594
MS.74          	11.715         	15.624
MS.75          	11.693         	15.6
MS.76          	11.67          	15.616
MS.77          	11.645         	15.582
MS.78          	11.622         	15.569
MS.79          	11.6           	15.59
MS.80          	11.575         	15.567
MS.81          	11.552         	15.557
MS.82          	11.53          	15.551
MS.83          	11.507         	15.547
MS.84          	11.485         	15.569
MS.85          	11.46          	15.569
MS.86          	11.438         	15.565
MS.87          	11.415         	15.59
MS.88          	11.392         	15.588
MS.89          	11.37          	15.608
MS.90          	11.347         	15.582
MS.91          	11.325         	15.557
MS.92          	11.302         	15.553
MS.93          	11.28          	15.551
MS.94          	11.257         	15.567
MS.95          	11.235         	15.555
MS.96          	11.212         	15.547
MS.97          	11.19          	15.561
MS.98          	11.167         	15.535
MS.99          	11.145         	15.539
MS.100         	11.122         	15.576
MS.101         	11.1           	15.561
MS.102         	11.077         	15.59
MS.103         	11.055         	15.565
MS.104         	11.032         	15.555
MS.105         	11.012         	15.571
MS.106         	10.99          	15.553
MS.107         	10.967         	15.535
MS.108         	10.945         	15.557
MS.109         	10.925         	15.533
MS.110         	10.903         	15.541
MS.111         	10.88          	15.555
MS.112         	10.858         	15.533
MS.113         	10.837         	15.559
MS.114         	10.815         	15.553
MS.115         	10.792         	15.551
MS.116         	10.773         	15.569
MS.117         	10.75          	15.533
MS.118         	10.73          	15.551
MS.119         	10.707         	15.555
MS.120         	10.685         	15.555
MS.121         	10.665         	15.543
MS.122         	10.642         	15.531
MS.123         	10.622         	15.525
MS.124         	10.6           	15.515
MS.125         	10.58          	15.541
MS.126         	10.557         	15.525
MS.127         	10.537         	15.519
MS.128         	10.517         	15.525
MS.129         	10.495         	15.547
MS.130         	10.475         	15.576
MS.131         	10.452         	15.549
MS.132         	10.432         	15.513
MS.133         	10.412         	15.569
MS.134         	10.39          	15.541
MS.135         	10.37          	15.529
MS.136         	10.35          	15.561
MS.137         	10.33          	15.543
MS.138         	10.307         	15.547
MS.139         	10.287         	15.551
MS.140         	10.267         	15.005
MS.141         	10.247         	15.557
MS.142         	10.225         	15.565
MS.143         	10.205         	15.531
MS.144         	10.185         	15.541
MS.145         	10.165         	15.525
MS.146         	10.145         	15.545
MS.147         	10.125         	15.547
MS.148         	10.105         	15.509
MS.149         	10.085         	15.545
MS.150         	10.065         	15.507
MS.151         	10.042         	15.547
MS.152         	10.023         	15.547
MS.153         	10.002         	15.529
MS.154         	9.983          	15.001
MS.155         	9.962          	15.547
MS.156         	9.945          	15.513
MS.157         	9.925          	14.975
MS.158         	9.905          	14.995
MS.159         	9.885          	15.519
MS.160         	9.865          	14.985
MS.161         	9.845          	15.527
MS.162         	9.825          	14.983
MS.163         	9.805          	15.539
MS.164         	9.785          	15.001
MS.165         	9.767          	14.999
MS.166         	9.747          	14.999
MS.167         	9.727          	14.987
MS.168         	9.707          	14.973
MS.169         	9.688          	15.008
MS.170         	9.67           	14.989
MS.171         	9.65           	14.975
MS.172         	9.63           	15.001
MS.173         	9.613          	14.981
MS.174         	9.592          	14.969
MS.175         	9.573          	14.981
MS.176         	9.555          	14.979
MS.177         	9.535          	14.953
MS.178         	9.515          	15.001
MS.179         	9.497          	14.979
MS.180         	9.477          	14.987
MS.181         	9.46           	14.987
MS.182         	9.44           	14.975
MS.183         	9.42           	14.995
MS.184         	9.403          	14.78
MS.185         	9.382          	14.999
MS.186         	9.365          	14.818
MS.187         	9.345          	14.494
MS.188         	9.327          	14.603
MS.189         	9.307          	14.528
MS.190         	9.29           	14.824
MS.191         	9.273          	14.834
MS.192         	9.252          	14.816
MS.193         	9.235          	14.421
MS.194         	9.215          	14.842
MS.195         	9.198          	14.093
MS.196         	9.18           	14.399
MS.197         	9.16           	14.45
MS.198         	9.142          	14.681
MS.199         	9.125          	14.272
MS.200         	9.105          	14.5
MS.201         	9.087          	14.192
MS.202         	9.07           	14.472
MS.203         	9.052          	14.274
MS.204         	9.033          	13.519
MS.205         	9.015          	14.059
MS.206         	8.997          	13.992
MS.207         	8.98           	13.861
MS.208         	8.962          	14.057
MS.209         	8.943          	13.138
MS.210         	8.925          	14.127
MS.211         	8.908          	13.263
MS.212         	8.89           	13.41
MS.213         	8.872          	12.74
MS.214         	8.855          	12.224
MS.215         	8.837          	12.721
MS.216         	8.82           	12.693
MS.217         	8.802          	12.574
MS.218         	8.785          	12.228
MS.219         	8.767          	12.456
MS.220         	8.75           	12.286
MS.221         	8.733          	12.307
MS.222         	8.715          	11.841
MS.223         	8.698          	12.176
MS.224         	8.68           	12.091
MS.225         	8.662          	12.764
MS.226         	8.645          	12.089
MS.227         	8.627          	12.282
MS.228         	8.61           	12.351
MS.229         	8.592          	12.186
MS.230         	8.575          	11.803
MS.231         	8.557          	11.98
MS.232         	8.542          	11.616
MS.233         	8.525          	11.926
MS.234         	8.507          	11.559
MS.235         	8.49           	11.608
MS.236         	8.472          	11.662
MS.237         	8.457          	10.907
MS.238         	8.44           	11.231
MS.239         	8.422          	10.891
MS.240         	8.405          	11.11
MS.241         	8.39           	10.973
MS.242         	8.372          	10.8
MS.243         	8.355          	11.06
MS.244         	8.34           	10.955
MS.245         	8.323          	10.943
MS.246         	8.305          	11.015
MS.247         	8.29           	10.399
MS.248         	8.273          	10.087
MS.249         	8.255          	10.198
MS.250         	8.24           	9.61
MS.251         	8.222          	9.799
MS.252         	8.207          	9.904
MS.253         	8.19           	9.416
MS.254         	8.175          	9.658
MS.255         	8.158          	9.092
MS.256         	8.142          	9.291
MS.257         	8.125          	9.223
MS.258         	8.11           	8.786
MS.259         	8.092          	8.604
MS.260         	8.077          	8.78
MS.261         	8.06           	8.607
MS.262         	8.045          	8.574
MS.263         	8.028          	8.6
MS.264         	8.012          	8.681
MS.265         	7.995          	8.965
MS.266         	7.98           	8.576
MS.267         	7.965          	7.98
MS.268         	7.947          	8.244
MS.269         	7.932          	7.845
MS.270         	7.918          	7.374
MS.271         	7.9            	7.74
MS.272         	7.885          	7.491
MS.273         	7.87           	7.521
MS.274         	7.852          	7.569
MS.275         	7.837          	7.311
MS.276         	7.822          	7.249
MS.277         	7.807          	7.259
MS.278         	7.79           	7.106
MS.279         	7.775          	7.338
MS.280         	7.76           	7.317
MS.281         	7.745          	6.852
MS.282         	7.727          	6.83
MS.283         	7.712          	6.661
MS.284         	7.697          	6.737
MS.285         	7.682          	6.572
MS.286         	7.668          	6.357
MS.287         	7.652          	6.957
MS.288         	7.637          	6.286
MS.289         	7.622          	6.171
MS.290         	7.605          	6.302
MS.291         	7.59           	6.111
MS.292         	7.575          	5.593
MS.293         	7.56           	5.712
MS.294         	7.545          	6.087
MS.295         	7.53           	5.75
MS.296         	7.515          	6.278
MS.297         	7.5            	5.783
MS.298         	7.485          	5.795
MS.299         	7.47           	5.831
MS.300         	7.455          	5.331
MS.301         	7.44           	5.245
MS.302         	7.425          	4.778
MS.303         	7.41           	5.058
MS.304         	7.395          	4.357
MS.305         	7.382          	4.139
MS.306         	7.367          	4.224
MS.307         	7.352          	4.165
MS.308         	7.337          	4.917
MS.309         	7.322          	4.486
MS.310         	7.307          	3.857
MS.311         	7.293          	4.399
MS.312         	7.277          	4.262
MS.313         	7.265          	3.571
MS.314         	7.25           	3.519
MS.315         	7.235          	3.591
MS.316         	7.22           	3.42
MS.317         	7.205          	3.325
MS.318         	7.192          	3.511
MS.319         	7.177          	3.172
MS.320         	7.162          	3.237
MS.321         	7.15           	3.712
MS.322         	7.135          	2.902
MS.323         	7.12           	3.023
MS.324         	7.105          	2.987
MS.325         	7.092          	2.58
MS.326         	7.077          	2.459
MS.327         	7.062          	2.63
MS.328         	7.05           	2.137
MS.329         	7.035          	2.628
MS.330         	7.023          	2.385
MS.331         	7.007          	2.465
MS.332         	6.992          	2.069
MS.333         	6.98           	2.449
MS.334         	6.965          	1.907
MS.335         	6.952          	1.909
MS.336         	6.938          	1.976
MS.337         	6.922          	2.006
MS.338         	6.91           	1.873
MS.339         	6.895          	1.919
MS.340         	6.882          	1.841
MS.341         	6.867          	1.922
MS.342         	6.855          	1.881
MS.343         	6.84           	1.754
MS.344         	6.827          	1.573
MS.345         	6.815          	1.629
MS.346         	6.8            	1.501
MS.347         	6.787          	1.728
MS.348         	6.773          	1.547
MS.349         	6.76           	1.517
MS.350         	6.745          	1.18
MS.351         	6.733          	1.283
MS.352         	6.72           	1.428
MS.353         	6.705          	1.249
MS.354         	6.692          	1.233
MS.355         	6.68           	1.311
MS.356         	6.665          	1.18
MS.357         	6.652          	1.076
MS.358         	6.64           	1.112
MS.359         	6.625          	0.967
MS.360         	6.612          	0.963
MS.361         	6.6            	0.949
MS.362         	6.585          	0.951
MS.363         	6.572          	0.781
MS.364         	6.56           	0.884
MS.365         	6.547          	0.87
MS.366         	6.532          	0.842
MS.367         	6.52           	0.957
MS.368         	6.507          	0.761
MS.369         	6.495          	0.773
MS.370         	6.483          	0.773
MS.371         	6.467          	0.856
MS.372         	6.455          	0.767
MS.373         	6.442          	0.649
MS.374         	6.43           	0.842
MS.375         	6.418          	0.602
MS.376         	6.405          	0.636
MS.377         	6.392          	0.673
MS.378         	6.378          	0.572
MS.379         	6.365          	0.691
MS.380         	6.352          	0.53
MS.381         	6.34           	0.596
MS.382         	6.327          	0.566
MS.383         	6.315          	0.429
MS.384         	6.302          	0.51
MS.385         	6.29           	0.528
MS.386         	6.277          	0.479
MS.387         	6.265          	0.357
MS.388         	6.253          	0.508
MS.389         	6.24           	0.375
MS.390         	6.227          	0.469
MS.391         	6.215          	0.473
MS.392         	6.202          	0.272
MS.393         	6.19           	0.332
MS.394         	6.177          	0.306
MS.395         	6.165          	0.445
MS.396         	6.152          	0.266
MS.397         	6.14           	0.369
MS.398         	6.128          	0.234
MS.399         	6.115          	0.105
MS.400         	6.105          	0.274
MS.401         	6.092          	0.242
MS.402         	6.08           	0.228
MS.403         	6.067          	0.093
MS.404         	6.055          	0.131
MS.405         	6.043          	0.105
MS.406         	6.03           	0.203
MS.407         	6.02           	0.183
MS.408         	6.007          	0.228
MS.409         	5.995          	0.218
MS.410         	5.983          	0.127
MS.411         	5.97           	0.189
MS.412         	5.96           	0.117
MS.413         	5.947          	0.159
MS.414         	5.935          	0.201
MS.415         	5.922          	0.093
MS.416         	5.912          	0.093
MS.417         	5.9            	0.151
MS.418         	5.887          	0.046
MS.419         	5.878          	0.171
MS.420         	5.865          	0.147
MS.421         	5.852          	0.093
MS.422         	5.842          	0.093
MS.423         	5.83           	0.06
MS.424         	5.817          	0.054
MS.425         	5.807          	0.06
MS.426         	5.795          	0.056
MS.427         	5.782          	0.048
MS.428         	5.773          	0.139
MS.429         	5.76           	0.048
MS.430         	5.747          	0.04
MS.431         	5.737          	0.054
MS.432         	5.725          	0.03
MS.433         	5.715          	0.054
MS.434         	5.702          	0.044
MS.435         	5.692          	0.004
MS.436         	5.68           	0.034
MS.437         	5.668          	0.064
MS.438         	5.657          	0.004
MS.439         	5.645          	0.042
MS.440         	5.635          	0.044
MS.441         	5.622          	0.038
MS.442         	5.612          	0.034
MS.443         	5.6            	0.04
MS.444         	5.59           	-0.004
MS.445         	5.577          	0.05
MS.446         	5.567          	-0.006
MS.447         	5.557          	-0.006
MS.448         	5.545          	0.05
MS.449         	5.535          	-0.004
MS.450         	5.523          	-0.002
MS.451         	5.512          	0.046
MS.452         	5.5            	-0.002
MS.453         	5.49           	0.036
MS.454         	5.48           	0.028
MS.455         	5.467          	-0.006
MS.456         	5.457          	-0.006
MS.457         	5.447          	-0.006
MS.458         	5.435          	-0.008
MS.459         	5.425          	-0.006
MS.460         	5.415          	-0.006
MS.461         	5.402          	-0.004
MS.462         	5.392          	-0.004
MS.463         	5.382          	-0.004
MS.464         	5.37           	-0.002
MS.465         	5.36           	-0.004
MS.466         	5.35           	-0.006
MS.467         	5.338          	-0.004
MS.468         	5.327          	-0.002
MS.469         	5.318          	-0.004
MS.470         	5.307          	-0.006
MS.471         	5.295          	-0.004
MS.472         	5.285          	-0.004
MS.473         	5.275          	-0.002
MS.474         	5.265          	-0.004
MS.475         	5.255          	-0.002
MS.476         	5.242          	-0.004
MS.477         	5.233          	-0.006
MS.478         	5.222          	0.000
MS.479         	5.213          	-0.006
MS.480         	5.202          	-0.002
MS.481         	5.19           	-0.004
MS.482         	5.18           	-0.002
MS.483         	5.17           	-0.002
MS.484         	5.16           	-0.004
MS.485         	5.15           	-0.002
MS.486         	5.14           	0.002
MS.487         	5.13           	0.000
MS.488         	5.12           	-0.002
MS.489         	5.108          	0.000
MS.490         	5.097          	-0.004
MS.491         	5.088          	0.000
MS.492         	5.077          	0.000
MS.493         	5.068          	0.000
