File:              	C:\Qtrac\Data\Daniel M Sørensen\MScan multicentre study\Data from centres\Bucharest\Processed data\TDLC00206E.QZD
Name:              	RO.BU.NC.4.1
Protocol:          	MSCAN-R2
Date:              	6/2/20
Start time:        	15:17:07
Age:               	28
Sex:               	M
Temperature:       	36.2
S/R sites:         	APB
NC/disease:        	RONC4.1
Operator:          	TL
Comments:
M-SCAN DATA (7.7-0.9m)
Scanpts: 394, 400, 695, 716
Stim. (mA)     	Amp. (mV)
MS.1           	22.5           	14.621
MS.2           	22.5           	14.659
MS.3           	22.5           	14.637
MS.4           	22.5           	14.639
MS.5           	22.5           	14.649
MS.6           	22.5           	14.655
MS.7           	22.5           	14.661
MS.8           	22.5           	14.643
MS.9           	22.5           	14.621
MS.10          	22.5           	14.621
MS.11          	22.5           	14.609
MS.12          	22.5           	14.611
MS.13          	22.5           	14.625
MS.14          	22.5           	14.607
MS.15          	22.5           	14.607
MS.16          	22.5           	14.631
MS.17          	22.5           	14.623
MS.18          	22.5           	14.641
MS.19          	22.5           	14.657
MS.20          	22.5           	14.643
MS.21          	22.5           	14.645
MS.22          	22.5           	14.635
MS.23          	22.5           	14.627
MS.24          	22.41          	14.645
MS.25          	22.365         	14.665
MS.26          	22.32          	14.645
MS.27          	22.275         	14.635
MS.28          	22.233         	14.655
MS.29          	22.188         	14.655
MS.30          	22.142         	14.641
MS.31          	22.097         	14.647
MS.32          	22.055         	14.661
MS.33          	22.01          	14.671
MS.34          	21.967         	14.681
MS.35          	21.922         	14.675
MS.36          	21.877         	14.671
MS.37          	21.835         	14.649
MS.38          	21.792         	14.665
MS.39          	21.747         	14.681
MS.40          	21.705         	14.685
MS.41          	21.66          	14.685
MS.42          	21.618         	14.673
MS.43          	21.575         	14.705
MS.44          	21.532         	14.707
MS.45          	21.487         	14.713
MS.46          	21.445         	14.732
MS.47          	21.403         	14.715
MS.48          	21.36          	14.734
MS.49          	21.317         	14.719
MS.50          	21.275         	14.721
MS.51          	21.233         	14.738
MS.52          	21.19          	14.75
MS.53          	21.147         	14.736
MS.54          	21.105         	14.744
MS.55          	21.062         	14.713
MS.56          	21.02          	14.705
MS.57          	20.98          	14.695
MS.58          	20.938         	14.697
MS.59          	20.895         	14.717
MS.60          	20.852         	14.705
MS.61          	20.812         	14.719
MS.62          	20.77          	14.724
MS.63          	20.727         	14.715
MS.64          	20.688         	14.73
MS.65          	20.645         	14.74
MS.66          	20.605         	14.736
MS.67          	20.562         	14.746
MS.68          	20.522         	14.76
MS.69          	20.483         	14.77
MS.70          	20.44          	14.752
MS.71          	20.4           	14.742
MS.72          	20.36          	14.73
MS.73          	20.317         	14.724
MS.74          	20.278         	14.746
MS.75          	20.237         	14.721
MS.76          	20.198         	14.689
MS.77          	20.155         	14.709
MS.78          	20.115         	14.713
MS.79          	20.075         	14.726
MS.80          	20.035         	14.732
MS.81          	19.995         	14.726
MS.82          	19.955         	14.746
MS.83          	19.915         	14.754
MS.84          	19.875         	14.726
MS.85          	19.837         	14.728
MS.86          	19.797         	14.75
MS.87          	19.757         	14.742
MS.88          	19.717         	14.756
MS.89          	19.677         	14.752
MS.90          	19.64          	14.774
MS.91          	19.6           	14.772
MS.92          	19.56          	14.778
MS.93          	19.522         	14.768
MS.94          	19.483         	14.786
MS.95          	19.442         	14.792
MS.96          	19.405         	14.786
MS.97          	19.365         	14.8
MS.98          	19.327         	14.804
MS.99          	19.288         	14.798
MS.100         	19.25          	14.81
MS.101         	19.212         	14.782
MS.102         	19.172         	14.766
MS.103         	19.135         	14.766
MS.104         	19.097         	14.776
MS.105         	19.057         	14.794
MS.106         	19.02          	14.812
MS.107         	18.983         	14.788
MS.108         	18.945         	14.802
MS.109         	18.907         	14.808
MS.110         	18.87          	14.81
MS.111         	18.83          	14.816
MS.112         	18.792         	14.8
MS.113         	18.755         	14.796
MS.114         	18.717         	14.8
MS.115         	18.68          	14.798
MS.116         	18.645         	14.816
MS.117         	18.608         	14.806
MS.118         	18.57          	14.812
MS.119         	18.532         	14.824
MS.120         	18.495         	14.82
MS.121         	18.458         	14.844
MS.122         	18.422         	14.828
MS.123         	18.385         	14.826
MS.124         	18.347         	14.824
MS.125         	18.31          	14.84
MS.126         	18.275         	14.848
MS.127         	18.237         	14.82
MS.128         	18.202         	14.846
MS.129         	18.165         	14.836
MS.130         	18.13          	14.862
MS.131         	18.092         	14.86
MS.132         	18.057         	14.852
MS.133         	18.02          	14.858
MS.134         	17.985         	14.842
MS.135         	17.948         	14.867
MS.136         	17.913         	14.862
MS.137         	17.878         	14.869
MS.138         	17.84          	14.875
MS.139         	17.805         	14.881
MS.140         	17.77          	14.865
MS.141         	17.735         	14.842
MS.142         	17.7           	14.852
MS.143         	17.663         	14.867
MS.144         	17.628         	14.875
MS.145         	17.592         	14.877
MS.146         	17.557         	14.856
MS.147         	17.522         	14.879
MS.148         	17.487         	14.862
MS.149         	17.452         	14.879
MS.150         	17.417         	14.875
MS.151         	17.382         	14.883
MS.152         	17.347         	14.869
MS.153         	17.315         	14.867
MS.154         	17.28          	14.897
MS.155         	17.245         	14.895
MS.156         	17.21          	14.881
MS.157         	17.175         	14.897
MS.158         	17.142         	14.899
MS.159         	17.108         	14.913
MS.160         	17.073         	14.895
MS.161         	17.04          	14.909
MS.162         	17.005         	14.911
MS.163         	16.97          	14.919
MS.164         	16.938         	14.939
MS.165         	16.903         	14.943
MS.166         	16.87          	14.943
MS.167         	16.835         	14.933
MS.168         	16.802         	14.943
MS.169         	16.767         	14.939
MS.170         	16.735         	14.967
MS.171         	16.702         	14.973
MS.172         	16.667         	14.947
MS.173         	16.635         	14.963
MS.174         	16.602         	14.977
MS.175         	16.567         	14.965
MS.176         	16.535         	14.967
MS.177         	16.503         	14.971
MS.178         	16.47          	14.971
MS.179         	16.438         	14.969
MS.180         	16.405         	14.997
MS.181         	16.37          	14.987
MS.182         	16.337         	14.995
MS.183         	16.305         	14.997
MS.184         	16.272         	15.01
MS.185         	16.24          	15.008
MS.186         	16.208         	14.993
MS.187         	16.175         	15.005
MS.188         	16.142         	14.997
MS.189         	16.11          	15.022
MS.190         	16.08          	15.02
MS.191         	16.047         	15.016
MS.192         	16.015         	15.012
MS.193         	15.983         	15.014
MS.194         	15.95          	15.036
MS.195         	15.92          	15.034
MS.196         	15.887         	15.034
MS.197         	15.855         	15.04
MS.198         	15.822         	15.028
MS.199         	15.792         	15.06
MS.200         	15.76          	15.048
MS.201         	15.73          	15.038
MS.202         	15.697         	15.034
MS.203         	15.667         	15.048
MS.204         	15.635         	15.058
MS.205         	15.602         	15.04
MS.206         	15.572         	15.044
MS.207         	15.542         	15.028
MS.208         	15.51          	15.038
MS.209         	15.48          	15.038
MS.210         	15.447         	15.046
MS.211         	15.417         	15.04
MS.212         	15.387         	15.05
MS.213         	15.355         	15.048
MS.214         	15.325         	15.074
MS.215         	15.295         	15.06
MS.216         	15.265         	15.056
MS.217         	15.233         	15.066
MS.218         	15.202         	15.086
MS.219         	15.172         	15.058
MS.220         	15.142         	15.072
MS.221         	15.112         	15.066
MS.222         	15.082         	15.056
MS.223         	15.052         	15.08
MS.224         	15.023         	15.078
MS.225         	14.992         	15.094
MS.226         	14.962         	15.082
MS.227         	14.932         	15.082
MS.228         	14.902         	15.104
MS.229         	14.872         	15.086
MS.230         	14.842         	15.098
MS.231         	14.812         	15.098
MS.232         	14.782         	15.104
MS.233         	14.755         	15.112
MS.234         	14.725         	15.1
MS.235         	14.695         	15.126
MS.236         	14.665         	15.112
MS.237         	14.637         	15.122
MS.238         	14.608         	15.114
MS.239         	14.577         	15.112
MS.240         	14.55          	15.126
MS.241         	14.52          	15.13
MS.242         	14.49          	15.148
MS.243         	14.462         	15.136
MS.244         	14.432         	15.136
MS.245         	14.405         	15.144
MS.246         	14.375         	15.14
MS.247         	14.347         	15.148
MS.248         	14.318         	15.151
MS.249         	14.29          	15.155
MS.250         	14.26          	15.144
MS.251         	14.233         	15.146
MS.252         	14.205         	15.144
MS.253         	14.175         	15.146
MS.254         	14.148         	15.153
MS.255         	14.12          	15.153
MS.256         	14.09          	15.14
MS.257         	14.062         	15.169
MS.258         	14.035         	15.136
MS.259         	14.007         	15.159
MS.260         	13.977         	15.144
MS.261         	13.95          	15.144
MS.262         	13.922         	15.134
MS.263         	13.895         	15.136
MS.264         	13.867         	15.128
MS.265         	13.84          	15.12
MS.266         	13.812         	15.126
MS.267         	13.785         	15.128
MS.268         	13.757         	15.151
MS.269         	13.73          	15.136
MS.270         	13.702         	15.116
MS.271         	13.675         	15.134
MS.272         	13.648         	15.122
MS.273         	13.62          	15.126
MS.274         	13.592         	15.122
MS.275         	13.565         	15.126
MS.276         	13.537         	15.112
MS.277         	13.51          	15.098
MS.278         	13.485         	15.124
MS.279         	13.457         	15.132
MS.280         	13.43          	15.114
MS.281         	13.403         	15.126
MS.282         	13.377         	15.098
MS.283         	13.35          	15.126
MS.284         	13.322         	15.124
MS.285         	13.297         	15.12
MS.286         	13.27          	15.098
MS.287         	13.242         	15.11
MS.288         	13.217         	15.11
MS.289         	13.19          	15.112
MS.290         	13.165         	15.112
MS.291         	13.137         	15.122
MS.292         	13.112         	15.122
MS.293         	13.085         	15.12
MS.294         	13.06          	15.128
MS.295         	13.032         	15.122
MS.296         	13.007         	15.138
MS.297         	12.983         	15.136
MS.298         	12.955         	15.13
MS.299         	12.93          	15.128
MS.300         	12.903         	15.14
MS.301         	12.877         	15.134
MS.302         	12.852         	15.14
MS.303         	12.827         	15.14
MS.304         	12.8           	15.128
MS.305         	12.775         	15.155
MS.306         	12.75          	15.161
MS.307         	12.725         	15.153
MS.308         	12.7           	15.136
MS.309         	12.672         	15.13
MS.310         	12.648         	15.169
MS.311         	12.622         	15.148
MS.312         	12.597         	15.153
MS.313         	12.572         	15.151
MS.314         	12.547         	15.157
MS.315         	12.523         	15.169
MS.316         	12.497         	15.163
MS.317         	12.472         	15.155
MS.318         	12.447         	15.169
MS.319         	12.422         	15.163
MS.320         	12.398         	15.173
MS.321         	12.372         	15.177
MS.322         	12.347         	15.189
MS.323         	12.322         	15.177
MS.324         	12.3           	15.181
MS.325         	12.275         	15.185
MS.326         	12.25          	15.197
MS.327         	12.225         	15.191
MS.328         	12.2           	15.195
MS.329         	12.177         	15.187
MS.330         	12.153         	15.199
MS.331         	12.127         	15.193
MS.332         	12.102         	15.205
MS.333         	12.08          	15.213
MS.334         	12.055         	15.191
MS.335         	12.032         	15.191
MS.336         	12.007         	15.227
MS.337         	11.983         	15.219
MS.338         	11.96          	15.207
MS.339         	11.935         	15.219
MS.340         	11.912         	15.219
MS.341         	11.887         	15.215
MS.342         	11.865         	15.233
MS.343         	11.84          	15.195
MS.344         	11.818         	15.209
MS.345         	11.792         	15.229
MS.346         	11.77          	15.237
MS.347         	11.745         	15.221
MS.348         	11.722         	15.237
MS.349         	11.7           	15.229
MS.350         	11.675         	15.217
MS.351         	11.653         	15.221
MS.352         	11.63          	15.241
MS.353         	11.605         	15.249
MS.354         	11.582         	15.229
MS.355         	11.56          	15.241
MS.356         	11.537         	15.239
MS.357         	11.512         	15.249
MS.358         	11.49          	15.259
MS.359         	11.467         	15.233
MS.360         	11.445         	15.239
MS.361         	11.422         	15.237
MS.362         	11.4           	15.251
MS.363         	11.375         	15.231
MS.364         	11.352         	15.253
MS.365         	11.33          	15.251
MS.366         	11.307         	15.257
MS.367         	11.285         	15.251
MS.368         	11.262         	15.255
MS.369         	11.24          	15.261
MS.370         	11.217         	15.153
MS.371         	11.195         	15.263
MS.372         	11.172         	15.269
MS.373         	11.15          	15.159
MS.374         	11.127         	15.171
MS.375         	11.108         	15.263
MS.376         	11.085         	15.271
MS.377         	11.062         	15.245
MS.378         	11.04          	15.171
MS.379         	11.017         	15.185
MS.380         	10.995         	15.181
MS.381         	10.975         	15.257
MS.382         	10.952         	15.199
MS.383         	10.93          	15.213
MS.384         	10.907         	15.203
MS.385         	10.887         	15.185
MS.386         	10.865         	15.185
MS.387         	10.842         	15.217
MS.388         	10.82          	15.171
MS.389         	10.8           	15.199
MS.390         	10.778         	15.213
MS.391         	10.757         	15.213
MS.392         	10.735         	15.189
MS.393         	10.712         	15.187
MS.394         	10.693         	15.183
MS.395         	10.67          	15.195
MS.396         	10.65          	15.187
MS.397         	10.627         	15.169
MS.398         	10.608         	15.175
MS.399         	10.585         	15.177
MS.400         	10.565         	15.215
MS.401         	10.542         	15.193
MS.402         	10.523         	15.213
MS.403         	10.502         	15.209
MS.404         	10.48          	15.197
MS.405         	10.46          	15.215
MS.406         	10.438         	15.199
MS.407         	10.417         	15.181
MS.408         	10.398         	15.217
MS.409         	10.375         	15.225
MS.410         	10.355         	15.219
MS.411         	10.335         	15.223
MS.412         	10.315         	15.195
MS.413         	10.292         	15.219
MS.414         	10.273         	15.193
MS.415         	10.252         	15.253
MS.416         	10.233         	15.181
MS.417         	10.212         	15.213
MS.418         	10.19          	15.217
MS.419         	10.17          	15.257
MS.420         	10.15          	15.223
MS.421         	10.13          	15.215
MS.422         	10.11          	15.219
MS.423         	10.09          	15.1
MS.424         	10.07          	15.215
MS.425         	10.05          	15.108
MS.426         	10.03          	15.245
MS.427         	10.01          	15.209
MS.428         	9.99           	14.917
MS.429         	9.97           	14.959
MS.430         	9.95           	14.752
MS.431         	9.93           	15.1
MS.432         	9.91           	14.971
MS.433         	9.89           	14.79
MS.434         	9.87           	14.812
MS.435         	9.85           	14.967
MS.436         	9.83           	15.118
MS.437         	9.81           	15.122
MS.438         	9.792          	14.518
MS.439         	9.773          	14.524
MS.440         	9.752          	14.508
MS.441         	9.733          	14.546
MS.442         	9.712          	14.043
MS.443         	9.695          	13.872
MS.444         	9.675          	14.24
MS.445         	9.655          	13.549
MS.446         	9.635          	13.851
MS.447         	9.617          	13.716
MS.448         	9.597          	13.904
MS.449         	9.577          	13.668
MS.450         	9.56           	13.561
MS.451         	9.54           	13.823
MS.452         	9.52           	13.477
MS.453         	9.502          	13.531
MS.454         	9.483          	13.001
MS.455         	9.465          	12.754
MS.456         	9.445          	13.324
MS.457         	9.427          	13.269
MS.458         	9.407          	12.762
MS.459         	9.387          	12.776
MS.460         	9.37           	12.484
MS.461         	9.352          	12.615
MS.462         	9.332          	12.732
MS.463         	9.315          	12.514
MS.464         	9.295          	12.345
MS.465         	9.278          	12.363
MS.466         	9.257          	12.069
MS.467         	9.24           	11.565
MS.468         	9.222          	12.488
MS.469         	9.202          	11.61
MS.470         	9.185          	11.553
MS.471         	9.165          	11.525
MS.472         	9.148          	11.154
MS.473         	9.13           	10.985
MS.474         	9.113          	10.758
MS.475         	9.092          	11.303
MS.476         	9.075          	10.913
MS.477         	9.057          	10.522
MS.478         	9.037          	10.701
MS.479         	9.02           	9.815
MS.480         	9.002          	10.282
MS.481         	8.985          	10.335
MS.482         	8.967          	10.008
MS.483         	8.948          	9.456
MS.484         	8.93           	9.32
MS.485         	8.912          	9.553
MS.486         	8.895          	9.529
MS.487         	8.877          	9.428
MS.488         	8.86           	9.267
MS.489         	8.842          	9.162
