File:              	C:\Qtrac\Data\Daniel M Sørensen\MScan multicentre study\Data from centres\Bucharest\Processed data\TDLC10107D.QZD
Name:              	RO.BU.NC.8.2
Protocol:          	MSCAN-R2
Date:              	7/1/21
Start time:        	13:23:45
Age:               	36
Sex:               	F
Temperature:       	36.1
S/R sites:         	APB
NC/disease:        	NC8
Operator:          	TL
Comments:          	RO.NC.8.2.
M-SCAN DATA (8.3-0.9m)
Scanpts: 1, 23, 769, 791
Stim. (mA)     	Amp. (mV)
MS.1           	18             	8.971
MS.2           	18             	8.955
MS.3           	18             	8.935
MS.4           	18             	8.929
MS.5           	18             	8.907
MS.6           	18             	8.909
MS.7           	18             	8.917
MS.8           	18             	8.899
MS.9           	18             	8.888
MS.10          	18             	8.886
MS.11          	18             	8.897
MS.12          	18             	8.888
MS.13          	18             	8.901
MS.14          	18             	8.897
MS.15          	18             	8.884
MS.16          	18             	8.88
MS.17          	18             	8.88
MS.18          	18             	8.87
MS.19          	18             	8.88
MS.20          	18             	8.895
MS.21          	18             	8.88
MS.22          	18             	8.882
MS.23          	18             	8.872
MS.24          	17.927         	8.872
MS.25          	17.892         	8.872
MS.26          	17.858         	8.874
MS.27          	17.82          	8.862
MS.28          	17.785         	8.854
MS.29          	17.75          	8.868
MS.30          	17.715         	8.866
MS.31          	17.68          	8.864
MS.32          	17.642         	8.862
MS.33          	17.608         	8.864
MS.34          	17.573         	8.864
MS.35          	17.538         	8.858
MS.36          	17.503         	8.854
MS.37          	17.467         	8.862
MS.38          	17.432         	8.856
MS.39          	17.397         	8.856
MS.40          	17.362         	8.85
MS.41          	17.33          	8.862
MS.42          	17.295         	8.866
MS.43          	17.26          	8.86
MS.44          	17.225         	8.844
MS.45          	17.19          	8.854
MS.46          	17.157         	8.856
MS.47          	17.122         	8.85
MS.48          	17.087         	8.854
MS.49          	17.052         	8.86
MS.50          	17.02          	8.858
MS.51          	16.985         	8.858
MS.52          	16.952         	8.864
MS.53          	16.917         	8.864
MS.54          	16.885         	8.87
MS.55          	16.85          	8.864
MS.56          	16.817         	8.862
MS.57          	16.782         	8.862
MS.58          	16.75          	8.854
MS.59          	16.715         	8.852
MS.60          	16.682         	8.856
MS.61          	16.65          	8.858
MS.62          	16.615         	8.842
MS.63          	16.583         	8.856
MS.64          	16.55          	8.844
MS.65          	16.517         	8.854
MS.66          	16.483         	8.848
MS.67          	16.45          	8.846
MS.68          	16.417         	8.834
MS.69          	16.385         	8.84
MS.70          	16.352         	8.836
MS.71          	16.32          	8.838
MS.72          	16.288         	8.836
MS.73          	16.255         	8.84
MS.74          	16.222         	8.844
MS.75          	16.19          	8.838
MS.76          	16.157         	8.832
MS.77          	16.125         	8.84
MS.78          	16.092         	8.844
MS.79          	16.06          	8.842
MS.80          	16.028         	8.846
MS.81          	15.997         	8.842
MS.82          	15.965         	8.858
MS.83          	15.932         	8.846
MS.84          	15.9           	8.854
MS.85          	15.87          	8.85
MS.86          	15.837         	8.846
MS.87          	15.805         	8.846
MS.88          	15.775         	8.844
MS.89          	15.742         	8.85
MS.90          	15.71          	8.842
MS.91          	15.68          	8.858
MS.92          	15.648         	8.858
MS.93          	15.617         	8.848
MS.94          	15.585         	8.852
MS.95          	15.555         	8.848
MS.96          	15.523         	8.864
MS.97          	15.492         	8.858
MS.98          	15.462         	8.86
MS.99          	15.43          	8.846
MS.100         	15.4           	8.848
MS.101         	15.37          	8.852
MS.102         	15.337         	8.86
MS.103         	15.307         	8.854
MS.104         	15.277         	8.84
MS.105         	15.247         	8.848
MS.106         	15.217         	8.84
MS.107         	15.185         	8.838
MS.108         	15.155         	8.838
MS.109         	15.125         	8.842
MS.110         	15.095         	8.834
MS.111         	15.065         	8.834
MS.112         	15.035         	8.832
MS.113         	15.005         	8.834
MS.114         	14.975         	8.828
MS.115         	14.945         	8.838
MS.116         	14.915         	8.826
MS.117         	14.885         	8.824
MS.118         	14.855         	8.836
MS.119         	14.825         	8.83
MS.120         	14.795         	8.82
MS.121         	14.767         	8.824
MS.122         	14.737         	8.814
MS.123         	14.707         	8.822
MS.124         	14.677         	8.816
MS.125         	14.65          	8.82
MS.126         	14.62          	8.834
MS.127         	14.59          	8.83
MS.128         	14.562         	8.832
MS.129         	14.532         	8.82
MS.130         	14.502         	8.818
MS.131         	14.475         	8.834
MS.132         	14.445         	8.828
MS.133         	14.417         	8.82
MS.134         	14.387         	8.826
MS.135         	14.36          	8.832
MS.136         	14.33          	8.828
MS.137         	14.302         	8.828
MS.138         	14.273         	8.816
MS.139         	14.245         	8.816
MS.140         	14.215         	8.828
MS.141         	14.188         	8.826
MS.142         	14.16          	8.828
MS.143         	14.13          	8.824
MS.144         	14.102         	8.83
MS.145         	14.075         	8.822
MS.146         	14.047         	8.818
MS.147         	14.017         	8.802
MS.148         	13.99          	8.814
MS.149         	13.962         	8.824
MS.150         	13.935         	8.824
MS.151         	13.907         	8.812
MS.152         	13.88          	8.824
MS.153         	13.85          	8.812
MS.154         	13.822         	8.816
MS.155         	13.795         	8.818
MS.156         	13.767         	8.816
MS.157         	13.74          	8.81
MS.158         	13.712         	8.818
MS.159         	13.685         	8.812
MS.160         	13.657         	8.81
MS.161         	13.632         	8.826
MS.162         	13.605         	8.82
MS.163         	13.577         	8.824
MS.164         	13.55          	8.822
MS.165         	13.523         	8.826
MS.166         	13.495         	8.814
MS.167         	13.467         	8.818
MS.168         	13.443         	8.822
MS.169         	13.415         	8.814
MS.170         	13.387         	8.818
MS.171         	13.362         	8.82
MS.172         	13.335         	8.812
MS.173         	13.307         	8.81
MS.174         	13.282         	8.804
MS.175         	13.255         	8.812
MS.176         	13.227         	8.808
MS.177         	13.202         	8.812
MS.178         	13.175         	8.806
MS.179         	13.15          	8.8
MS.180         	13.122         	8.808
MS.181         	13.097         	8.808
MS.182         	13.07          	8.8
MS.183         	13.045         	8.804
MS.184         	13.017         	8.806
MS.185         	12.992         	8.8
MS.186         	12.967         	8.802
MS.187         	12.94          	8.794
MS.188         	12.915         	8.808
MS.189         	12.89          	8.768
MS.190         	12.862         	8.79
MS.191         	12.837         	8.8
MS.192         	12.812         	8.79
MS.193         	12.785         	8.766
MS.194         	12.76          	8.766
MS.195         	12.735         	8.768
MS.196         	12.71          	8.782
MS.197         	12.685         	8.76
MS.198         	12.66          	8.796
MS.199         	12.632         	8.784
MS.200         	12.608         	8.792
MS.201         	12.582         	8.766
MS.202         	12.557         	8.796
MS.203         	12.532         	8.794
MS.204         	12.507         	8.758
MS.205         	12.483         	8.76
MS.206         	12.457         	8.764
MS.207         	12.432         	8.764
MS.208         	12.407         	8.794
MS.209         	12.382         	8.77
MS.210         	12.36          	8.762
MS.211         	12.335         	8.754
MS.212         	12.31          	8.764
MS.213         	12.285         	8.76
MS.214         	12.26          	8.766
MS.215         	12.235         	8.766
MS.216         	12.212         	8.754
MS.217         	12.188         	8.754
MS.218         	12.162         	8.764
MS.219         	12.137         	8.758
MS.220         	12.115         	8.75
MS.221         	12.09          	8.754
MS.222         	12.065         	8.754
MS.223         	12.042         	8.756
MS.224         	12.017         	8.745
MS.225         	11.992         	8.75
MS.226         	11.97          	8.747
MS.227         	11.945         	8.743
MS.228         	11.922         	8.752
MS.229         	11.898         	8.75
MS.230         	11.875         	8.752
MS.231         	11.85          	8.747
MS.232         	11.827         	8.733
MS.233         	11.802         	8.729
MS.234         	11.78          	8.717
MS.235         	11.755         	8.715
MS.236         	11.733         	8.713
MS.237         	11.71          	8.729
MS.238         	11.685         	8.745
MS.239         	11.662         	8.752
MS.240         	11.64          	8.743
MS.241         	11.615         	8.743
MS.242         	11.592         	8.731
MS.243         	11.57          	8.745
MS.244         	11.547         	8.75
MS.245         	11.523         	8.754
MS.246         	11.5           	8.737
MS.247         	11.477         	8.743
MS.248         	11.455         	8.739
MS.249         	11.432         	8.737
MS.250         	11.407         	8.737
MS.251         	11.385         	8.721
MS.252         	11.363         	8.737
MS.253         	11.34          	8.709
MS.254         	11.318         	8.723
MS.255         	11.295         	8.729
MS.256         	11.273         	8.733
MS.257         	11.25          	8.729
MS.258         	11.227         	8.715
MS.259         	11.205         	8.723
MS.260         	11.182         	8.727
MS.261         	11.16          	8.723
MS.262         	11.137         	8.725
MS.263         	11.115         	8.711
MS.264         	11.092         	8.707
MS.265         	11.073         	8.713
MS.266         	11.05          	8.733
MS.267         	11.028         	8.741
MS.268         	11.005         	8.739
MS.269         	10.983         	8.747
MS.270         	10.962         	8.75
MS.271         	10.94          	8.735
MS.272         	10.917         	8.739
MS.273         	10.895         	8.743
MS.274         	10.875         	8.747
MS.275         	10.852         	8.741
MS.276         	10.83          	8.741
MS.277         	10.81          	8.747
MS.278         	10.787         	8.752
MS.279         	10.765         	8.727
MS.280         	10.745         	8.756
MS.281         	10.722         	8.739
MS.282         	10.702         	8.731
MS.283         	10.68          	8.743
MS.284         	10.657         	8.735
MS.285         	10.637         	8.731
MS.286         	10.615         	8.731
MS.287         	10.595         	8.737
MS.288         	10.573         	8.745
MS.289         	10.552         	8.735
MS.290         	10.532         	8.741
MS.291         	10.51          	8.741
MS.292         	10.49          	8.764
MS.293         	10.467         	8.729
MS.294         	10.448         	8.758
MS.295         	10.427         	8.76
MS.296         	10.405         	8.766
MS.297         	10.385         	8.735
MS.298         	10.365         	8.784
MS.299         	10.342         	8.772
MS.300         	10.323         	8.77
MS.301         	10.302         	8.782
MS.302         	10.282         	8.784
MS.303         	10.26          	8.798
MS.304         	10.24          	8.792
MS.305         	10.22          	8.802
MS.306         	10.2           	8.832
MS.307         	10.18          	8.838
MS.308         	10.16          	8.822
MS.309         	10.14          	8.824
MS.310         	10.117         	8.8
MS.311         	10.097         	8.812
MS.312         	10.077         	8.818
MS.313         	10.057         	8.828
MS.314         	10.037         	8.836
MS.315         	10.017         	8.808
MS.316         	9.997          	8.814
MS.317         	9.977          	8.788
MS.318         	9.957          	8.786
MS.319         	9.938          	8.78
MS.320         	9.917          	8.774
MS.321         	9.898          	8.786
MS.322         	9.877          	8.798
MS.323         	9.86           	8.8
MS.324         	9.84           	8.796
MS.325         	9.82           	8.788
MS.326         	9.8            	8.784
MS.327         	9.78           	8.784
MS.328         	9.76           	8.786
MS.329         	9.74           	8.782
MS.330         	9.722          	8.782
MS.331         	9.702          	8.784
MS.332         	9.682          	8.792
MS.333         	9.662          	8.786
MS.334         	9.645          	8.784
MS.335         	9.625          	8.782
MS.336         	9.605          	8.782
MS.337         	9.587          	8.776
MS.338         	9.568          	8.766
MS.339         	9.547          	8.76
MS.340         	9.53           	8.778
MS.341         	9.51           	8.778
MS.342         	9.49           	8.782
MS.343         	9.472          	8.772
MS.344         	9.452          	8.768
MS.345         	9.435          	8.794
MS.346         	9.415          	8.774
MS.347         	9.398          	8.782
MS.348         	9.377          	8.782
MS.349         	9.36           	8.766
MS.350         	9.34           	8.776
MS.351         	9.323          	8.78
MS.352         	9.302          	8.776
MS.353         	9.285          	8.788
MS.354         	9.265          	8.776
MS.355         	9.247          	8.782
MS.356         	9.23           	8.77
MS.357         	9.21           	8.78
MS.358         	9.193          	8.78
MS.359         	9.175          	8.784
MS.360         	9.155          	8.774
MS.361         	9.137          	8.77
MS.362         	9.12           	8.766
MS.363         	9.1            	8.768
MS.364         	9.082          	8.772
MS.365         	9.065          	8.776
MS.366         	9.047          	8.762
MS.367         	9.028          	8.772
MS.368         	9.01           	8.768
MS.369         	8.992          	8.768
MS.370         	8.975          	8.768
MS.371         	8.957          	8.776
MS.372         	8.938          	8.76
MS.373         	8.92           	8.78
MS.374         	8.903          	8.77
MS.375         	8.885          	8.76
MS.376         	8.867          	8.764
MS.377         	8.85           	8.764
MS.378         	8.832          	8.786
MS.379         	8.815          	8.772
MS.380         	8.797          	8.782
MS.381         	8.78           	8.77
MS.382         	8.762          	8.766
MS.383         	8.745          	8.772
MS.384         	8.727          	8.766
MS.385         	8.71           	8.78
MS.386         	8.693          	8.772
MS.387         	8.675          	8.774
MS.388         	8.658          	8.774
MS.389         	8.64           	8.766
MS.390         	8.622          	8.778
MS.391         	8.605          	8.786
MS.392         	8.587          	8.77
MS.393         	8.57           	8.768
MS.394         	8.552          	8.768
MS.395         	8.537          	8.764
MS.396         	8.52           	8.76
MS.397         	8.502          	8.772
MS.398         	8.485          	8.772
MS.399         	8.467          	8.774
MS.400         	8.452          	8.772
MS.401         	8.435          	8.764
MS.402         	8.417          	8.792
MS.403         	8.4            	8.776
MS.404         	8.385          	8.776
MS.405         	8.367          	8.786
MS.406         	8.35           	8.782
MS.407         	8.335          	8.784
MS.408         	8.318          	8.776
MS.409         	8.3            	8.78
MS.410         	8.285          	8.804
MS.411         	8.267          	8.782
MS.412         	8.252          	8.814
MS.413         	8.235          	8.792
MS.414         	8.217          	8.808
MS.415         	8.202          	8.802
MS.416         	8.185          	8.846
MS.417         	8.17           	8.792
MS.418         	8.153          	8.814
MS.419         	8.137          	8.816
MS.420         	8.12           	8.814
MS.421         	8.105          	8.818
MS.422         	8.087          	8.82
MS.423         	8.073          	8.78
MS.424         	8.055          	8.81
MS.425         	8.04           	8.832
MS.426         	8.023          	8.832
MS.427         	8.007          	8.824
MS.428         	7.992          	8.806
MS.429         	7.975          	8.832
MS.430         	7.96           	8.8
MS.431         	7.942          	8.818
MS.432         	7.927          	8.836
MS.433         	7.912          	8.844
MS.434         	7.895          	8.844
MS.435         	7.88           	8.844
MS.436         	7.865          	8.834
MS.437         	7.85           	8.824
MS.438         	7.832          	8.842
MS.439         	7.817          	8.814
MS.440         	7.802          	8.852
MS.441         	7.787          	8.848
MS.442         	7.77           	8.854
MS.443         	7.755          	8.856
MS.444         	7.74           	8.84
MS.445         	7.725          	8.858
MS.446         	7.71           	8.826
MS.447         	7.692          	8.854
MS.448         	7.677          	8.85
MS.449         	7.662          	8.872
MS.450         	7.648          	8.852
MS.451         	7.632          	8.852
MS.452         	7.617          	8.85
MS.453         	7.602          	8.862
MS.454         	7.587          	8.866
MS.455         	7.572          	8.866
MS.456         	7.555          	8.866
MS.457         	7.54           	8.884
MS.458         	7.525          	8.874
MS.459         	7.51           	8.86
MS.460         	7.495          	8.874
MS.461         	7.48           	8.864
MS.462         	7.465          	8.888
MS.463         	7.45           	8.866
MS.464         	7.438          	8.876
MS.465         	7.422          	8.899
MS.466         	7.407          	8.866
MS.467         	7.392          	8.88
MS.468         	7.378          	8.868
MS.469         	7.362          	8.876
MS.470         	7.347          	8.872
MS.471         	7.332          	8.893
MS.472         	7.317          	8.87
MS.473         	7.302          	8.893
MS.474         	7.29           	8.901
MS.475         	7.275          	8.872
MS.476         	7.26           	8.901
MS.477         	7.245          	8.88
MS.478         	7.23           	8.888
MS.479         	7.217          	8.915
MS.480         	7.202          	8.888
MS.481         	7.188          	8.941
MS.482         	7.172          	8.917
MS.483         	7.16           	8.917
MS.484         	7.145          	8.915
MS.485         	7.13           	8.931
MS.486         	7.115          	8.939
MS.487         	7.102          	8.893
MS.488         	7.087          	8.981
MS.489         	7.072          	8.959
MS.490         	7.06           	8.971
MS.491         	7.045          	8.997
MS.492         	7.032          	8.943
MS.493         	7.017          	9.034
MS.494         	7.003          	9.005
MS.495         	6.99           	9.078
MS.496         	6.975          	9.04
MS.497         	6.962          	8.792
MS.498         	6.947          	9.011
MS.499         	6.932          	8.997
MS.500         	6.92           	9.038
MS.501         	6.905          	9.05
