File:              	C:\Qtrac\Data\Daniel M Sørensen\MScan multicentre study\Data from centres\Odense\Processed data\TKC01116A (2).QZD
Name:              	DK.ODE.NC.10.1
Protocol:          	MSCAN-R2
Date:              	16/11/20
Start time:        	12:06:55
Age:               	74
Sex:               	M
Temperature:       	32.1
S/R sites:         	APB
NC/disease:        	NC
Operator:          	TK
Comments:
M-SCAN DATA (6.4-0.6m)
Scanpts: 183, 190, 541, 551
Stim. (mA)     	Amp. (mV)
MS.1           	15             	8.262
MS.2           	15             	8.278
MS.3           	15             	8.274
MS.4           	15             	8.278
MS.5           	15             	8.278
MS.6           	15             	8.248
MS.7           	15             	8.286
MS.8           	15             	8.268
MS.9           	15             	8.304
MS.10          	15             	8.304
MS.11          	15             	8.292
MS.12          	15             	8.298
MS.13          	15             	8.318
MS.14          	15             	8.31
MS.15          	15             	8.308
MS.16          	15             	8.31
MS.17          	15             	8.353
MS.18          	15             	8.314
MS.19          	15             	8.312
MS.20          	15             	8.32
MS.21          	15             	8.351
MS.22          	15             	8.333
MS.23          	15             	8.341
MS.24          	14.94          	8.341
MS.25          	14.91          	8.323
MS.26          	14.88          	8.345
MS.27          	14.85          	8.359
MS.28          	14.82          	8.349
MS.29          	14.792         	8.365
MS.30          	14.762         	8.345
MS.31          	14.733         	8.337
MS.32          	14.702         	8.351
MS.33          	14.672         	8.361
MS.34          	14.645         	8.361
MS.35          	14.615         	8.331
MS.36          	14.585         	8.316
MS.37          	14.557         	8.345
MS.38          	14.527         	8.318
MS.39          	14.497         	8.333
MS.40          	14.47          	8.385
MS.41          	14.44          	8.355
MS.42          	14.412         	8.371
MS.43          	14.382         	8.367
MS.44          	14.355         	8.403
MS.45          	14.325         	8.423
MS.46          	14.297         	8.441
MS.47          	14.267         	8.415
MS.48          	14.24          	8.393
MS.49          	14.212         	8.395
MS.50          	14.182         	8.431
MS.51          	14.155         	8.405
MS.52          	14.127         	8.381
MS.53          	14.097         	8.401
MS.54          	14.07          	8.381
MS.55          	14.042         	8.395
MS.56          	14.015         	8.365
MS.57          	13.985         	8.415
MS.58          	13.957         	8.399
MS.59          	13.93          	8.405
MS.60          	13.903         	8.369
MS.61          	13.875         	8.355
MS.62          	13.847         	8.393
MS.63          	13.82          	8.385
MS.64          	13.792         	8.373
MS.65          	13.765         	8.373
MS.66          	13.737         	8.381
MS.67          	13.71          	8.383
MS.68          	13.682         	8.383
MS.69          	13.655         	8.393
MS.70          	13.627         	8.401
MS.71          	13.6           	8.385
MS.72          	13.572         	8.369
MS.73          	13.545         	8.395
MS.74          	13.517         	8.375
MS.75          	13.492         	8.393
MS.76          	13.465         	8.401
MS.77          	13.438         	8.395
MS.78          	13.41          	8.403
MS.79          	13.385         	8.391
MS.80          	13.358         	8.391
MS.81          	13.33          	8.379
MS.82          	13.305         	8.395
MS.83          	13.278         	8.407
MS.84          	13.25          	8.405
MS.85          	13.225         	8.401
MS.86          	13.197         	8.371
MS.87          	13.172         	8.377
MS.88          	13.145         	8.391
MS.89          	13.12          	8.379
MS.90          	13.092         	8.397
MS.91          	13.068         	8.425
MS.92          	13.04          	8.391
MS.93          	13.015         	8.405
MS.94          	12.987         	8.363
MS.95          	12.962         	8.385
MS.96          	12.938         	8.385
MS.97          	12.91          	8.369
MS.98          	12.885         	8.423
MS.99          	12.86          	8.407
MS.100         	12.832         	8.385
MS.101         	12.807         	8.403
MS.102         	12.782         	8.393
MS.103         	12.757         	8.415
MS.104         	12.73          	8.419
MS.105         	12.705         	8.415
MS.106         	12.68          	8.401
MS.107         	12.655         	8.425
MS.108         	12.63          	8.405
MS.109         	12.605         	8.407
MS.110         	12.58          	8.419
MS.111         	12.555         	8.397
MS.112         	12.53          	8.437
MS.113         	12.505         	8.397
MS.114         	12.48          	8.421
MS.115         	12.455         	8.464
MS.116         	12.43          	8.413
MS.117         	12.405         	8.443
MS.118         	12.38          	8.433
MS.119         	12.355         	8.453
MS.120         	12.33          	8.439
MS.121         	12.305         	8.427
MS.122         	12.28          	8.441
MS.123         	12.257         	8.439
MS.124         	12.233         	8.443
MS.125         	12.207         	8.47
MS.126         	12.182         	8.445
MS.127         	12.157         	8.474
MS.128         	12.135         	8.48
MS.129         	12.11          	8.451
MS.130         	12.085         	8.455
MS.131         	12.062         	8.49
MS.132         	12.037         	8.449
MS.133         	12.012         	8.466
MS.134         	11.99          	8.484
MS.135         	11.965         	8.474
MS.136         	11.943         	8.484
MS.137         	11.917         	8.461
MS.138         	11.895         	8.496
MS.139         	11.87          	8.468
MS.140         	11.847         	8.459
MS.141         	11.822         	8.466
MS.142         	11.8           	8.51
MS.143         	11.775         	8.431
MS.144         	11.752         	8.468
MS.145         	11.73          	8.466
MS.146         	11.705         	8.47
MS.147         	11.682         	8.451
MS.148         	11.657         	8.461
MS.149         	11.635         	8.445
MS.150         	11.613         	8.476
MS.151         	11.59          	8.459
MS.152         	11.565         	8.447
MS.153         	11.542         	8.466
MS.154         	11.52          	8.464
MS.155         	11.497         	8.504
MS.156         	11.472         	8.502
MS.157         	11.45          	8.476
MS.158         	11.427         	8.478
MS.159         	11.405         	8.464
MS.160         	11.382         	8.433
MS.161         	11.36          	8.464
MS.162         	11.337         	8.443
MS.163         	11.315         	8.451
MS.164         	11.292         	8.435
MS.165         	11.27          	8.441
MS.166         	11.247         	8.447
MS.167         	11.225         	8.453
MS.168         	11.202         	8.429
MS.169         	11.18          	8.427
MS.170         	11.157         	8.421
MS.171         	11.135         	8.431
MS.172         	11.113         	8.455
MS.173         	11.09          	8.532
MS.174         	11.068         	8.492
MS.175         	11.045         	8.484
MS.176         	11.023         	8.484
MS.177         	11.002         	8.506
MS.178         	10.98          	8.447
MS.179         	10.957         	8.468
MS.180         	10.935         	8.449
MS.181         	10.915         	8.464
MS.182         	10.892         	8.457
MS.183         	10.87          	8.48
MS.184         	10.847         	8.443
MS.185         	10.827         	8.492
MS.186         	10.805         	8.478
MS.187         	10.785         	8.48
MS.188         	10.762         	8.435
MS.189         	10.74          	8.492
MS.190         	10.72          	8.466
MS.191         	10.698         	8.474
MS.192         	10.677         	8.488
MS.193         	10.655         	8.484
MS.194         	10.635         	8.486
MS.195         	10.613         	8.488
MS.196         	10.592         	8.478
MS.197         	10.57          	8.457
MS.198         	10.55          	8.47
MS.199         	10.528         	8.417
MS.200         	10.507         	8.252
MS.201         	10.485         	8.318
MS.202         	10.465         	8.363
MS.203         	10.445         	8.337
MS.204         	10.422         	8.383
MS.205         	10.403         	8.417
MS.206         	10.382         	8.395
MS.207         	10.36          	8.359
MS.208         	10.34          	8.375
MS.209         	10.32          	8.385
MS.210         	10.3           	8.351
MS.211         	10.278         	8.403
MS.212         	10.257         	8.375
MS.213         	10.238         	8.369
MS.214         	10.217         	8.369
MS.215         	10.198         	8.341
MS.216         	10.175         	8.371
MS.217         	10.155         	8.353
MS.218         	10.135         	8.351
MS.219         	10.115         	8.369
MS.220         	10.095         	8.345
MS.221         	10.075         	8.363
MS.222         	10.055         	8.347
MS.223         	10.035         	8.337
MS.224         	10.015         	8.343
MS.225         	9.995          	8.351
MS.226         	9.975          	8.341
MS.227         	9.955          	8.349
MS.228         	9.935          	8.343
MS.229         	9.915          	8.347
MS.230         	9.895          	8.333
MS.231         	9.875          	8.333
MS.232         	9.855          	8.331
MS.233         	9.835          	8.298
MS.234         	9.818          	8.327
MS.235         	9.797          	8.341
MS.236         	9.778          	8.284
MS.237         	9.757          	8.341
MS.238         	9.738          	8.3
MS.239         	9.717          	8.081
MS.240         	9.7            	8.099
MS.241         	9.68           	8.083
MS.242         	9.66           	8.055
MS.243         	9.64           	8.085
MS.244         	9.622          	8.083
MS.245         	9.602          	8.318
MS.246         	9.582          	7.992
MS.247         	9.565          	8.047
MS.248         	9.545          	8.034
MS.249         	9.525          	7.992
MS.250         	9.507          	7.94
MS.251         	9.488          	7.98
MS.252         	9.47           	8.004
MS.253         	9.45           	8.061
MS.254         	9.432          	7.97
MS.255         	9.412          	7.936
MS.256         	9.395          	7.996
MS.257         	9.375          	7.96
MS.258         	9.358          	7.996
MS.259         	9.337          	7.97
MS.260         	9.32           	8.081
MS.261         	9.3            	7.984
MS.262         	9.283          	7.857
MS.263         	9.262          	7.904
MS.264         	9.245          	7.889
MS.265         	9.225          	7.853
MS.266         	9.207          	7.847
MS.267         	9.19           	7.853
MS.268         	9.17           	7.908
MS.269         	9.153          	7.887
MS.270         	9.135          	7.857
MS.271         	9.115          	7.726
MS.272         	9.097          	7.869
MS.273         	9.08           	7.72
MS.274         	9.062          	7.718
MS.275         	9.042          	7.738
MS.276         	9.025          	7.706
MS.277         	9.007          	7.676
MS.278         	8.99           	7.684
MS.279         	8.972          	7.66
MS.280         	8.952          	7.652
MS.281         	8.935          	7.581
MS.282         	8.917          	7.648
MS.283         	8.9            	7.662
MS.284         	8.882          	7.688
MS.285         	8.865          	7.638
MS.286         	8.847          	7.541
MS.287         	8.83           	7.591
MS.288         	8.812          	7.541
MS.289         	8.795          	7.624
MS.290         	8.775          	7.607
MS.291         	8.757          	7.521
MS.292         	8.74           	7.652
MS.293         	8.722          	7.533
MS.294         	8.707          	7.607
MS.295         	8.69           	7.529
MS.296         	8.672          	7.495
MS.297         	8.655          	7.525
MS.298         	8.637          	7.493
MS.299         	8.62           	7.555
MS.300         	8.602          	7.507
MS.301         	8.585          	7.265
MS.302         	8.568          	7.233
MS.303         	8.55           	7.551
MS.304         	8.535          	7.509
MS.305         	8.517          	7.102
MS.306         	8.5            	7.503
MS.307         	8.483          	7.185
MS.308         	8.465          	7.112
MS.309         	8.45           	7.178
MS.310         	8.432          	6.961
MS.311         	8.415          	7.154
MS.312         	8.398          	6.888
MS.313         	8.382          	7.108
MS.314         	8.365          	6.874
MS.315         	8.347          	6.923
MS.316         	8.332          	6.544
MS.317         	8.315          	7.199
MS.318         	8.297          	6.88
MS.319         	8.283          	6.77
MS.320         	8.265          	6.615
MS.321         	8.247          	6.707
MS.322         	8.233          	6.224
MS.323         	8.215          	6.743
MS.324         	8.2            	6.389
MS.325         	8.182          	6.047
MS.326         	8.167          	6.099
MS.327         	8.15           	6.375
MS.328         	8.135          	5.742
MS.329         	8.117          	6.165
MS.330         	8.102          	5.906
MS.331         	8.085          	5.986
MS.332         	8.07           	5.656
MS.333         	8.052          	5.928
MS.334         	8.037          	5.553
MS.335         	8.02           	5.269
MS.336         	8.005          	5.331
MS.337         	7.99           	5.16
MS.338         	7.972          	5.239
MS.339         	7.957          	5.491
MS.340         	7.94           	5.146
MS.341         	7.925          	5.325
MS.342         	7.91           	4.975
MS.343         	7.892          	4.983
MS.344         	7.878          	5.035
MS.345         	7.862          	4.965
MS.346         	7.847          	4.993
MS.347         	7.83           	4.816
MS.348         	7.815          	4.876
MS.349         	7.8            	4.87
MS.350         	7.785          	5.001
MS.351         	7.767          	4.743
MS.352         	7.753          	4.524
MS.353         	7.737          	4.588
MS.354         	7.722          	4.57
MS.355         	7.707          	4.361
MS.356         	7.69           	4.665
MS.357         	7.675          	4.435
MS.358         	7.66           	4.419
MS.359         	7.645          	4.218
MS.360         	7.63           	4.198
MS.361         	7.615          	4.278
MS.362         	7.6            	4.252
MS.363         	7.585          	3.952
MS.364         	7.57           	4.002
MS.365         	7.555          	3.871
MS.366         	7.537          	3.811
MS.367         	7.523          	3.579
MS.368         	7.507          	3.849
MS.369         	7.492          	3.533
MS.370         	7.477          	3.702
MS.371         	7.462          	3.813
MS.372         	7.447          	3.327
MS.373         	7.435          	3.644
MS.374         	7.42           	3.358
MS.375         	7.405          	3.313
MS.376         	7.39           	3.203
MS.377         	7.375          	3.313
MS.378         	7.36           	3.182
MS.379         	7.345          	3.047
MS.380         	7.33           	3.106
MS.381         	7.315          	3.011
MS.382         	7.302          	3.233
MS.383         	7.287          	3.182
MS.384         	7.273          	3.051
MS.385         	7.257          	3.053
MS.386         	7.242          	2.995
MS.387         	7.227          	3.076
MS.388         	7.215          	2.929
MS.389         	7.2            	2.83
MS.390         	7.185          	3.015
MS.391         	7.17           	2.792
MS.392         	7.157          	2.824
MS.393         	7.142          	2.771
MS.394         	7.128          	2.737
MS.395         	7.115          	2.703
MS.396         	7.1            	2.697
MS.397         	7.085          	2.528
MS.398         	7.072          	2.407
MS.399         	7.057          	2.461
MS.400         	7.043          	2.572
MS.401         	7.03           	2.524
MS.402         	7.015          	2.355
MS.403         	7              	2.175
MS.404         	6.987          	2.429
MS.405         	6.972          	2.218
MS.406         	6.96           	2.002
MS.407         	6.945          	1.996
MS.408         	6.932          	2.113
MS.409         	6.918          	2.042
MS.410         	6.902          	1.736
MS.411         	6.89           	1.688
MS.412         	6.875          	1.656
MS.413         	6.862          	1.583
MS.414         	6.847          	1.507
MS.415         	6.835          	1.529
MS.416         	6.822          	1.674
MS.417         	6.807          	1.573
MS.418         	6.795          	1.488
MS.419         	6.78           	1.412
MS.420         	6.767          	1.233
MS.421         	6.753          	1.273
MS.422         	6.74           	1.249
MS.423         	6.727          	1.219
MS.424         	6.712          	1.269
MS.425         	6.7            	1.156
MS.426         	6.685          	1.098
MS.427         	6.672          	1.227
MS.428         	6.66           	1.116
MS.429         	6.645          	0.987
MS.430         	6.632          	1.11
MS.431         	6.62           	0.878
MS.432         	6.608          	0.975
MS.433         	6.592          	1.136
MS.434         	6.58           	0.864
MS.435         	6.567          	0.957
MS.436         	6.555          	0.614
MS.437         	6.54           	0.971
MS.438         	6.527          	0.709
MS.439         	6.515          	0.679
MS.440         	6.503          	0.594
MS.441         	6.487          	0.606
MS.442         	6.475          	0.546
MS.443         	6.462          	0.645
MS.444         	6.45           	0.55
MS.445         	6.438          	0.405
MS.446         	6.425          	0.459
MS.447         	6.41           	0.53
MS.448         	6.398          	0.437
MS.449         	6.385          	0.344
MS.450         	6.372          	0.389
MS.451         	6.36           	0.403
MS.452         	6.347          	0.433
MS.453         	6.335          	0.375
MS.454         	6.322          	0.298
MS.455         	6.31           	0.336
MS.456         	6.297          	0.242
MS.457         	6.285          	0.242
MS.458         	6.273          	0.276
MS.459         	6.26           	0.346
MS.460         	6.247          	0.346
MS.461         	6.235          	0.278
MS.462         	6.222          	0.242
MS.463         	6.21           	0.342
MS.464         	6.197          	0.207
MS.465         	6.185          	0.181
MS.466         	6.172          	0.139
MS.467         	6.16           	0.207
MS.468         	6.148          	0.145
MS.469         	6.135          	0.153
MS.470         	6.122          	0.165
MS.471         	6.11           	0.153
MS.472         	6.097          	0.183
MS.473         	6.088          	0.135
MS.474         	6.075          	0.131
MS.475         	6.062          	0.119
MS.476         	6.05           	0.105
MS.477         	6.037          	0.111
MS.478         	6.025          	0.095
MS.479         	6.012          	0.101
MS.480         	6.003          	0.099
MS.481         	5.99           	0.111
MS.482         	5.977          	0.083
MS.483         	5.965          	0.117
MS.484         	5.955          	0.02
MS.485         	5.942          	0.123
MS.486         	5.93           	0.089
MS.487         	5.918          	0.089
MS.488         	5.907          	0.087
MS.489         	5.895          	0.083
MS.490         	5.882          	0.028
MS.491         	5.87           	0.079
MS.492         	5.86           	0.087
MS.493         	5.847          	0.06
MS.494         	5.835          	0.079
MS.495         	5.825          	0.073
MS.496         	5.812          	0.052
MS.497         	5.8            	0.054
MS.498         	5.79           	0.036
MS.499         	5.777          	0.052
MS.500         	5.767          	0.06
