File:              	C:\Qtrac\Data\Daniel M Sørensen\MScan multicentre study\Data from centres\Odense\Processed data\TKC00218A.QZD
Name:              	DK.ODE.NC.1.1
Protocol:          	MSCAN-R2
Date:              	18/2/20
Start time:        	13:56:40
Age:               	32
Sex:               	M
Temperature:       	31.8
S/R sites:         	APB
NC/disease:        	NC
Operator:          	TK
Comments:
M-SCAN DATA (6.6-1.9m)
Scanpts: 45, 49, 491, 512
Stim. (mA)     	Amp. (mV)
MS.1           	13.5           	6.973
MS.2           	13.5           	6.955
MS.3           	13.5           	7.019
MS.4           	13.5           	6.985
MS.5           	13.5           	6.806
MS.6           	13.5           	6.945
MS.7           	13.5           	6.945
MS.8           	13.5           	6.917
MS.9           	13.5           	6.915
MS.10          	13.5           	6.939
MS.11          	13.5           	6.969
MS.12          	13.5           	6.971
MS.13          	13.5           	6.965
MS.14          	13.5           	6.925
MS.15          	13.5           	7.001
MS.16          	13.5           	7.005
MS.17          	13.5           	7.023
MS.18          	13.5           	7.042
MS.19          	13.5           	7.007
MS.20          	13.5           	7.023
MS.21          	13.5           	7.025
MS.22          	13.5           	7.054
MS.23          	13.5           	7.07
MS.24          	13.445         	7.07
MS.25          	13.42          	6.905
MS.26          	13.392         	6.886
MS.27          	13.365         	6.907
MS.28          	13.34          	7.035
MS.29          	13.312         	6.929
MS.30          	13.285         	6.848
MS.31          	13.26          	6.898
MS.32          	13.233         	6.917
MS.33          	13.205         	6.917
MS.34          	13.18          	6.929
MS.35          	13.153         	6.959
MS.36          	13.127         	7.021
MS.37          	13.1           	7.058
MS.38          	13.075         	7.215
MS.39          	13.047         	7.106
MS.40          	13.023         	7.148
MS.41          	12.997         	7.132
MS.42          	12.97          	7.158
MS.43          	12.945         	7.16
MS.44          	12.92          	7.05
MS.45          	12.892         	7.176
MS.46          	12.867         	7.15
MS.47          	12.842         	7.168
MS.48          	12.815         	7.128
MS.49          	12.79          	7.14
MS.50          	12.765         	7.142
MS.51          	12.74          	7.029
MS.52          	12.715         	7.05
MS.53          	12.688         	7.062
MS.54          	12.662         	7.074
MS.55          	12.637         	7.098
MS.56          	12.613         	7.201
MS.57          	12.587         	7.084
MS.58          	12.562         	7.098
MS.59          	12.537         	7.019
MS.60          	12.512         	7.102
MS.61          	12.488         	7.082
MS.62          	12.462         	7.094
MS.63          	12.438         	7.084
MS.64          	12.412         	7.084
MS.65          	12.387         	6.965
MS.66          	12.363         	6.945
MS.67          	12.337         	7.058
MS.68          	12.312         	7.05
MS.69          	12.29          	7.05
MS.70          	12.265         	7.054
MS.71          	12.24          	6.939
MS.72          	12.215         	6.943
MS.73          	12.19          	6.999
MS.74          	12.167         	6.868
MS.75          	12.142         	6.901
MS.76          	12.117         	6.913
MS.77          	12.092         	6.947
MS.78          	12.07          	6.727
MS.79          	12.045         	6.707
MS.80          	12.023         	6.731
MS.81          	11.997         	6.695
MS.82          	11.972         	6.743
MS.83          	11.95          	6.705
MS.84          	11.925         	6.854
MS.85          	11.903         	6.943
MS.86          	11.877         	6.747
MS.87          	11.855         	6.737
MS.88          	11.83          	6.729
MS.89          	11.807         	6.872
MS.90          	11.782         	6.681
MS.91          	11.76          	6.991
MS.92          	11.738         	6.913
MS.93          	11.712         	6.949
MS.94          	11.69          	6.917
MS.95          	11.665         	6.802
MS.96          	11.642         	6.77
MS.97          	11.62          	6.745
MS.98          	11.597         	6.878
MS.99          	11.572         	6.713
MS.100         	11.55          	6.705
MS.101         	11.528         	6.739
MS.102         	11.505         	6.725
MS.103         	11.48          	6.703
MS.104         	11.457         	6.707
MS.105         	11.435         	6.729
MS.106         	11.412         	6.725
MS.107         	11.39          	6.725
MS.108         	11.367         	6.627
MS.109         	11.345         	6.588
MS.110         	11.322         	6.592
MS.111         	11.297         	6.637
MS.112         	11.275         	6.619
MS.113         	11.252         	6.723
MS.114         	11.23          	6.621
MS.115         	11.207         	6.663
MS.116         	11.188         	6.584
MS.117         	11.165         	6.659
MS.118         	11.142         	6.649
MS.119         	11.12          	6.586
MS.120         	11.097         	6.594
MS.121         	11.075         	6.6
MS.122         	11.052         	6.516
MS.123         	11.03          	6.411
MS.124         	11.007         	6.457
MS.125         	10.988         	6.574
MS.126         	10.965         	6.49
MS.127         	10.943         	6.437
MS.128         	10.92          	6.393
MS.129         	10.9           	6.445
MS.130         	10.877         	6.351
MS.131         	10.855         	6.335
MS.132         	10.835         	6.282
MS.133         	10.812         	6.399
MS.134         	10.79          	6.248
MS.135         	10.77          	6.149
MS.136         	10.747         	6.079
MS.137         	10.725         	5.94
MS.138         	10.705         	6.004
MS.139         	10.682         	5.789
MS.140         	10.662         	6.091
MS.141         	10.64          	5.97
MS.142         	10.62          	5.833
MS.143         	10.597         	5.62
MS.144         	10.577         	5.636
MS.145         	10.555         	5.545
MS.146         	10.535         	5.136
MS.147         	10.515         	5.624
MS.148         	10.492         	5.295
MS.149         	10.472         	5.477
MS.150         	10.45          	5.066
MS.151         	10.43          	5.096
MS.152         	10.41          	5.495
MS.153         	10.387         	4.983
MS.154         	10.367         	5.082
MS.155         	10.347         	5.035
MS.156         	10.325         	5.289
MS.157         	10.305         	4.896
MS.158         	10.285         	4.848
MS.159         	10.265         	5.06
MS.160         	10.245         	4.729
MS.161         	10.222         	4.649
MS.162         	10.202         	4.735
MS.163         	10.182         	4.355
MS.164         	10.162         	4.705
MS.165         	10.142         	4.457
MS.166         	10.122         	4.437
MS.167         	10.102         	4.558
MS.168         	10.082         	4.059
MS.169         	10.06          	4.405
MS.170         	10.04          	4.389
MS.171         	10.02          	4.149
MS.172         	10             	4.107
MS.173         	9.98           	4.437
MS.174         	9.96           	4.403
MS.175         	9.94           	4.193
MS.176         	9.922          	4.002
MS.177         	9.903          	3.851
MS.178         	9.882          	3.891
MS.179         	9.863          	4.065
MS.180         	9.842          	3.64
MS.181         	9.823          	3.841
MS.182         	9.802          	3.575
MS.183         	9.782          	3.43
MS.184         	9.765          	3.247
MS.185         	9.745          	3.301
MS.186         	9.725          	3.587
MS.187         	9.705          	3.192
MS.188         	9.685          	3.333
MS.189         	9.667          	3.025
MS.190         	9.648          	3.023
MS.191         	9.627          	3.217
MS.192         	9.61           	3.231
MS.193         	9.59           	3.074
MS.194         	9.57           	2.788
MS.195         	9.552          	2.923
MS.196         	9.532          	2.925
MS.197         	9.512          	2.725
MS.198         	9.495          	2.689
MS.199         	9.475          	2.641
MS.200         	9.457          	2.731
MS.201         	9.438          	2.584
MS.202         	9.417          	2.469
MS.203         	9.4            	2.427
MS.204         	9.38           	2.272
MS.205         	9.363          	2.377
MS.206         	9.342          	2.542
MS.207         	9.325          	2.123
MS.208         	9.305          	2.141
MS.209         	9.287          	2.012
MS.210         	9.27           	2.123
MS.211         	9.25           	2.087
MS.212         	9.233          	1.909
MS.213         	9.212          	1.77
MS.214         	9.195          	2.133
MS.215         	9.177          	2.044
MS.216         	9.158          	1.94
MS.217         	9.14           	1.829
MS.218         	9.122          	1.72
MS.219         	9.102          	1.424
MS.220         	9.085          	1.617
MS.221         	9.068          	1.688
MS.222         	9.05           	1.758
MS.223         	9.03           	1.642
MS.224         	9.012          	1.531
MS.225         	8.995          	1.404
MS.226         	8.977          	1.293
MS.227         	8.96           	1.18
MS.228         	8.943          	1.271
MS.229         	8.922          	1.39
MS.230         	8.905          	0.979
MS.231         	8.887          	1.015
MS.232         	8.87           	1.098
MS.233         	8.852          	1.033
MS.234         	8.835          	0.916
MS.235         	8.818          	0.906
MS.236         	8.8            	1.104
MS.237         	8.783          	0.765
MS.238         	8.765          	0.82
MS.239         	8.747          	0.713
MS.240         	8.73           	0.969
MS.241         	8.712          	0.838
MS.242         	8.695          	0.771
MS.243         	8.677          	0.655
MS.244         	8.66           	0.647
MS.245         	8.642          	0.671
MS.246         	8.625          	0.606
MS.247         	8.608          	0.576
MS.248         	8.59           	0.624
MS.249         	8.573          	0.643
MS.250         	8.557          	0.566
MS.251         	8.54           	0.655
MS.252         	8.523          	0.548
MS.253         	8.505          	0.524
MS.254         	8.488          	0.451
MS.255         	8.472          	0.471
MS.256         	8.455          	0.455
MS.257         	8.438          	0.518
MS.258         	8.42           	0.439
MS.259         	8.405          	0.427
MS.260         	8.387          	0.381
MS.261         	8.37           	0.377
MS.262         	8.352          	0.352
MS.263         	8.337          	0.324
MS.264         	8.32           	0.363
MS.265         	8.302          	0.385
MS.266         	8.287          	0.344
MS.267         	8.27           	0.348
MS.268         	8.255          	0.312
MS.269         	8.238          	0.34
MS.270         	8.22           	0.316
MS.271         	8.205          	0.332
MS.272         	8.188          	0.298
MS.273         	8.172          	0.342
MS.274         	8.155          	0.314
MS.275         	8.14           	0.292
MS.276         	8.122          	0.244
MS.277         	8.108          	0.294
MS.278         	8.09           	0.26
MS.279         	8.075          	0.236
MS.280         	8.057          	0.23
MS.281         	8.042          	0.23
MS.282         	8.025          	0.228
MS.283         	8.01           	0.238
MS.284         	7.995          	0.232
MS.285         	7.977          	0.232
MS.286         	7.962          	0.236
MS.287         	7.945          	0.207
MS.288         	7.93           	0.207
MS.289         	7.915          	0.205
MS.290         	7.898          	0.216
MS.291         	7.882          	0.167
MS.292         	7.867          	0.183
MS.293         	7.852          	0.157
MS.294         	7.835          	0.141
MS.295         	7.82           	0.173
MS.296         	7.805          	0.189
MS.297         	7.79           	0.173
MS.298         	7.773          	0.149
MS.299         	7.757          	0.131
MS.300         	7.742          	0.119
MS.301         	7.727          	0.145
MS.302         	7.712          	0.109
MS.303         	7.695          	0.119
MS.304         	7.68           	0.113
MS.305         	7.665          	0.151
MS.306         	7.65           	0.107
MS.307         	7.635          	0.101
MS.308         	7.62           	0.117
MS.309         	7.605          	0.113
MS.310         	7.59           	0.115
MS.311         	7.572          	0.113
MS.312         	7.557          	0.105
MS.313         	7.543          	0.111
MS.314         	7.527          	0.089
MS.315         	7.512          	0.089
MS.316         	7.497          	0.101
MS.317         	7.482          	0.085
MS.318         	7.467          	0.115
MS.319         	7.452          	0.115
MS.320         	7.438          	0.093
MS.321         	7.425          	0.081
MS.322         	7.41           	0.056
MS.323         	7.395          	0.099
MS.324         	7.38           	0.097
MS.325         	7.365          	0.068
MS.326         	7.35           	0.085
MS.327         	7.335          	0.066
MS.328         	7.32           	0.058
MS.329         	7.305          	0.068
MS.330         	7.293          	0.064
MS.331         	7.277          	0.062
MS.332         	7.262          	0.06
MS.333         	7.247          	0.062
MS.334         	7.233          	0.066
MS.335         	7.22           	0.058
MS.336         	7.205          	0.083
MS.337         	7.19           	0.06
MS.338         	7.175          	0.066
MS.339         	7.162          	0.06
MS.340         	7.148          	0.06
MS.341         	7.132          	0.058
MS.342         	7.117          	0.062
MS.343         	7.105          	0.06
MS.344         	7.09           	0.066
MS.345         	7.075          	0.06
MS.346         	7.062          	0.062
MS.347         	7.047          	0.058
MS.348         	7.032          	0.062
MS.349         	7.02           	0.062
MS.350         	7.005          	0.062
MS.351         	6.992          	0.06
MS.352         	6.977          	0.07
MS.353         	6.962          	0.058
MS.354         	6.95           	0.06
MS.355         	6.935          	0.05
MS.356         	6.922          	0.06
MS.357         	6.907          	0.062
MS.358         	6.895          	0.064
MS.359         	6.88           	0.062
MS.360         	6.867          	0.056
MS.361         	6.852          	0.062
MS.362         	6.84           	0.056
MS.363         	6.825          	0.064
MS.364         	6.812          	0.06
MS.365         	6.797          	0.058
MS.366         	6.785          	0.068
MS.367         	6.773          	0.058
MS.368         	6.757          	0.066
MS.369         	6.745          	0.062
MS.370         	6.73           	0.052
MS.371         	6.717          	0.06
MS.372         	6.705          	0.06
MS.373         	6.69           	0.062
MS.374         	6.677          	0.064
MS.375         	6.665          	0.06
MS.376         	6.65           	0.058
MS.377         	6.637          	0.06
MS.378         	6.625          	0.062
MS.379         	6.61           	0.058
MS.380         	6.597          	0.056
MS.381         	6.585          	0.064
MS.382         	6.57           	0.062
MS.383         	6.557          	0.06
MS.384         	6.545          	0.06
MS.385         	6.532          	0.056
MS.386         	6.52           	0.056
MS.387         	6.505          	0.056
MS.388         	6.492          	0.062
MS.389         	6.48           	0.056
MS.390         	6.467          	0.066
MS.391         	6.455          	0.06
MS.392         	6.44           	0.056
MS.393         	6.427          	0.056
MS.394         	6.415          	0.056
MS.395         	6.402          	0.054
MS.396         	6.39           	0.066
MS.397         	6.378          	0.062
MS.398         	6.365          	0.06
MS.399         	6.352          	0.058
MS.400         	6.34           	0.06
MS.401         	6.325          	0.054
MS.402         	6.312          	0.06
MS.403         	6.3            	0.062
MS.404         	6.287          	0.056
MS.405         	6.275          	0.06
MS.406         	6.262          	0.058
MS.407         	6.25           	0.064
MS.408         	6.237          	0.054
MS.409         	6.225          	0.05
MS.410         	6.213          	0.058
MS.411         	6.2            	0.052
MS.412         	6.188          	0.056
MS.413         	6.175          	0.056
MS.414         	6.165          	0.06
MS.415         	6.152          	0.073
MS.416         	6.14           	0.06
MS.417         	6.128          	0.06
MS.418         	6.115          	0.062
MS.419         	6.102          	0.064
MS.420         	6.09           	0.06
MS.421         	6.077          	0.06
MS.422         	6.065          	0.06
MS.423         	6.055          	0.052
MS.424         	6.043          	0.066
MS.425         	6.03           	0.058
MS.426         	6.017          	0.05
MS.427         	6.005          	0.054
MS.428         	5.992          	0.056
MS.429         	5.983          	0.062
MS.430         	5.97           	0.052
MS.431         	5.957          	0.064
MS.432         	5.945          	0.054
MS.433         	5.935          	0.058
MS.434         	5.922          	0.06
MS.435         	5.91           	0.062
MS.436         	5.898          	0.058
MS.437         	5.887          	0.06
MS.438         	5.875          	0.05
MS.439         	5.862          	0.052
MS.440         	5.852          	0.064
MS.441         	5.84           	0.05
MS.442         	5.827          	0.05
MS.443         	5.817          	0.054
MS.444         	5.805          	0.064
MS.445         	5.793          	0.062
MS.446         	5.782          	0.046
MS.447         	5.77           	0.048
MS.448         	5.757          	0.046
MS.449         	5.747          	0.056
MS.450         	5.735          	0.054
MS.451         	5.725          	0.052
MS.452         	5.713          	0.044
MS.453         	5.702          	0.052
MS.454         	5.69           	0.052
MS.455         	5.677          	0.05
MS.456         	5.668          	0.044
MS.457         	5.655          	0.046
MS.458         	5.645          	0.05
MS.459         	5.632          	0.054
MS.460         	5.622          	0.048
MS.461         	5.61           	0.058
MS.462         	5.6            	0.048
MS.463         	5.588          	0.048
MS.464         	5.577          	0.048
MS.465         	5.565          	0.046
MS.466         	5.555          	0.044
MS.467         	5.545          	0.054
MS.468         	5.532          	0.048
MS.469         	5.523          	0.048
MS.470         	5.51           	0.054
MS.471         	5.5            	0.05
MS.472         	5.487          	0.052
MS.473         	5.477          	0.052
MS.474         	5.467          	0.046
MS.475         	5.455          	0.048
MS.476         	5.445          	0.046
MS.477         	5.435          	0.046
MS.478         	5.422          	0.056
MS.479         	5.412          	0.048
MS.480         	5.402          	0.05
MS.481         	5.39           	0.052
MS.482         	5.38           	0.048
MS.483         	5.37           	0.048
MS.484         	5.358          	0.042
MS.485         	5.347          	0.052
MS.486         	5.338          	0.05
MS.487         	5.327          	0.048
MS.488         	5.315          	0.04
MS.489         	5.305          	0.05
MS.490         	5.295          	0.05
MS.491         	5.285          	0.052
MS.492         	5.273          	0.048
MS.493         	5.262          	0.048
MS.494         	5.253          	0.052
MS.495         	5.242          	0.058
MS.496         	5.233          	0.046
MS.497         	5.22           	0.06
MS.498         	5.21           	0.048
MS.499         	5.2            	0.048
MS.500         	5.19           	0.05
MS.501         	5.18           	0.046
MS.502         	5.17           	0.042
