File:              	C:\Qtrac\Data\Daniel M Sørensen\MScan multicentre study\Data from centres\Odense\Processed data\TKC00922A.QZD
Name:              	DK.ODE.NC.4.2
Protocol:          	MSCAN-R2
Date:              	22/9/20
Start time:        	08:22:14
Age:               	51
Sex:               	F
Temperature:       	33.2
S/R sites:         	APB
NC/disease:        	NC
Operator:          	TK
Comments:
M-SCAN DATA (6.5-0.8m)
Scanpts: 13, 20, 547, 570
Stim. (mA)     	Amp. (mV)
MS.1           	29.5           	7.356
MS.2           	29.5           	7.4
MS.3           	29.5           	7.406
MS.4           	29.5           	7.396
MS.5           	29.5           	7.422
MS.6           	29.5           	7.466
MS.7           	29.5           	7.404
MS.8           	29.5           	7.444
MS.9           	29.5           	7.456
MS.10          	29.5           	7.458
MS.11          	29.5           	7.458
MS.12          	29.5           	7.442
MS.13          	29.5           	7.487
MS.14          	29.5           	7.462
MS.15          	29.5           	7.477
MS.16          	29.5           	7.479
MS.17          	29.5           	7.485
MS.18          	29.5           	7.497
MS.19          	29.5           	7.485
MS.20          	29.5           	7.475
MS.21          	29.5           	7.469
MS.22          	29.5           	7.473
MS.23          	29.382         	7.424
MS.24          	29.323         	7.436
MS.25          	29.265         	7.404
MS.26          	29.207         	7.402
MS.27          	29.147         	7.434
MS.28          	29.09          	7.43
MS.29          	29.032         	7.43
MS.30          	28.972         	7.442
MS.31          	28.915         	7.39
MS.32          	28.858         	7.366
MS.33          	28.8           	7.321
MS.34          	28.743         	7.398
MS.35          	28.685         	7.352
MS.36          	28.627         	7.386
MS.37          	28.57          	7.307
MS.38          	28.512         	7.332
MS.39          	28.457         	7.366
MS.40          	28.4           	7.291
MS.41          	28.342         	7.287
MS.42          	28.287         	7.35
MS.43          	28.23          	7.309
MS.44          	28.172         	7.309
MS.45          	28.118         	7.303
MS.46          	28.06          	7.33
MS.47          	28.005         	7.293
MS.48          	27.95          	7.285
MS.49          	27.892         	7.279
MS.50          	27.837         	7.287
MS.51          	27.782         	7.289
MS.52          	27.727         	7.263
MS.53          	27.67          	7.271
MS.54          	27.615         	7.223
MS.55          	27.56          	7.251
MS.56          	27.505         	7.243
MS.57          	27.45          	7.233
MS.58          	27.395         	7.237
MS.59          	27.34          	7.239
MS.60          	27.287         	7.233
MS.61          	27.233         	7.211
MS.62          	27.177         	7.223
MS.63          	27.122         	7.223
MS.64          	27.07          	7.221
MS.65          	27.015         	7.211
MS.66          	26.96          	7.213
MS.67          	26.907         	7.187
MS.68          	26.852         	7.191
MS.69          	26.8           	7.185
MS.70          	26.745         	7.199
MS.71          	26.692         	7.191
MS.72          	26.64          	7.17
MS.73          	26.585         	7.187
MS.74          	26.532         	7.195
MS.75          	26.48          	7.166
MS.76          	26.427         	7.185
MS.77          	26.375         	7.164
MS.78          	26.323         	7.182
MS.79          	26.27          	7.144
MS.80          	26.217         	7.146
MS.81          	26.165         	7.162
MS.82          	26.112         	7.185
MS.83          	26.06          	7.148
MS.84          	26.007         	7.164
MS.85          	25.955         	7.14
MS.86          	25.903         	7.158
MS.87          	25.852         	7.154
MS.88          	25.8           	7.142
MS.89          	25.75          	7.162
MS.90          	25.698         	7.142
MS.91          	25.645         	7.15
MS.92          	25.595         	7.136
MS.93          	25.542         	7.134
MS.94          	25.493         	7.168
MS.95          	25.442         	7.128
MS.96          	25.39          	7.106
MS.97          	25.34          	7.126
MS.98          	25.29          	7.1
MS.99          	25.24          	7.164
MS.100         	25.188         	7.009
MS.101         	25.137         	7.039
MS.102         	25.087         	7.168
MS.103         	25.038         	7.164
MS.104         	24.987         	7.154
MS.105         	24.938         	7.098
MS.106         	24.887         	7.126
MS.107         	24.837         	7.042
MS.108         	24.788         	7.052
MS.109         	24.74          	7.16
MS.110         	24.69          	7.046
MS.111         	24.64          	7.128
MS.112         	24.59          	7.027
MS.113         	24.542         	7.042
MS.114         	24.493         	7.037
MS.115         	24.445         	7.019
MS.116         	24.395         	7.052
MS.117         	24.347         	7.058
MS.118         	24.297         	7.052
MS.119         	24.25          	7.05
MS.120         	24.2           	7.048
MS.121         	24.153         	7.05
MS.122         	24.105         	7.046
MS.123         	24.055         	7.001
MS.124         	24.007         	7.033
MS.125         	23.96          	7.039
MS.126         	23.913         	7.035
MS.127         	23.865         	7.017
MS.128         	23.817         	7.021
MS.129         	23.77          	7.011
MS.130         	23.722         	7.021
MS.131         	23.675         	7.023
MS.132         	23.627         	7.023
MS.133         	23.58          	7.037
MS.134         	23.532         	7.003
MS.135         	23.485         	7.021
MS.136         	23.438         	7.019
MS.137         	23.392         	7.009
MS.138         	23.345         	7.003
MS.139         	23.297         	7.009
MS.140         	23.252         	7.015
MS.141         	23.205         	7.023
MS.142         	23.16          	7.021
MS.143         	23.112         	7.015
MS.144         	23.067         	7.027
MS.145         	23.02          	7.003
MS.146         	22.975         	6.987
MS.147         	22.927         	7.005
MS.148         	22.882         	6.987
MS.149         	22.837         	7.007
MS.150         	22.792         	6.991
MS.151         	22.745         	6.945
MS.152         	22.7           	6.987
MS.153         	22.655         	7.011
MS.154         	22.61          	6.971
MS.155         	22.565         	6.987
MS.156         	22.52          	6.969
MS.157         	22.475         	6.951
MS.158         	22.43          	6.971
MS.159         	22.385         	6.963
MS.160         	22.34          	6.937
MS.161         	22.295         	6.925
MS.162         	22.25          	6.929
MS.163         	22.207         	6.913
MS.164         	22.163         	6.901
MS.165         	22.118         	6.905
MS.166         	22.073         	6.913
MS.167         	22.03          	6.896
MS.168         	21.985         	6.894
MS.169         	21.942         	6.907
MS.170         	21.897         	6.886
MS.171         	21.855         	6.872
MS.172         	21.81          	6.907
MS.173         	21.767         	6.874
MS.174         	21.722         	6.862
MS.175         	21.68          	6.88
MS.176         	21.637         	6.872
MS.177         	21.592         	6.872
MS.178         	21.55          	6.882
MS.179         	21.507         	6.844
MS.180         	21.465         	6.85
MS.181         	21.422         	6.848
MS.182         	21.377         	6.864
MS.183         	21.335         	6.848
MS.184         	21.292         	6.842
MS.185         	21.25          	6.832
MS.186         	21.208         	6.802
MS.187         	21.165         	6.854
MS.188         	21.122         	6.84
MS.189         	21.083         	6.77
MS.190         	21.04          	6.836
MS.191         	20.997         	6.81
MS.192         	20.955         	6.76
MS.193         	20.913         	6.822
MS.194         	20.872         	6.818
MS.195         	20.83          	6.768
MS.196         	20.788         	6.782
MS.197         	20.747         	6.764
MS.198         	20.705         	6.749
MS.199         	20.665         	6.768
MS.200         	20.622         	6.824
MS.201         	20.583         	6.753
MS.202         	20.54          	6.749
MS.203         	20.5           	6.755
MS.204         	20.458         	6.743
MS.205         	20.417         	6.735
MS.206         	20.377         	6.731
MS.207         	20.335         	6.745
MS.208         	20.295         	6.749
MS.209         	20.255         	6.739
MS.210         	20.215         	6.745
MS.211         	20.175         	6.731
MS.212         	20.132         	6.737
MS.213         	20.092         	6.737
MS.214         	20.052         	6.747
MS.215         	20.012         	6.747
MS.216         	19.972         	6.737
MS.217         	19.932         	6.753
MS.218         	19.892         	6.776
MS.219         	19.852         	6.758
MS.220         	19.815         	6.77
MS.221         	19.775         	6.755
MS.222         	19.735         	6.766
MS.223         	19.695         	6.764
MS.224         	19.655         	6.766
MS.225         	19.618         	6.772
MS.226         	19.577         	6.762
MS.227         	19.538         	6.731
MS.228         	19.5           	6.723
MS.229         	19.46          	6.737
MS.230         	19.422         	6.751
MS.231         	19.382         	6.749
MS.232         	19.345         	6.753
MS.233         	19.305         	6.758
MS.234         	19.267         	6.753
MS.235         	19.227         	6.749
MS.236         	19.19          	6.741
MS.237         	19.153         	6.745
MS.238         	19.112         	6.733
MS.239         	19.075         	6.751
MS.240         	19.038         	6.741
MS.241         	19             	6.729
MS.242         	18.96          	6.735
MS.243         	18.922         	6.721
MS.244         	18.885         	6.713
MS.245         	18.847         	6.713
MS.246         	18.81          	6.697
MS.247         	18.772         	6.687
MS.248         	18.735         	6.669
MS.249         	18.698         	6.687
MS.250         	18.66          	6.683
MS.251         	18.622         	6.677
MS.252         	18.585         	6.665
MS.253         	18.547         	6.667
MS.254         	18.512         	6.669
MS.255         	18.475         	6.687
MS.256         	18.438         	6.695
MS.257         	18.4           	6.695
MS.258         	18.365         	6.697
MS.259         	18.327         	6.56
MS.260         	18.29          	6.695
MS.261         	18.255         	6.683
MS.262         	18.217         	6.57
MS.263         	18.18          	6.671
MS.264         	18.145         	6.562
MS.265         	18.108         	6.562
MS.266         	18.073         	6.556
MS.267         	18.038         	6.562
MS.268         	18             	6.556
MS.269         	17.965         	6.558
MS.270         	17.927         	6.538
MS.271         	17.892         	6.56
MS.272         	17.858         	6.57
MS.273         	17.82          	6.542
MS.274         	17.785         	6.562
MS.275         	17.75          	6.556
MS.276         	17.715         	6.562
MS.277         	17.68          	6.671
MS.278         	17.645         	6.544
MS.279         	17.608         	6.532
MS.280         	17.573         	6.526
MS.281         	17.538         	6.53
MS.282         	17.503         	6.538
MS.283         	17.467         	6.516
MS.284         	17.432         	6.52
MS.285         	17.397         	6.524
MS.286         	17.365         	6.457
MS.287         	17.33          	6.48
MS.288         	17.295         	6.512
MS.289         	17.26          	6.471
MS.290         	17.225         	6.514
MS.291         	17.19          	6.51
MS.292         	17.157         	6.532
MS.293         	17.122         	6.419
MS.294         	17.087         	6.411
MS.295         	17.055         	6.494
MS.296         	17.02          	6.48
MS.297         	16.985         	6.385
MS.298         	16.952         	6.471
MS.299         	16.917         	6.427
MS.300         	16.885         	6.484
MS.301         	16.85          	6.24
MS.302         	16.817         	6.385
MS.303         	16.782         	6.198
MS.304         	16.75          	6.373
MS.305         	16.717         	6.389
MS.306         	16.682         	6.351
MS.307         	16.65          	6.375
MS.308         	16.618         	6.379
MS.309         	16.583         	6.173
MS.310         	16.55          	6.02
MS.311         	16.517         	5.763
MS.312         	16.485         	6.008
MS.313         	16.45          	6.107
MS.314         	16.417         	5.547
MS.315         	16.385         	5.849
MS.316         	16.352         	5.748
MS.317         	16.32          	5.781
MS.318         	16.288         	5.303
MS.319         	16.255         	5.672
MS.320         	16.222         	5.12
MS.321         	16.19          	5.068
MS.322         	16.157         	5.223
MS.323         	16.125         	4.995
MS.324         	16.092         	5.176
MS.325         	16.06          	4.979
MS.326         	16.03          	5.207
MS.327         	15.997         	4.975
MS.328         	15.965         	5.176
MS.329         	15.932         	4.955
MS.330         	15.9           	4.965
MS.331         	15.87          	4.951
MS.332         	15.837         	4.89
MS.333         	15.805         	4.967
MS.334         	15.775         	4.622
MS.335         	15.742         	4.896
MS.336         	15.712         	4.84
MS.337         	15.68          	4.927
MS.338         	15.648         	4.735
MS.339         	15.617         	4.57
MS.340         	15.585         	4.54
MS.341         	15.555         	4.635
MS.342         	15.525         	4.834
MS.343         	15.492         	4.51
MS.344         	15.462         	4.836
MS.345         	15.43          	4.502
MS.346         	15.4           	4.469
MS.347         	15.37          	4.371
MS.348         	15.34          	4.403
MS.349         	15.307         	4.355
MS.350         	15.277         	4.486
MS.351         	15.247         	4.322
MS.352         	15.217         	4.423
MS.353         	15.185         	4.375
MS.354         	15.155         	4.316
MS.355         	15.125         	4.365
MS.356         	15.095         	4.409
MS.357         	15.065         	4.28
MS.358         	15.035         	4.349
MS.359         	15.005         	4.228
MS.360         	14.975         	4.191
MS.361         	14.945         	4.175
MS.362         	14.915         	4.115
MS.363         	14.885         	4.008
MS.364         	14.855         	4.006
MS.365         	14.825         	4.111
MS.366         	14.797         	3.946
MS.367         	14.767         	3.853
MS.368         	14.737         	3.869
MS.369         	14.707         	3.877
MS.370         	14.677         	3.867
MS.371         	14.65          	3.652
MS.372         	14.62          	3.563
MS.373         	14.59          	3.718
MS.374         	14.562         	3.497
MS.375         	14.532         	3.557
MS.376         	14.502         	3.279
MS.377         	14.475         	3.285
MS.378         	14.445         	3.249
MS.379         	14.417         	3.122
MS.380         	14.387         	3.356
MS.381         	14.36          	3.156
MS.382         	14.33          	3.303
MS.383         	14.302         	3.086
MS.384         	14.273         	3.039
MS.385         	14.245         	2.925
MS.386         	14.217         	3.106
MS.387         	14.188         	2.828
MS.388         	14.16          	3.094
MS.389         	14.13          	2.745
MS.390         	14.102         	3.011
MS.391         	14.075         	2.647
MS.392         	14.047         	2.598
MS.393         	14.017         	2.717
MS.394         	13.99          	2.538
MS.395         	13.962         	2.765
MS.396         	13.935         	2.453
MS.397         	13.907         	2.361
MS.398         	13.88          	2.463
MS.399         	13.852         	2.483
MS.400         	13.822         	2.439
MS.401         	13.795         	2.487
MS.402         	13.767         	2.298
MS.403         	13.74          	2.369
MS.404         	13.712         	2.262
MS.405         	13.685         	2.25
MS.406         	13.66          	2.125
MS.407         	13.632         	2.212
MS.408         	13.605         	2.143
MS.409         	13.577         	2.103
MS.410         	13.55          	1.968
MS.411         	13.523         	2.111
MS.412         	13.495         	2.085
MS.413         	13.47          	2.117
MS.414         	13.443         	1.978
MS.415         	13.415         	2.008
MS.416         	13.387         	1.93
MS.417         	13.362         	2.095
MS.418         	13.335         	1.861
MS.419         	13.307         	1.793
MS.420         	13.282         	1.623
MS.421         	13.255         	1.69
MS.422         	13.227         	1.603
MS.423         	13.202         	1.567
MS.424         	13.175         	1.47
MS.425         	13.15          	1.515
MS.426         	13.122         	1.337
MS.427         	13.097         	1.422
MS.428         	13.07          	1.341
MS.429         	13.045         	1.311
MS.430         	13.017         	1.263
MS.431         	12.992         	1.295
MS.432         	12.967         	1.206
MS.433         	12.94          	1.126
MS.434         	12.915         	1.16
MS.435         	12.89          	1.015
MS.436         	12.862         	1.003
MS.437         	12.837         	1.08
MS.438         	12.812         	0.912
MS.439         	12.787         	0.963
MS.440         	12.76          	0.92
MS.441         	12.735         	1.098
MS.442         	12.71          	0.89
MS.443         	12.685         	0.979
MS.444         	12.66          	0.854
MS.445         	12.635         	0.888
MS.446         	12.608         	0.854
MS.447         	12.582         	0.723
MS.448         	12.557         	0.751
MS.449         	12.532         	0.735
MS.450         	12.507         	0.669
MS.451         	12.483         	0.659
MS.452         	12.457         	0.618
MS.453         	12.432         	0.685
MS.454         	12.407         	0.562
MS.455         	12.385         	0.645
MS.456         	12.36          	0.655
MS.457         	12.335         	0.608
MS.458         	12.31          	0.628
MS.459         	12.285         	0.399
MS.460         	12.26          	0.352
MS.461         	12.235         	0.3
MS.462         	12.212         	0.395
MS.463         	12.188         	0.365
MS.464         	12.162         	0.33
MS.465         	12.137         	0.342
MS.466         	12.115         	0.375
MS.467         	12.09          	0.298
MS.468         	12.065         	0.294
MS.469         	12.042         	0.294
MS.470         	12.017         	0.354
MS.471         	11.995         	0.246
MS.472         	11.97          	0.238
MS.473         	11.945         	0.24
MS.474         	11.922         	0.236
MS.475         	11.898         	0.214
MS.476         	11.875         	0.236
MS.477         	11.85          	0.246
MS.478         	11.827         	0.211
MS.479         	11.802         	0.209
MS.480         	11.78          	0.238
MS.481         	11.757         	0.252
MS.482         	11.733         	0.199
MS.483         	11.71          	0.115
MS.484         	11.685         	0.157
MS.485         	11.662         	0.205
MS.486         	11.64          	0.258
MS.487         	11.615         	0.107
MS.488         	11.592         	0.209
MS.489         	11.57          	0.109
MS.490         	11.547         	0.207
MS.491         	11.523         	0.097
MS.492         	11.5           	0.203
MS.493         	11.477         	0.216
MS.494         	11.455         	0.105
MS.495         	11.432         	0.107
MS.496         	11.41          	0.113
MS.497         	11.385         	0.117
MS.498         	11.363         	0.115
MS.499         	11.34          	0.117
MS.500         	11.318         	0.109
MS.501         	11.295         	0.111
