File:              	C:\Qtrac\Data\Daniel M Sørensen\MScan multicentre study\Data from centres\Odense\Processed data\TKC01014A.QZD
Name:              	DK.ODE.NC.5.2
Protocol:          	MSCAN-R2
Date:              	14/10/20
Start time:        	12:08:20
Age:               	62
Sex:               	F
Temperature:       	31.4
S/R sites:         	APB
NC/disease:        	NC
Operator:          	TK
Comments:
M-SCAN DATA (7.5-0.8m)
Scanpts: 35, 49, 469, 491
Stim. (mA)     	Amp. (mV)
MS.1           	18             	3.785
MS.2           	18             	3.768
MS.3           	18             	3.736
MS.4           	18             	3.722
MS.5           	18             	3.722
MS.6           	18             	3.696
MS.7           	18             	3.702
MS.8           	18             	3.706
MS.9           	18             	3.696
MS.10          	18             	3.704
MS.11          	18             	3.66
MS.12          	18             	3.708
MS.13          	18             	3.694
MS.14          	18             	3.718
MS.15          	18             	3.692
MS.16          	18             	3.746
MS.17          	18             	3.728
MS.18          	18             	3.652
MS.19          	18             	3.714
MS.20          	18             	3.726
MS.21          	18             	3.746
MS.22          	18             	3.748
MS.23          	18             	3.748
MS.24          	17.927         	3.676
MS.25          	17.892         	3.712
MS.26          	17.858         	3.73
MS.27          	17.82          	3.73
MS.28          	17.785         	3.766
MS.29          	17.75          	3.706
MS.30          	17.715         	3.692
MS.31          	17.68          	3.734
MS.32          	17.642         	3.748
MS.33          	17.608         	3.742
MS.34          	17.573         	3.736
MS.35          	17.538         	3.74
MS.36          	17.503         	3.75
MS.37          	17.467         	3.754
MS.38          	17.432         	3.722
MS.39          	17.397         	3.722
MS.40          	17.362         	3.716
MS.41          	17.33          	3.738
MS.42          	17.295         	3.762
MS.43          	17.26          	3.748
MS.44          	17.225         	3.742
MS.45          	17.19          	3.706
MS.46          	17.157         	3.754
MS.47          	17.122         	3.758
MS.48          	17.087         	3.766
MS.49          	17.052         	3.74
MS.50          	17.02          	3.73
MS.51          	16.985         	3.706
MS.52          	16.952         	3.728
MS.53          	16.917         	3.732
MS.54          	16.885         	3.75
MS.55          	16.85          	3.694
MS.56          	16.817         	3.73
MS.57          	16.782         	3.714
MS.58          	16.75          	3.706
MS.59          	16.715         	3.704
MS.60          	16.682         	3.73
MS.61          	16.65          	3.748
MS.62          	16.615         	3.718
MS.63          	16.583         	3.718
MS.64          	16.55          	3.686
MS.65          	16.517         	3.73
MS.66          	16.483         	3.69
MS.67          	16.45          	3.722
MS.68          	16.417         	3.708
MS.69          	16.385         	3.69
MS.70          	16.352         	3.692
MS.71          	16.32          	3.702
MS.72          	16.288         	3.696
MS.73          	16.255         	3.662
MS.74          	16.222         	3.708
MS.75          	16.19          	3.714
MS.76          	16.157         	3.728
MS.77          	16.125         	3.692
MS.78          	16.092         	3.718
MS.79          	16.06          	3.706
MS.80          	16.028         	3.698
MS.81          	15.997         	3.698
MS.82          	15.965         	3.704
MS.83          	15.932         	3.694
MS.84          	15.9           	3.714
MS.85          	15.87          	3.71
MS.86          	15.837         	3.73
MS.87          	15.805         	3.7
MS.88          	15.775         	3.728
MS.89          	15.742         	3.716
MS.90          	15.71          	3.722
MS.91          	15.68          	3.718
MS.92          	15.648         	3.696
MS.93          	15.617         	3.728
MS.94          	15.585         	3.69
MS.95          	15.555         	3.712
MS.96          	15.523         	3.706
MS.97          	15.492         	3.716
MS.98          	15.462         	3.696
MS.99          	15.43          	3.694
MS.100         	15.4           	3.678
MS.101         	15.37          	3.688
MS.102         	15.337         	3.686
MS.103         	15.307         	3.692
MS.104         	15.277         	3.676
MS.105         	15.247         	3.682
MS.106         	15.217         	3.71
MS.107         	15.185         	3.692
MS.108         	15.155         	3.68
MS.109         	15.125         	3.696
MS.110         	15.095         	3.684
MS.111         	15.065         	3.676
MS.112         	15.035         	3.664
MS.113         	15.005         	3.672
MS.114         	14.975         	3.666
MS.115         	14.945         	3.68
MS.116         	14.915         	3.68
MS.117         	14.885         	3.676
MS.118         	14.855         	3.686
MS.119         	14.825         	3.644
MS.120         	14.795         	3.664
MS.121         	14.767         	3.694
MS.122         	14.737         	3.668
MS.123         	14.707         	3.674
MS.124         	14.677         	3.66
MS.125         	14.65          	3.67
MS.126         	14.62          	3.662
MS.127         	14.59          	3.674
MS.128         	14.562         	3.634
MS.129         	14.532         	3.632
MS.130         	14.502         	3.664
MS.131         	14.475         	3.664
MS.132         	14.445         	3.644
MS.133         	14.417         	3.64
MS.134         	14.387         	3.678
MS.135         	14.36          	3.66
MS.136         	14.33          	3.672
MS.137         	14.302         	3.656
MS.138         	14.273         	3.668
MS.139         	14.245         	3.644
MS.140         	14.215         	3.613
MS.141         	14.188         	3.589
MS.142         	14.16          	3.601
MS.143         	14.13          	3.601
MS.144         	14.102         	3.632
MS.145         	14.075         	3.577
MS.146         	14.047         	3.668
MS.147         	14.017         	3.605
MS.148         	13.99          	3.599
MS.149         	13.962         	3.565
MS.150         	13.935         	3.569
MS.151         	13.907         	3.591
MS.152         	13.88          	3.547
MS.153         	13.85          	3.583
MS.154         	13.822         	3.529
MS.155         	13.795         	3.539
MS.156         	13.767         	3.519
MS.157         	13.74          	3.577
MS.158         	13.712         	3.517
MS.159         	13.685         	3.531
MS.160         	13.657         	3.525
MS.161         	13.632         	3.509
MS.162         	13.605         	3.509
MS.163         	13.577         	3.533
MS.164         	13.55          	3.511
MS.165         	13.523         	3.489
MS.166         	13.495         	3.509
MS.167         	13.467         	3.517
MS.168         	13.443         	3.507
MS.169         	13.415         	3.509
MS.170         	13.387         	3.541
MS.171         	13.362         	3.497
MS.172         	13.335         	3.501
MS.173         	13.307         	3.495
MS.174         	13.282         	3.501
MS.175         	13.255         	3.495
MS.176         	13.227         	3.523
MS.177         	13.202         	3.529
MS.178         	13.175         	3.501
MS.179         	13.15          	3.507
MS.180         	13.122         	3.45
MS.181         	13.097         	3.48
MS.182         	13.07          	3.482
MS.183         	13.045         	3.476
MS.184         	13.017         	3.462
MS.185         	12.992         	3.482
MS.186         	12.967         	3.462
MS.187         	12.94          	3.466
MS.188         	12.915         	3.474
MS.189         	12.89          	3.47
MS.190         	12.862         	3.452
MS.191         	12.837         	3.444
MS.192         	12.812         	3.45
MS.193         	12.785         	3.466
MS.194         	12.76          	3.446
MS.195         	12.735         	3.448
MS.196         	12.71          	3.434
MS.197         	12.685         	3.438
MS.198         	12.66          	3.438
MS.199         	12.632         	3.462
MS.200         	12.608         	3.436
MS.201         	12.582         	3.46
MS.202         	12.557         	3.424
MS.203         	12.532         	3.434
MS.204         	12.507         	3.392
MS.205         	12.483         	3.476
MS.206         	12.457         	3.406
MS.207         	12.432         	3.484
MS.208         	12.407         	3.394
MS.209         	12.382         	3.426
MS.210         	12.36          	3.468
MS.211         	12.335         	3.472
MS.212         	12.31          	3.482
MS.213         	12.285         	3.402
MS.214         	12.26          	3.468
MS.215         	12.235         	3.41
MS.216         	12.212         	3.41
MS.217         	12.188         	3.368
MS.218         	12.162         	3.366
MS.219         	12.137         	3.372
MS.220         	12.115         	3.339
MS.221         	12.09          	3.339
MS.222         	12.065         	3.289
MS.223         	12.042         	3.37
MS.224         	12.017         	3.358
MS.225         	11.992         	3.205
MS.226         	11.97          	3.142
MS.227         	11.945         	3.192
MS.228         	11.922         	3.219
MS.229         	11.898         	2.969
MS.230         	11.875         	3.106
MS.231         	11.85          	3.015
MS.232         	11.827         	2.983
MS.233         	11.802         	3.057
MS.234         	11.78          	2.933
MS.235         	11.755         	2.912
MS.236         	11.733         	2.983
MS.237         	11.71          	2.735
MS.238         	11.685         	2.709
MS.239         	11.662         	2.856
MS.240         	11.64          	2.729
MS.241         	11.615         	3.019
MS.242         	11.592         	2.89
MS.243         	11.57          	2.459
MS.244         	11.547         	2.359
MS.245         	11.523         	2.614
MS.246         	11.5           	2.556
MS.247         	11.477         	2.294
MS.248         	11.455         	2.445
MS.249         	11.432         	2.371
MS.250         	11.407         	2.286
MS.251         	11.385         	2.437
MS.252         	11.363         	2.258
MS.253         	11.34          	2.3
MS.254         	11.318         	2.268
MS.255         	11.295         	2.195
MS.256         	11.273         	2.262
MS.257         	11.25          	2.133
MS.258         	11.227         	2.22
MS.259         	11.205         	2.137
MS.260         	11.182         	2.145
MS.261         	11.16          	2.05
MS.262         	11.137         	2.089
MS.263         	11.115         	1.94
MS.264         	11.092         	1.917
MS.265         	11.073         	2.024
MS.266         	11.05          	2.135
MS.267         	11.028         	1.948
MS.268         	11.005         	1.889
MS.269         	10.983         	1.96
MS.270         	10.962         	1.813
MS.271         	10.94          	1.881
MS.272         	10.917         	1.934
MS.273         	10.895         	1.839
MS.274         	10.875         	1.976
MS.275         	10.852         	1.93
MS.276         	10.83          	1.922
MS.277         	10.81          	1.797
MS.278         	10.787         	1.855
MS.279         	10.765         	1.956
MS.280         	10.745         	1.917
MS.281         	10.722         	1.845
MS.282         	10.702         	1.883
MS.283         	10.68          	1.807
MS.284         	10.657         	1.678
MS.285         	10.637         	1.893
MS.286         	10.615         	1.817
MS.287         	10.595         	1.728
MS.288         	10.573         	1.589
MS.289         	10.552         	1.652
MS.290         	10.532         	1.843
MS.291         	10.51          	1.644
MS.292         	10.49          	1.478
MS.293         	10.467         	1.472
MS.294         	10.448         	1.678
MS.295         	10.427         	1.521
MS.296         	10.405         	1.313
MS.297         	10.385         	1.527
MS.298         	10.365         	1.235
MS.299         	10.342         	1.317
MS.300         	10.323         	1.376
MS.301         	10.302         	1.265
MS.302         	10.282         	1.021
MS.303         	10.26          	1.096
MS.304         	10.24          	1.049
MS.305         	10.22          	1.317
MS.306         	10.2           	1.065
MS.307         	10.18          	1.206
MS.308         	10.16          	1.14
MS.309         	10.14          	1.029
MS.310         	10.117         	0.997
MS.311         	10.097         	0.991
MS.312         	10.077         	1.009
MS.313         	10.057         	1.009
MS.314         	10.037         	0.844
MS.315         	10.017         	0.836
MS.316         	9.997          	1.047
MS.317         	9.977          	1.11
MS.318         	9.957          	1.122
MS.319         	9.938          	0.941
MS.320         	9.917          	0.852
MS.321         	9.898          	1.112
MS.322         	9.877          	1.013
MS.323         	9.86           	0.83
MS.324         	9.84           	0.794
MS.325         	9.82           	0.765
MS.326         	9.8            	0.918
MS.327         	9.78           	0.759
MS.328         	9.76           	0.784
MS.329         	9.74           	0.729
MS.330         	9.722          	0.755
MS.331         	9.702          	0.489
MS.332         	9.682          	0.572
MS.333         	9.662          	0.693
MS.334         	9.645          	0.651
MS.335         	9.625          	0.576
MS.336         	9.605          	0.655
MS.337         	9.587          	0.602
MS.338         	9.568          	0.584
MS.339         	9.547          	0.461
MS.340         	9.53           	0.536
MS.341         	9.51           	0.25
MS.342         	9.49           	0.264
MS.343         	9.472          	0.306
MS.344         	9.452          	0.395
MS.345         	9.435          	0.248
MS.346         	9.415          	0.344
MS.347         	9.398          	0.236
MS.348         	9.377          	0.248
MS.349         	9.36           	0.377
MS.350         	9.34           	0.25
MS.351         	9.323          	0.264
MS.352         	9.302          	0.264
MS.353         	9.285          	0.151
MS.354         	9.265          	0.211
MS.355         	9.247          	0.177
MS.356         	9.23           	0.238
MS.357         	9.21           	0.197
MS.358         	9.193          	0.205
MS.359         	9.175          	0.179
MS.360         	9.155          	0.165
MS.361         	9.137          	0.129
MS.362         	9.12           	0.171
MS.363         	9.1            	0.159
MS.364         	9.082          	0.143
MS.365         	9.065          	0.139
MS.366         	9.047          	0.131
MS.367         	9.028          	0.133
MS.368         	9.01           	0.171
MS.369         	8.992          	0.095
MS.370         	8.975          	0.133
MS.371         	8.957          	0.095
MS.372         	8.938          	0.145
MS.373         	8.92           	0.107
MS.374         	8.903          	0.135
MS.375         	8.885          	0.119
MS.376         	8.867          	0.129
MS.377         	8.85           	0.135
MS.378         	8.832          	0.137
MS.379         	8.815          	0.105
MS.380         	8.797          	0.131
MS.381         	8.78           	0.109
MS.382         	8.762          	0.095
MS.383         	8.745          	0.109
MS.384         	8.727          	0.099
MS.385         	8.71           	0.139
MS.386         	8.693          	0.109
MS.387         	8.675          	0.107
MS.388         	8.658          	0.115
MS.389         	8.64           	0.036
MS.390         	8.622          	0.103
MS.391         	8.605          	0.111
MS.392         	8.587          	0.117
MS.393         	8.57           	0.038
MS.394         	8.552          	0.103
MS.395         	8.537          	0.095
MS.396         	8.52           	0.109
MS.397         	8.502          	0.105
MS.398         	8.485          	0.107
MS.399         	8.467          	0.04
MS.400         	8.452          	0.113
MS.401         	8.435          	0.105
MS.402         	8.417          	0.042
MS.403         	8.4            	0.034
MS.404         	8.385          	0.119
MS.405         	8.367          	0.04
MS.406         	8.35           	0.046
MS.407         	8.335          	0.046
MS.408         	8.318          	0.04
MS.409         	8.3            	0.048
MS.410         	8.285          	0.054
MS.411         	8.267          	0.113
MS.412         	8.252          	0.04
MS.413         	8.235          	0.044
MS.414         	8.217          	0.042
MS.415         	8.202          	0.04
MS.416         	8.185          	0.044
MS.417         	8.17           	0.05
MS.418         	8.153          	0.038
MS.419         	8.137          	0.048
MS.420         	8.12           	0.04
MS.421         	8.105          	0.044
MS.422         	8.087          	0.038
MS.423         	8.073          	0.05
MS.424         	8.055          	0.048
MS.425         	8.04           	0.04
MS.426         	8.023          	0.062
MS.427         	8.007          	0.052
MS.428         	7.992          	0.054
MS.429         	7.975          	0.048
MS.430         	7.96           	0.042
MS.431         	7.942          	0.034
MS.432         	7.927          	0.032
MS.433         	7.912          	0.044
MS.434         	7.895          	0.044
MS.435         	7.88           	0.046
MS.436         	7.865          	0.04
MS.437         	7.85           	0.054
MS.438         	7.832          	0.036
MS.439         	7.817          	0.03
MS.440         	7.802          	0.056
MS.441         	7.787          	0.044
MS.442         	7.77           	0.048
MS.443         	7.755          	0.036
MS.444         	7.74           	0.04
MS.445         	7.725          	0.042
MS.446         	7.71           	0.044
MS.447         	7.692          	0.05
MS.448         	7.677          	0.046
MS.449         	7.662          	0.034
MS.450         	7.648          	0.042
MS.451         	7.632          	0.034
MS.452         	7.617          	0.04
MS.453         	7.602          	0.04
MS.454         	7.587          	0.032
MS.455         	7.572          	0.048
MS.456         	7.555          	0.048
MS.457         	7.54           	0.044
MS.458         	7.525          	0.04
MS.459         	7.51           	0.046
MS.460         	7.495          	0.044
MS.461         	7.48           	0.044
MS.462         	7.465          	0.052
MS.463         	7.45           	0.042
MS.464         	7.438          	0.044
MS.465         	7.422          	0.036
MS.466         	7.407          	0.038
MS.467         	7.392          	0.04
MS.468         	7.378          	0.02
MS.469         	7.362          	0.036
MS.470         	7.347          	0.034
MS.471         	7.332          	0.03
MS.472         	7.317          	0.052
MS.473         	7.302          	0.052
MS.474         	7.29           	0.048
MS.475         	7.275          	0.03
MS.476         	7.26           	0.048
MS.477         	7.245          	0.038
MS.478         	7.23           	0.03
MS.479         	7.217          	0.032
MS.480         	7.202          	0.036
MS.481         	7.188          	0.034
MS.482         	7.172          	0.038
MS.483         	7.16           	0.046
MS.484         	7.145          	0.042
MS.485         	7.13           	0.034
MS.486         	7.115          	0.038
MS.487         	7.102          	0.038
MS.488         	7.087          	0.026
MS.489         	7.072          	0.028
MS.490         	7.06           	0.034
MS.491         	7.045          	0.036
MS.492         	7.032          	0.042
MS.493         	7.017          	0.03
MS.494         	7.003          	0.036
MS.495         	6.99           	0.036
MS.496         	6.975          	0.046
MS.497         	6.962          	0.044
MS.498         	6.947          	0.046
MS.499         	6.932          	0.04
MS.500         	6.92           	0.036
MS.501         	6.905          	0.046
MS.502         	6.892          	0.036
