File:              	C:\Qtrac\Data\Daniel M Sørensen\MScan multicentre study\Data from centres\Antalya\Processed data\TR.NC.ANT.10.2- NCC01209A.QZD
Name:              	TR.NC.ANT.10.2
Protocol:          	MSCAN-R2
Date:              	9/12/20
Start time:        	15:40:33
Age:               	52
Sex:               	m
Temperature:       	32.8
S/R sites:         	APB
NC/disease:        	NC
Operator:          	ab
Comments:
M-SCAN DATA (7.5-0.8m)
Scanpts: 88, 98, 687, 709
Stim. (mA)     	Amp. (mV)
MS.1           	28.5           	10.796
MS.2           	28.5           	10.806
MS.3           	28.5           	10.834
MS.4           	28.5           	10.846
MS.5           	28.5           	10.836
MS.6           	28.5           	10.858
MS.7           	28.5           	10.848
MS.8           	28.5           	10.874
MS.9           	28.5           	10.909
MS.10          	28.5           	10.947
MS.11          	28.5           	10.997
MS.12          	28.5           	11.001
MS.13          	28.5           	10.935
MS.14          	28.5           	10.951
MS.15          	28.5           	11.023
MS.16          	28.5           	11.074
MS.17          	28.5           	11.156
MS.18          	28.5           	11.213
MS.19          	28.5           	11.235
MS.20          	28.5           	11.289
MS.21          	28.5           	11.344
MS.22          	28.5           	11.34
MS.23          	28.5           	11.358
MS.24          	28.385         	11.408
MS.25          	28.33          	11.463
MS.26          	28.272         	11.519
MS.27          	28.217         	11.515
MS.28          	28.16          	11.521
MS.29          	28.102         	11.545
MS.30          	28.047         	11.541
MS.31          	27.993         	11.553
MS.32          	27.935         	11.555
MS.33          	27.88          	11.565
MS.34          	27.825         	11.583
MS.35          	27.767         	11.602
MS.36          	27.712         	11.622
MS.37          	27.657         	11.656
MS.38          	27.602         	11.67
MS.39          	27.547         	11.672
MS.40          	27.493         	11.644
MS.41          	27.438         	11.636
MS.42          	27.382         	11.652
MS.43          	27.327         	11.646
MS.44          	27.272         	11.658
MS.45          	27.217         	11.668
MS.46          	27.165         	11.678
MS.47          	27.11          	11.684
MS.48          	27.055         	11.71
MS.49          	27.002         	11.712
MS.50          	26.948         	11.716
MS.51          	26.895         	11.73
MS.52          	26.84          	11.743
MS.53          	26.787         	11.747
MS.54          	26.733         	11.743
MS.55          	26.68          	11.753
MS.56          	26.627         	11.775
MS.57          	26.573         	11.799
MS.58          	26.52          	11.807
MS.59          	26.467         	11.815
MS.60          	26.415         	11.821
MS.61          	26.362         	11.809
MS.62          	26.307         	11.823
MS.63          	26.255         	11.821
MS.64          	26.202         	11.815
MS.65          	26.153         	11.817
MS.66          	26.1           	11.817
MS.67          	26.047         	11.835
MS.68          	25.995         	11.851
MS.69          	25.942         	11.871
MS.70          	25.89          	11.894
MS.71          	25.84          	11.882
MS.72          	25.787         	11.857
MS.73          	25.735         	11.849
MS.74          	25.685         	11.847
MS.75          	25.632         	11.867
MS.76          	25.582         	11.857
MS.77          	25.53          	11.88
MS.78          	25.48          	11.863
MS.79          	25.43          	11.869
MS.80          	25.377         	11.871
MS.81          	25.327         	11.884
MS.82          	25.278         	11.91
MS.83          	25.227         	11.888
MS.84          	25.175         	11.849
MS.85          	25.125         	11.873
MS.86          	25.075         	11.906
MS.87          	25.025         	11.859
MS.88          	24.975         	11.857
MS.89          	24.925         	11.863
MS.90          	24.875         	11.867
MS.91          	24.825         	11.861
MS.92          	24.778         	11.849
MS.93          	24.727         	11.851
MS.94          	24.677         	11.873
MS.95          	24.627         	11.871
MS.96          	24.58          	11.861
MS.97          	24.53          	11.878
MS.98          	24.48          	11.859
MS.99          	24.432         	11.863
MS.100         	24.382         	11.861
MS.101         	24.335         	11.865
MS.102         	24.285         	11.9
MS.103         	24.237         	11.88
MS.104         	24.19          	11.869
MS.105         	24.14          	11.884
MS.106         	24.092         	11.867
MS.107         	24.045         	11.869
MS.108         	23.997         	11.875
MS.109         	23.948         	11.896
MS.110         	23.9           	11.89
MS.111         	23.852         	11.894
MS.112         	23.805         	11.88
MS.113         	23.757         	11.88
MS.114         	23.71          	11.869
MS.115         	23.663         	11.882
MS.116         	23.615         	11.9
MS.117         	23.567         	11.898
MS.118         	23.52          	11.88
MS.119         	23.475         	11.906
MS.120         	23.427         	11.88
MS.121         	23.38          	11.851
MS.122         	23.332         	11.565
MS.123         	23.288         	11.857
MS.124         	23.24          	11.892
MS.125         	23.195         	11.865
MS.126         	23.147         	11.843
MS.127         	23.102         	11.884
MS.128         	23.055         	11.855
MS.129         	23.01          	11.569
MS.130         	22.962         	11.501
MS.131         	22.917         	11.535
MS.132         	22.872         	11.507
MS.133         	22.825         	11.882
MS.134         	22.78          	11.485
MS.135         	22.735         	11.497
MS.136         	22.69          	11.791
MS.137         	22.645         	11.851
MS.138         	22.6           	11.547
MS.139         	22.552         	11.535
MS.140         	22.507         	11.465
MS.141         	22.462         	11.495
MS.142         	22.42          	11.849
MS.143         	22.375         	11.432
MS.144         	22.33          	11.821
MS.145         	22.285         	11.523
MS.146         	22.24          	11.442
MS.147         	22.195         	11.44
MS.148         	22.153         	11.789
MS.149         	22.108         	11.378
MS.150         	22.062         	11.388
MS.151         	22.02          	11.446
MS.152         	21.975         	11.507
MS.153         	21.93          	11.374
MS.154         	21.887         	11.35
MS.155         	21.842         	11.263
MS.156         	21.8           	11.253
MS.157         	21.755         	11.324
MS.158         	21.712         	11.064
MS.159         	21.67          	11.277
MS.160         	21.625         	11.205
MS.161         	21.583         	11.279
MS.162         	21.54          	11.316
MS.163         	21.497         	11.197
MS.164         	21.455         	11.112
MS.165         	21.41          	11.082
MS.166         	21.368         	11.156
MS.167         	21.325         	11.118
MS.168         	21.282         	10.973
MS.169         	21.24          	10.814
MS.170         	21.198         	10.746
MS.171         	21.155         	10.661
MS.172         	21.112         	10.806
MS.173         	21.07          	11.036
MS.174         	21.03          	10.754
MS.175         	20.987         	10.699
MS.176         	20.945         	10.639
MS.177         	20.903         	10.623
MS.178         	20.862         	10.675
MS.179         	20.82          	10.596
MS.180         	20.778         	10.733
MS.181         	20.737         	10.596
MS.182         	20.695         	10.588
MS.183         	20.655         	10.635
MS.184         	20.612         	10.514
MS.185         	20.573         	10.667
MS.186         	20.53          	10.57
MS.187         	20.49          	10.476
MS.188         	20.448         	10.403
MS.189         	20.407         	10.594
MS.190         	20.368         	10.609
MS.191         	20.325         	10.478
MS.192         	20.285         	10.296
MS.193         	20.245         	10.393
MS.194         	20.205         	10.186
MS.195         	20.165         	10.339
MS.196         	20.122         	10.111
MS.197         	20.083         	10.089
MS.198         	20.042         	10.119
MS.199         	20.002         	9.869
MS.200         	19.962         	10.333
MS.201         	19.922         	9.857
MS.202         	19.882         	9.879
MS.203         	19.845         	9.845
MS.204         	19.805         	9.829
MS.205         	19.765         	9.726
MS.206         	19.725         	9.753
MS.207         	19.685         	9.463
MS.208         	19.647         	9.668
MS.209         	19.608         	9.773
MS.210         	19.567         	9.857
MS.211         	19.53          	9.849
MS.212         	19.49          	9.761
MS.213         	19.45          	9.545
MS.214         	19.413         	9.279
MS.215         	19.372         	9.013
MS.216         	19.335         	9.11
MS.217         	19.295         	9.384
MS.218         	19.257         	9.366
MS.219         	19.22          	8.933
MS.220         	19.18          	9.456
MS.221         	19.142         	9.235
MS.222         	19.105         	8.957
MS.223         	19.065         	9.134
MS.224         	19.028         	9.072
MS.225         	18.99          	8.758
MS.226         	18.952         	8.439
MS.227         	18.915         	8.701
MS.228         	18.875         	8.747
MS.229         	18.837         	8.373
MS.230         	18.8           	8.155
MS.231         	18.762         	7.992
MS.232         	18.725         	8.034
MS.233         	18.688         	8.258
MS.234         	18.65          	8.103
MS.235         	18.612         	7.257
MS.236         	18.577         	7.424
MS.237         	18.54          	7.565
MS.238         	18.503         	6.947
MS.239         	18.465         	6.778
MS.240         	18.427         	6.923
MS.241         	18.392         	6.498
MS.242         	18.355         	6.951
MS.243         	18.317         	6.59
MS.244         	18.282         	6.612
MS.245         	18.245         	6.395
MS.246         	18.208         	5.609
MS.247         	18.172         	6.006
MS.248         	18.135         	5.841
MS.249         	18.1           	5.799
MS.250         	18.062         	5.454
MS.251         	18.028         	5.603
MS.252         	17.993         	5.638
MS.253         	17.955         	5.551
MS.254         	17.92          	5.281
MS.255         	17.885         	5.474
MS.256         	17.847         	5.356
MS.257         	17.812         	5.146
MS.258         	17.778         	4.808
MS.259         	17.743         	5.263
MS.260         	17.705         	5.106
MS.261         	17.67          	5.013
MS.262         	17.635         	4.927
MS.263         	17.6           	4.868
MS.264         	17.565         	4.578
MS.265         	17.53          	4.913
MS.266         	17.495         	4.838
MS.267         	17.46          	4.723
MS.268         	17.425         	3.579
MS.269         	17.39          	3.952
MS.270         	17.355         	4.602
MS.271         	17.32          	4.123
MS.272         	17.285         	4.175
MS.273         	17.253         	3.356
MS.274         	17.217         	3.559
MS.275         	17.182         	3.764
MS.276         	17.147         	3.775
MS.277         	17.115         	3.122
MS.278         	17.08          	3.321
MS.279         	17.045         	3.251
MS.280         	17.012         	3.057
MS.281         	16.977         	3.066
MS.282         	16.945         	3.055
MS.283         	16.91          	2.933
MS.284         	16.875         	2.945
MS.285         	16.842         	2.981
MS.286         	16.81          	3.047
MS.287         	16.775         	2.919
MS.288         	16.743         	2.832
MS.289         	16.708         	2.816
MS.290         	16.675         	2.842
MS.291         	16.642         	2.794
MS.292         	16.608         	2.796
MS.293         	16.575         	2.699
MS.294         	16.542         	2.624
MS.295         	16.51          	2.713
MS.296         	16.475         	2.369
MS.297         	16.442         	2.322
MS.298         	16.41          	2.395
MS.299         	16.378         	2.163
MS.300         	16.345         	2.447
MS.301         	16.312         	2.492
MS.302         	16.28          	2.399
MS.303         	16.247         	2.105
MS.304         	16.215         	1.712
MS.305         	16.182         	1.915
MS.306         	16.15          	1.988
MS.307         	16.118         	2.032
MS.308         	16.085         	2.103
MS.309         	16.052         	1.686
MS.310         	16.02          	1.984
MS.311         	15.99          	1.456
MS.312         	15.957         	1.712
MS.313         	15.925         	1.472
MS.314         	15.892         	1.585
MS.315         	15.862         	1.364
MS.316         	15.83          	1.424
MS.317         	15.797         	1.44
MS.318         	15.767         	1.327
MS.319         	15.735         	1.424
MS.320         	15.705         	1.188
MS.321         	15.672         	1.257
MS.322         	15.64          	1.235
MS.323         	15.61          	1.19
MS.324         	15.577         	0.977
MS.325         	15.547         	1.136
MS.326         	15.517         	1.063
MS.327         	15.485         	0.927
MS.328         	15.455         	0.739
MS.329         	15.422         	0.874
MS.330         	15.392         	0.961
MS.331         	15.362         	1.102
MS.332         	15.332         	1.092
MS.333         	15.3           	0.779
MS.334         	15.27          	0.792
MS.335         	15.24          	0.971
MS.336         	15.21          	0.812
MS.337         	15.18          	0.703
MS.338         	15.148         	0.834
MS.339         	15.117         	0.761
MS.340         	15.087         	0.693
MS.341         	15.057         	0.685
MS.342         	15.027         	0.699
MS.343         	14.997         	0.681
MS.344         	14.967         	0.705
MS.345         	14.938         	0.741
MS.346         	14.907         	0.711
MS.347         	14.877         	0.697
MS.348         	14.847         	0.908
MS.349         	14.82          	0.697
MS.350         	14.79          	0.661
MS.351         	14.76          	0.687
MS.352         	14.73          	0.667
MS.353         	14.7           	0.675
MS.354         	14.672         	0.604
MS.355         	14.642         	0.671
MS.356         	14.612         	0.703
MS.357         	14.582         	0.669
MS.358         	14.555         	0.59
MS.359         	14.525         	0.618
MS.360         	14.497         	0.614
MS.361         	14.467         	0.618
MS.362         	14.438         	0.628
MS.363         	14.41          	0.62
MS.364         	14.38          	0.689
MS.365         	14.352         	0.632
MS.366         	14.322         	0.638
MS.367         	14.295         	0.641
MS.368         	14.267         	0.62
MS.369         	14.237         	0.606
MS.370         	14.21          	0.584
MS.371         	14.18          	0.606
MS.372         	14.153         	0.608
MS.373         	14.125         	0.626
MS.374         	14.095         	0.598
MS.375         	14.068         	0.594
MS.376         	14.04          	0.58
MS.377         	14.012         	0.594
MS.378         	13.985         	0.574
MS.379         	13.955         	0.578
MS.380         	13.927         	0.594
MS.381         	13.9           	0.578
MS.382         	13.872         	0.457
MS.383         	13.845         	0.451
MS.384         	13.818         	0.463
MS.385         	13.79          	0.586
MS.386         	13.762         	0.582
MS.387         	13.735         	0.58
MS.388         	13.707         	0.457
MS.389         	13.68          	0.461
MS.390         	13.653         	0.586
MS.391         	13.625         	0.461
MS.392         	13.597         	0.459
MS.393         	13.57          	0.383
MS.394         	13.542         	0.451
MS.395         	13.517         	0.59
MS.396         	13.49          	0.588
MS.397         	13.462         	0.465
MS.398         	13.435         	0.465
MS.399         	13.407         	0.457
MS.400         	13.382         	0.463
MS.401         	13.355         	0.592
MS.402         	13.327         	0.512
MS.403         	13.302         	0.389
MS.404         	13.275         	0.463
MS.405         	13.247         	0.461
MS.406         	13.222         	0.463
MS.407         	13.195         	0.389
MS.408         	13.17          	0.387
MS.409         	13.142         	0.465
MS.410         	13.117         	0.383
MS.411         	13.09          	0.391
MS.412         	13.065         	0.403
MS.413         	13.037         	0.387
MS.414         	13.012         	0.391
MS.415         	12.987         	0.391
MS.416         	12.96          	0.393
MS.417         	12.935         	0.391
MS.418         	12.907         	0.393
MS.419         	12.882         	0.395
MS.420         	12.858         	0.477
MS.421         	12.832         	0.393
MS.422         	12.805         	0.393
MS.423         	12.78          	0.401
MS.424         	12.755         	0.403
MS.425         	12.73          	0.405
MS.426         	12.705         	0.403
MS.427         	12.677         	0.403
MS.428         	12.653         	0.403
MS.429         	12.627         	0.403
MS.430         	12.602         	0.401
MS.431         	12.577         	0.411
MS.432         	12.552         	0.397
MS.433         	12.528         	0.425
MS.434         	12.502         	0.411
MS.435         	12.477         	0.413
MS.436         	12.452         	0.415
MS.437         	12.427         	0.415
MS.438         	12.403         	0.401
MS.439         	12.377         	0.413
MS.440         	12.352         	0.419
MS.441         	12.327         	0.413
MS.442         	12.302         	0.415
MS.443         	12.28          	0.415
MS.444         	12.255         	0.354
MS.445         	12.23          	0.415
MS.446         	12.205         	0.419
MS.447         	12.182         	0.348
MS.448         	12.157         	0.357
MS.449         	12.132         	0.359
MS.450         	12.108         	0.421
MS.451         	12.085         	0.411
MS.452         	12.06          	0.357
MS.453         	12.035         	0.357
MS.454         	12.012         	0.417
MS.455         	11.988         	0.361
MS.456         	11.965         	0.357
MS.457         	11.94          	0.367
MS.458         	11.915         	0.365
MS.459         	11.892         	0.423
MS.460         	11.867         	0.357
MS.461         	11.845         	0.361
MS.462         	11.822         	0.367
MS.463         	11.797         	0.365
MS.464         	11.775         	0.373
MS.465         	11.75          	0.369
MS.466         	11.727         	0.371
MS.467         	11.702         	0.369
MS.468         	11.68          	0.363
MS.469         	11.657         	0.367
MS.470         	11.632         	0.373
MS.471         	11.61          	0.373
MS.472         	11.587         	0.367
MS.473         	11.565         	0.375
MS.474         	11.54          	0.371
MS.475         	11.517         	0.373
MS.476         	11.495         	0.377
MS.477         	11.472         	0.369
MS.478         	11.45          	0.375
MS.479         	11.425         	0.369
MS.480         	11.403         	0.365
MS.481         	11.38          	0.375
MS.482         	11.358         	0.371
MS.483         	11.335         	0.373
MS.484         	11.312         	0.377
MS.485         	11.29          	0.375
MS.486         	11.267         	0.371
MS.487         	11.245         	0.373
MS.488         	11.222         	0.373
MS.489         	11.2           	0.375
MS.490         	11.177         	0.371
MS.491         	11.155         	0.375
MS.492         	11.132         	0.367
MS.493         	11.11          	0.375
MS.494         	11.087         	0.373
MS.495         	11.068         	0.373
