File:              	C:\Qtrac\Data\Daniel M Sørensen\MScan multicentre study\Data from centres\Antalya\Processed data\TR.NC.ANT.8.1-  NCC01115A.QZD
Name:              	TR.NC.ANT.8.1
Protocol:          	MSCAN-R2
Date:              	15/11/20
Start time:        	14:18:35
Age:               	45
Sex:               	f
Temperature:       	33.1
S/R sites:         	APB
NC/disease:        	NC
Operator:          	ab
Comments:
M-SCAN DATA (9.8-1.9m)
Scanpts: 283, 290, 818, 821
Stim. (mA)     	Amp. (mV)
MS.1           	30             	9.843
MS.2           	30             	9.96
MS.3           	30             	10.024
MS.4           	30             	9.946
MS.5           	30             	9.922
MS.6           	30             	9.922
MS.7           	30             	10.085
MS.8           	30             	9.958
MS.9           	30             	9.968
MS.10          	30             	10.012
MS.11          	30             	10.039
MS.12          	30             	9.881
MS.13          	30             	9.986
MS.14          	30             	10.125
MS.15          	30             	9.821
MS.16          	30             	10.101
MS.17          	30             	10.109
MS.18          	30             	10.081
MS.19          	30             	10.119
MS.20          	30             	10.043
MS.21          	30             	10.061
MS.22          	30             	9.998
MS.23          	30             	10.085
MS.24          	29.88          	9.877
MS.25          	29.82          	10.077
MS.26          	29.76          	10.087
MS.27          	29.702         	10.194
MS.28          	29.642         	9.892
MS.29          	29.582         	10.137
MS.30          	29.522         	10.047
MS.31          	29.465         	10.169
MS.32          	29.405         	10.053
MS.33          	29.347         	9.986
MS.34          	29.287         	10.135
MS.35          	29.23          	10.111
MS.36          	29.172         	9.946
MS.37          	29.112         	9.942
MS.38          	29.055         	10.105
MS.39          	28.997         	9.648
MS.40          	28.94          	9.716
MS.41          	28.882         	9.579
MS.42          	28.823         	9.771
MS.43          	28.765         	9.96
MS.44          	28.707         	10.004
MS.45          	28.65          	9.9
MS.46          	28.595         	9.952
MS.47          	28.537         	9.761
MS.48          	28.48          	9.91
MS.49          	28.422         	10.041
MS.50          	28.365         	10.087
MS.51          	28.31          	9.962
MS.52          	28.252         	10.161
MS.53          	28.198         	10.242
MS.54          	28.14          	10.23
MS.55          	28.085         	10.178
MS.56          	28.028         	9.99
MS.57          	27.972         	10.178
MS.58          	27.915         	10.218
MS.59          	27.86          	10.238
MS.60          	27.805         	10.228
MS.61          	27.75          	10.049
MS.62          	27.692         	10.145
MS.63          	27.637         	9.996
MS.64          	27.582         	10.153
MS.65          	27.528         	10.026
MS.66          	27.472         	9.986
MS.67          	27.417         	10.111
MS.68          	27.362         	10.02
MS.69          	27.307         	9.883
MS.70          	27.255         	10.075
MS.71          	27.2           	10.049
MS.72          	27.145         	10.224
MS.73          	27.09          	10.184
MS.74          	27.037         	9.976
MS.75          	26.983         	10.085
MS.76          	26.927         	10.186
MS.77          	26.875         	10.049
MS.78          	26.82          	10.252
MS.79          	26.767         	10.206
MS.80          	26.715         	10.155
MS.81          	26.66          	10.282
MS.82          	26.608         	10.222
MS.83          	26.555         	10.105
MS.84          	26.502         	10.192
MS.85          	26.448         	10.186
MS.86          	26.395         	10.161
MS.87          	26.342         	10.176
MS.88          	26.29          	10.186
MS.89          	26.237         	10.206
MS.90          	26.185         	10.22
MS.91          	26.132         	10.228
MS.92          	26.08          	10.141
MS.93          	26.028         	10.21
MS.94          	25.977         	10.298
MS.95          	25.925         	10.308
MS.96          	25.872         	10.417
MS.97          	25.82          	10.284
MS.98          	25.77          	10.123
MS.99          	25.717         	10.306
MS.100         	25.667         	10.242
MS.101         	25.615         	10.379
MS.102         	25.565         	10.458
MS.103         	25.512         	10.411
MS.104         	25.462         	10.369
MS.105         	25.413         	10.333
MS.106         	25.36          	10.153
MS.107         	25.31          	10.417
MS.108         	25.26          	10.339
MS.109         	25.21          	10.014
MS.110         	25.157         	10.232
MS.111         	25.108         	10.248
MS.112         	25.057         	10.347
MS.113         	25.007         	10.405
MS.114         	24.957         	10.405
MS.115         	24.907         	10.349
MS.116         	24.858         	10.355
MS.117         	24.807         	10.359
MS.118         	24.76          	10.401
MS.119         	24.71          	10.375
MS.120         	24.66          	10.357
MS.121         	24.61          	10.224
MS.122         	24.562         	10.339
MS.123         	24.512         	10.395
MS.124         	24.465         	10.23
MS.125         	24.415         	10.329
MS.126         	24.365         	10.296
MS.127         	24.317         	10.292
MS.128         	24.27          	10.218
MS.129         	24.22          	10.325
MS.130         	24.172         	10.248
MS.131         	24.122         	10.304
MS.132         	24.075         	10.323
MS.133         	24.028         	10.153
MS.134         	23.98          	10.159
MS.135         	23.932         	10.19
MS.136         	23.882         	10.135
MS.137         	23.835         	10.236
MS.138         	23.788         	10.24
MS.139         	23.74          	10.147
MS.140         	23.692         	10.244
MS.141         	23.645         	10.18
MS.142         	23.597         	10.236
MS.143         	23.552         	10.327
MS.144         	23.505         	10.357
MS.145         	23.457         	10.375
MS.146         	23.41          	10.401
MS.147         	23.365         	10.411
MS.148         	23.317         	10.335
MS.149         	23.27          	10.333
MS.150         	23.225         	10.252
MS.151         	23.177         	10.262
MS.152         	23.132         	10.276
MS.153         	23.085         	10.327
MS.154         	23.04          	10.288
MS.155         	22.993         	10.385
MS.156         	22.948         	10.335
MS.157         	22.903         	10.24
MS.158         	22.855         	10.194
MS.159         	22.81          	10.093
MS.160         	22.765         	10.159
MS.161         	22.72          	10.28
MS.162         	22.672         	10.315
MS.163         	22.627         	10.268
MS.164         	22.582         	10.24
MS.165         	22.538         	10.234
MS.166         	22.493         	10.214
MS.167         	22.448         	10.159
MS.168         	22.403         	10.169
MS.169         	22.358         	9.968
MS.170         	22.312         	10.198
MS.171         	22.27          	10.256
MS.172         	22.225         	10.315
MS.173         	22.18          	10.321
MS.174         	22.135         	10.264
MS.175         	22.092         	10.22
MS.176         	22.047         	10.302
MS.177         	22.002         	10.26
MS.178         	21.96          	10.264
MS.179         	21.915         	10.244
MS.180         	21.872         	10.327
MS.181         	21.827         	10.131
MS.182         	21.785         	10.27
MS.183         	21.74          	10.121
MS.184         	21.698         	10.371
MS.185         	21.655         	10.165
MS.186         	21.61          	9.934
MS.187         	21.567         	10.151
MS.188         	21.525         	10.518
MS.189         	21.483         	10.453
MS.190         	21.438         	10.582
MS.191         	21.395         	10.327
MS.192         	21.352         	9.696
MS.193         	21.31          	9.69
MS.194         	21.267         	9.593
MS.195         	21.225         	9.602
MS.196         	21.182         	9.577
MS.197         	21.14          	9.593
MS.198         	21.097         	9.68
MS.199         	21.055         	9.686
MS.200         	21.015         	9.561
MS.201         	20.972         	9.575
MS.202         	20.93          	9.815
MS.203         	20.887         	9.73
MS.204         	20.847         	9.811
MS.205         	20.805         	9.728
MS.206         	20.762         	9.916
MS.207         	20.722         	10.182
MS.208         	20.68          	10.165
MS.209         	20.64          	10.208
MS.210         	20.597         	10.206
MS.211         	20.557         	10.218
MS.212         	20.515         	10.244
MS.213         	20.475         	10.294
MS.214         	20.435         	10.2
MS.215         	20.392         	10.304
MS.216         	20.352         	10.19
MS.217         	20.312         	10.204
MS.218         	20.27          	10.286
MS.219         	20.23          	10.304
MS.220         	20.19          	10.304
MS.221         	20.15          	10.278
MS.222         	20.11          	10.274
MS.223         	20.07          	10.2
MS.224         	20.03          	10.254
MS.225         	19.99          	10.288
MS.226         	19.95          	10.284
MS.227         	19.91          	10.234
MS.228         	19.87          	10.268
MS.229         	19.83          	10.29
MS.230         	19.79          	10.27
MS.231         	19.75          	10.18
MS.232         	19.712         	10.014
MS.233         	19.672         	10.153
MS.234         	19.632         	10.21
MS.235         	19.592         	10.204
MS.236         	19.555         	9.984
MS.237         	19.515         	10.182
MS.238         	19.475         	10.143
MS.239         	19.438         	9.95
MS.240         	19.397         	10.192
MS.241         	19.36          	10.188
MS.242         	19.32          	10.178
MS.243         	19.282         	9.978
MS.244         	19.245         	10.196
MS.245         	19.205         	9.97
MS.246         	19.167         	9.988
MS.247         	19.13          	10.016
MS.248         	19.09          	10.28
MS.249         	19.052         	10.091
MS.250         	19.015         	9.934
MS.251         	18.977         	10.121
MS.252         	18.938         	10.123
MS.253         	18.9           	10.351
MS.254         	18.862         	10.131
MS.255         	18.825         	10.069
MS.256         	18.788         	10.095
MS.257         	18.75          	10.075
MS.258         	18.712         	10.041
MS.259         	18.675         	10.107
MS.260         	18.637         	10.121
MS.261         	18.6           	10.109
MS.262         	18.562         	10.065
MS.263         	18.528         	10.129
MS.264         	18.49          	10.103
MS.265         	18.452         	10.123
MS.266         	18.415         	10.039
MS.267         	18.378         	9.99
MS.268         	18.342         	10.079
MS.269         	18.305         	10.043
MS.270         	18.27          	10.121
MS.271         	18.233         	10.161
MS.272         	18.195         	10.155
MS.273         	18.16          	10.194
MS.274         	18.122         	10.167
MS.275         	18.087         	10.198
MS.276         	18.05          	10.198
MS.277         	18.015         	10.222
MS.278         	17.98          	10.208
MS.279         	17.942         	10.2
MS.280         	17.907         	10.204
MS.281         	17.87          	10.151
MS.282         	17.835         	10.222
MS.283         	17.8           	10.165
MS.284         	17.765         	10.228
MS.285         	17.73          	10.228
MS.286         	17.692         	10.226
MS.287         	17.657         	10.226
MS.288         	17.622         	10.236
MS.289         	17.587         	10.246
MS.290         	17.552         	10.22
MS.291         	17.517         	10.202
MS.292         	17.483         	10.188
MS.293         	17.448         	10.184
MS.294         	17.413         	10.157
MS.295         	17.378         	10.113
MS.296         	17.342         	10.161
MS.297         	17.307         	10.21
MS.298         	17.275         	10.19
MS.299         	17.24          	10.188
MS.300         	17.205         	10.184
MS.301         	17.17          	10.176
MS.302         	17.135         	10.22
MS.303         	17.102         	10.206
MS.304         	17.067         	10.18
MS.305         	17.032         	10.174
MS.306         	17             	10.2
MS.307         	16.965         	10.176
MS.308         	16.932         	10.083
MS.309         	16.897         	10.075
MS.310         	16.865         	10.081
MS.311         	16.83          	10.073
MS.312         	16.797         	10.047
MS.313         	16.762         	10.075
MS.314         	16.73          	10.075
MS.315         	16.698         	10.057
MS.316         	16.663         	10.067
MS.317         	16.63          	10.091
MS.318         	16.597         	10.099
MS.319         	16.562         	10.109
MS.320         	16.53          	10.057
MS.321         	16.497         	10.073
MS.322         	16.465         	10.067
MS.323         	16.432         	10.065
MS.324         	16.397         	10.043
MS.325         	16.365         	10.004
MS.326         	16.333         	10.087
MS.327         	16.3           	10.073
MS.328         	16.267         	10.033
MS.329         	16.235         	10.069
MS.330         	16.202         	9.559
MS.331         	16.17          	10.026
MS.332         	16.137         	9.827
MS.333         	16.105         	9.487
MS.334         	16.075         	9.688
MS.335         	16.042         	9.501
MS.336         	16.01          	9.473
MS.337         	15.977         	9.525
MS.338         	15.945         	9.555
MS.339         	15.915         	9.543
MS.340         	15.882         	9.422
MS.341         	15.85          	9.497
MS.342         	15.818         	9.448
MS.343         	15.787         	9.358
MS.344         	15.755         	9.378
MS.345         	15.725         	9.515
MS.346         	15.693         	9.432
MS.347         	15.662         	9.376
MS.348         	15.63          	9.519
MS.349         	15.6           	9.406
MS.350         	15.568         	9.378
MS.351         	15.537         	9.392
MS.352         	15.505         	9.283
MS.353         	15.475         	9.271
MS.354         	15.443         	9.408
MS.355         	15.412         	9.42
MS.356         	15.382         	9.35
MS.357         	15.35          	9.259
MS.358         	15.32          	9.181
MS.359         	15.29          	9.174
MS.360         	15.26          	9.322
MS.361         	15.23          	9.181
MS.362         	15.197         	9.249
MS.363         	15.167         	9.172
MS.364         	15.137         	9.289
MS.365         	15.108         	9.1
MS.366         	15.077         	8.971
MS.367         	15.047         	9.072
MS.368         	15.017         	9.068
MS.369         	14.987         	9.158
MS.370         	14.957         	8.888
MS.371         	14.927         	9.118
MS.372         	14.898         	8.909
MS.373         	14.867         	8.888
MS.374         	14.837         	8.886
MS.375         	14.807         	8.909
MS.376         	14.78          	8.741
MS.377         	14.75          	8.121
MS.378         	14.72          	8.443
MS.379         	14.69          	8.397
MS.380         	14.66          	8.397
MS.381         	14.632         	8.498
MS.382         	14.602         	8.615
MS.383         	14.572         	7.785
MS.384         	14.545         	7.597
MS.385         	14.515         	7.678
MS.386         	14.485         	7.684
MS.387         	14.457         	7.64
MS.388         	14.427         	7.765
MS.389         	14.4           	7.839
MS.390         	14.37          	7.601
MS.391         	14.342         	7.708
MS.392         	14.312         	7.583
MS.393         	14.285         	7.664
MS.394         	14.255         	7.458
MS.395         	14.227         	7.458
MS.396         	14.2           	7.809
MS.397         	14.17          	7.581
MS.398         	14.142         	7.708
MS.399         	14.115         	7.728
MS.400         	14.085         	7.684
MS.401         	14.057         	8.123
MS.402         	14.03          	8.059
MS.403         	14.002         	7.833
MS.404         	13.975         	8.335
MS.405         	13.945         	8.304
MS.406         	13.917         	7.92
MS.407         	13.89          	8.041
MS.408         	13.862         	8.107
MS.409         	13.835         	8.224
MS.410         	13.807         	8.184
MS.411         	13.78          	8.19
MS.412         	13.752         	7.833
MS.413         	13.725         	7.803
MS.414         	13.697         	8.073
MS.415         	13.67          	7.825
MS.416         	13.642         	7.938
MS.417         	13.615         	7.853
MS.418         	13.587         	7.575
MS.419         	13.56          	7.392
MS.420         	13.535         	7.777
MS.421         	13.507         	8.008
MS.422         	13.48          	7.579
MS.423         	13.452         	7.998
MS.424         	13.425         	7.595
MS.425         	13.4           	7.462
MS.426         	13.372         	7.662
MS.427         	13.345         	7.616
MS.428         	13.32          	7.213
MS.429         	13.292         	7.259
MS.430         	13.265         	7.243
MS.431         	13.24          	7.295
MS.432         	13.212         	7.066
MS.433         	13.188         	7.223
MS.434         	13.16          	7.319
MS.435         	13.135         	7.104
MS.436         	13.108         	7.136
MS.437         	13.082         	7.259
MS.438         	13.055         	7.064
MS.439         	13.03          	6.961
MS.440         	13.002         	7.287
MS.441         	12.977         	7.084
MS.442         	12.952         	6.915
MS.443         	12.925         	6.959
MS.444         	12.9           	6.896
MS.445         	12.875         	6.907
MS.446         	12.847         	6.947
MS.447         	12.822         	6.739
MS.448         	12.797         	6.888
MS.449         	12.77          	6.866
MS.450         	12.745         	6.721
MS.451         	12.72          	6.725
MS.452         	12.695         	6.735
MS.453         	12.67          	6.701
MS.454         	12.645         	6.351
MS.455         	12.62          	6.711
MS.456         	12.592         	6.635
MS.457         	12.568         	6.431
MS.458         	12.542         	6.522
MS.459         	12.517         	6.087
MS.460         	12.492         	6.393
MS.461         	12.467         	6.474
MS.462         	12.443         	6.065
MS.463         	12.417         	6.236
MS.464         	12.395         	6.049
MS.465         	12.37          	6.036
MS.466         	12.345         	5.916
MS.467         	12.32          	5.843
MS.468         	12.295         	5.678
MS.469         	12.27          	5.936
MS.470         	12.245         	5.668
MS.471         	12.222         	5.887
MS.472         	12.197         	5.404
MS.473         	12.172         	5.543
MS.474         	12.148         	5.372
MS.475         	12.125         	5.561
MS.476         	12.1           	5.045
MS.477         	12.075         	5.37
MS.478         	12.052         	5.227
MS.479         	12.028         	5.154
MS.480         	12.002         	4.685
MS.481         	11.98          	4.884
MS.482         	11.955         	4.991
MS.483         	11.932         	5.049
MS.484         	11.907         	4.113
MS.485         	11.885         	4.534
MS.486         	11.86          	4.6
MS.487         	11.837         	4.439
MS.488         	11.812         	4.488
MS.489         	11.79          	4.572
MS.490         	11.765         	4.5
MS.491         	11.742         	4.381
MS.492         	11.72          	4.409
MS.493         	11.695         	3.571
MS.494         	11.672         	4.31
