File:              	C:\Qtrac\Data\Daniel M Sørensen\MScan multicentre study\Data from centres\Antalya\Processed data\TR.NC.ANT.3.2- NCC00326A.QZD
Name:              	TR.NC.ANT.3.2
Protocol:          	MSCAN-R2
Date:              	26/3/20
Start time:        	16:30:23
Age:               	37
Sex:               	f
Temperature:       	31.3
S/R sites:         	APB
NC/disease:        	NC
Operator:          	ab
Comments:          	left APB
M-SCAN DATA (7.1-2.5m)
Scanpts: 34, 37, 426, 432
Stim. (mA)     	Amp. (mV)
MS.1           	12             	11.747
MS.2           	12             	11.706
MS.3           	12             	11.724
MS.4           	12             	11.737
MS.5           	12             	11.734
MS.6           	12             	11.761
MS.7           	12             	11.743
MS.8           	12             	11.765
MS.9           	12             	11.775
MS.10          	12             	11.771
MS.11          	12             	11.775
MS.12          	12             	11.767
MS.13          	12             	11.779
MS.14          	12             	11.779
MS.15          	12             	11.801
MS.16          	12             	11.795
MS.17          	12             	11.791
MS.18          	12             	11.789
MS.19          	12             	11.777
MS.20          	12             	11.787
MS.21          	12             	11.797
MS.22          	12             	11.793
MS.23          	12             	11.797
MS.24          	11.952         	11.789
MS.25          	11.927         	11.797
MS.26          	11.905         	11.791
MS.27          	11.88          	11.817
MS.28          	11.858         	11.823
MS.29          	11.832         	11.841
MS.30          	11.81          	11.845
MS.31          	11.785         	11.849
MS.32          	11.762         	11.861
MS.33          	11.74          	11.871
MS.34          	11.715         	11.859
MS.35          	11.693         	11.867
MS.36          	11.667         	11.886
MS.37          	11.645         	11.855
MS.38          	11.622         	11.898
MS.39          	11.6           	11.873
MS.40          	11.575         	11.815
MS.41          	11.552         	11.837
MS.42          	11.53          	11.833
MS.43          	11.507         	11.855
MS.44          	11.483         	11.871
MS.45          	11.46          	11.91
MS.46          	11.438         	11.847
MS.47          	11.415         	11.857
MS.48          	11.392         	11.88
MS.49          	11.37          	11.829
MS.50          	11.347         	11.833
MS.51          	11.325         	11.809
MS.52          	11.3           	11.791
MS.53          	11.278         	11.851
MS.54          	11.255         	11.805
MS.55          	11.233         	11.783
MS.56          	11.21          	11.767
MS.57          	11.188         	11.799
MS.58          	11.167         	11.791
MS.59          	11.145         	11.771
MS.60          	11.122         	11.791
MS.61          	11.1           	11.805
MS.62          	11.077         	11.801
MS.63          	11.055         	11.839
MS.64          	11.032         	11.777
MS.65          	11.01          	11.813
MS.66          	10.99          	11.803
MS.67          	10.967         	11.789
MS.68          	10.945         	11.803
MS.69          	10.922         	11.765
MS.70          	10.903         	11.662
MS.71          	10.88          	11.6
MS.72          	10.858         	11.642
MS.73          	10.837         	11.64
MS.74          	10.815         	11.581
MS.75          	10.792         	11.471
MS.76          	10.773         	11.451
MS.77          	10.75          	11.394
MS.78          	10.727         	11.388
MS.79          	10.707         	11.336
MS.80          	10.685         	11.326
MS.81          	10.665         	11.378
MS.82          	10.642         	11.434
MS.83          	10.622         	11.483
MS.84          	10.6           	11.416
MS.85          	10.58          	11.493
MS.86          	10.557         	11.875
MS.87          	10.537         	11.869
MS.88          	10.515         	11.847
MS.89          	10.495         	11.827
MS.90          	10.475         	11.871
MS.91          	10.452         	11.791
MS.92          	10.432         	11.737
MS.93          	10.412         	11.646
MS.94          	10.39          	11.863
MS.95          	10.37          	11.954
MS.96          	10.35          	11.718
MS.97          	10.327         	11.634
MS.98          	10.307         	11.632
MS.99          	10.287         	11.493
MS.100         	10.267         	11.501
MS.101         	10.245         	11.398
MS.102         	10.225         	11.517
MS.103         	10.205         	11.436
MS.104         	10.185         	11.446
MS.105         	10.165         	11.493
MS.106         	10.145         	11.442
MS.107         	10.125         	11.626
MS.108         	10.102         	11.682
MS.109         	10.082         	11.857
MS.110         	10.062         	11.966
MS.111         	10.042         	11.922
MS.112         	10.023         	11.793
MS.113         	10.002         	11.835
MS.114         	9.983          	11.912
MS.115         	9.962          	11.974
MS.116         	9.943          	11.873
MS.117         	9.922          	11.924
MS.118         	9.903          	11.722
MS.119         	9.885          	11.656
MS.120         	9.865          	11.741
MS.121         	9.845          	11.825
MS.122         	9.825          	11.904
MS.123         	9.805          	11.811
MS.124         	9.785          	11.803
MS.125         	9.765          	11.96
MS.126         	9.747          	11.747
MS.127         	9.727          	11.966
MS.128         	9.707          	11.785
MS.129         	9.688          	11.98
MS.130         	9.67           	11.781
MS.131         	9.65           	11.722
MS.132         	9.63           	11.753
MS.133         	9.61           	11.827
MS.134         	9.592          	11.69
MS.135         	9.573          	11.696
MS.136         	9.552          	11.88
MS.137         	9.535          	11.777
MS.138         	9.515          	11.618
MS.139         	9.497          	11.382
MS.140         	9.477          	11.457
MS.141         	9.457          	11.255
MS.142         	9.44           	11.356
MS.143         	9.42           	11.301
MS.144         	9.403          	11.422
MS.145         	9.382          	11.451
MS.146         	9.365          	11.509
MS.147         	9.345          	11.43
MS.148         	9.327          	11.326
MS.149         	9.307          	11.036
MS.150         	9.29           	11.596
MS.151         	9.27           	11.086
MS.152         	9.252          	11.41
MS.153         	9.235          	10.929
MS.154         	9.215          	11.483
MS.155         	9.198          	11.571
MS.156         	9.18           	11.32
MS.157         	9.16           	10.953
MS.158         	9.142          	10.838
MS.159         	9.125          	10.891
MS.160         	9.105          	10.947
MS.161         	9.087          	11.126
MS.162         	9.07           	11.026
MS.163         	9.052          	10.778
MS.164         	9.033          	10.864
MS.165         	9.015          	11.056
MS.166         	8.997          	10.84
MS.167         	8.98           	10.985
MS.168         	8.96           	10.925
MS.169         	8.943          	10.82
MS.170         	8.925          	10.895
MS.171         	8.908          	10.915
MS.172         	8.89           	10.854
MS.173         	8.872          	10.754
MS.174         	8.855          	10.725
MS.175         	8.837          	10.802
MS.176         	8.82           	10.989
MS.177         	8.802          	10.685
MS.178         	8.783          	10.713
MS.179         	8.765          	10.744
MS.180         	8.747          	10.778
MS.181         	8.73           	10.52
MS.182         	8.715          	10.79
MS.183         	8.698          	10.615
MS.184         	8.68           	10.401
MS.185         	8.662          	10.619
MS.186         	8.645          	10.568
MS.187         	8.627          	10.264
MS.188         	8.61           	10.22
MS.189         	8.592          	10.429
MS.190         	8.575          	9.831
MS.191         	8.557          	10.208
MS.192         	8.54           	9.992
MS.193         	8.525          	10.161
MS.194         	8.507          	9.749
MS.195         	8.49           	9.543
MS.196         	8.472          	9.704
MS.197         	8.455          	9.64
MS.198         	8.44           	9.63
MS.199         	8.422          	9.289
MS.200         	8.405          	9.257
MS.201         	8.39           	8.969
MS.202         	8.372          	9.221
MS.203         	8.355          	9.098
MS.204         	8.337          	9.031
MS.205         	8.323          	8.989
MS.206         	8.305          	8.754
MS.207         	8.29           	8.689
MS.208         	8.273          	8.739
MS.209         	8.255          	8.893
MS.210         	8.24           	8.846
MS.211         	8.222          	8.598
MS.212         	8.207          	8.84
MS.213         	8.19           	8.639
MS.214         	8.172          	8.504
MS.215         	8.158          	8.737
MS.216         	8.14           	8.21
MS.217         	8.125          	8.413
MS.218         	8.108          	8.399
MS.219         	8.092          	8.316
MS.220         	8.075          	8.204
MS.221         	8.06           	8.075
MS.222         	8.045          	8.155
MS.223         	8.028          	7.72
MS.224         	8.012          	8.012
MS.225         	7.995          	8.274
MS.226         	7.98           	7.718
MS.227         	7.965          	7.285
MS.228         	7.947          	8.053
MS.229         	7.932          	7.964
MS.230         	7.915          	7.432
MS.231         	7.9            	7.601
MS.232         	7.885          	7.275
MS.233         	7.87           	7.517
MS.234         	7.852          	7.237
MS.235         	7.837          	7.706
MS.236         	7.822          	7.336
MS.237         	7.805          	6.993
MS.238         	7.79           	6.866
MS.239         	7.775          	7.096
MS.240         	7.76           	6.983
MS.241         	7.745          	6.568
MS.242         	7.727          	6.727
MS.243         	7.712          	6.719
MS.244         	7.697          	6.341
MS.245         	7.682          	6.431
MS.246         	7.668          	6.494
MS.247         	7.652          	6.387
MS.248         	7.635          	6.192
MS.249         	7.62           	6.133
MS.250         	7.605          	6.22
MS.251         	7.59           	6.216
MS.252         	7.575          	5.93
MS.253         	7.56           	5.682
MS.254         	7.545          	5.694
MS.255         	7.53           	5.76
MS.256         	7.515          	5.499
MS.257         	7.5            	5.428
MS.258         	7.485          	5.662
MS.259         	7.47           	5.052
MS.260         	7.455          	4.822
MS.261         	7.44           	5.013
MS.262         	7.425          	4.57
MS.263         	7.41           	4.802
MS.264         	7.395          	4.828
MS.265         	7.38           	4.089
MS.266         	7.365          	4.526
MS.267         	7.352          	4.216
MS.268         	7.337          	4.3
MS.269         	7.322          	3.879
MS.270         	7.307          	4.316
MS.271         	7.293          	4.401
MS.272         	7.277          	4.353
MS.273         	7.265          	3.48
MS.274         	7.25           	3.561
MS.275         	7.235          	3.66
MS.276         	7.22           	3.386
MS.277         	7.205          	3.035
MS.278         	7.192          	3.225
MS.279         	7.177          	3.601
MS.280         	7.162          	3.613
MS.281         	7.148          	3.37
MS.282         	7.135          	3.064
MS.283         	7.12           	3.078
MS.284         	7.105          	3.146
MS.285         	7.092          	2.763
MS.286         	7.077          	3.047
MS.287         	7.062          	3.041
MS.288         	7.05           	2.657
MS.289         	7.035          	2.735
MS.290         	7.02           	2.558
MS.291         	7.007          	2.5
MS.292         	6.992          	2.639
MS.293         	6.98           	2.407
MS.294         	6.965          	2.473
MS.295         	6.95           	2.405
MS.296         	6.938          	2.369
MS.297         	6.922          	2.349
MS.298         	6.91           	2.288
MS.299         	6.895          	2.318
MS.300         	6.882          	2.214
MS.301         	6.867          	2.199
MS.302         	6.855          	2.322
MS.303         	6.84           	2.218
MS.304         	6.827          	2.073
MS.305         	6.812          	2.022
MS.306         	6.8            	1.932
MS.307         	6.787          	1.891
MS.308         	6.773          	2.062
MS.309         	6.76           	2.062
MS.310         	6.745          	1.988
MS.311         	6.733          	1.815
MS.312         	6.72           	1.706
MS.313         	6.705          	1.843
MS.314         	6.692          	1.97
MS.315         	6.677          	1.821
MS.316         	6.665          	1.706
MS.317         	6.652          	1.678
MS.318         	6.637          	1.627
MS.319         	6.625          	1.682
MS.320         	6.612          	1.43
MS.321         	6.6            	1.605
MS.322         	6.585          	1.468
MS.323         	6.572          	1.444
MS.324         	6.56           	1.362
MS.325         	6.547          	1.372
MS.326         	6.532          	1.372
MS.327         	6.52           	1.154
MS.328         	6.507          	1.15
MS.329         	6.495          	1.374
MS.330         	6.48           	1.263
MS.331         	6.467          	1.158
MS.332         	6.455          	1.094
MS.333         	6.442          	1.146
MS.334         	6.43           	1.106
MS.335         	6.418          	1.08
MS.336         	6.405          	1.128
MS.337         	6.39           	0.985
MS.338         	6.378          	1.12
MS.339         	6.365          	0.904
MS.340         	6.352          	0.933
MS.341         	6.34           	0.902
MS.342         	6.327          	0.719
MS.343         	6.315          	0.741
MS.344         	6.302          	0.767
MS.345         	6.29           	0.681
MS.346         	6.277          	0.812
MS.347         	6.265          	0.661
MS.348         	6.253          	0.534
MS.349         	6.24           	0.622
MS.350         	6.227          	0.566
MS.351         	6.215          	0.522
MS.352         	6.202          	0.574
MS.353         	6.19           	0.413
MS.354         	6.177          	0.401
MS.355         	6.165          	0.338
MS.356         	6.152          	0.453
MS.357         	6.14           	0.512
MS.358         	6.128          	0.463
MS.359         	6.115          	0.439
MS.360         	6.102          	0.469
MS.361         	6.092          	0.357
MS.362         	6.08           	0.443
MS.363         	6.067          	0.437
MS.364         	6.055          	0.393
MS.365         	6.043          	0.439
MS.366         	6.03           	0.318
MS.367         	6.02           	0.276
MS.368         	6.007          	0.161
MS.369         	5.995          	0.371
MS.370         	5.983          	0.328
MS.371         	5.97           	0.258
MS.372         	5.96           	0.252
MS.373         	5.947          	0.214
MS.374         	5.935          	0.258
MS.375         	5.922          	0.066
MS.376         	5.912          	0.145
MS.377         	5.9            	0.266
MS.378         	5.887          	0.149
MS.379         	5.875          	0.137
MS.380         	5.865          	0.242
MS.381         	5.852          	0.3
MS.382         	5.84           	0.135
MS.383         	5.83           	0.091
MS.384         	5.817          	0.054
MS.385         	5.805          	0.145
MS.386         	5.795          	0.052
MS.387         	5.782          	0.056
MS.388         	5.773          	0.181
MS.389         	5.76           	0.066
MS.390         	5.747          	0.077
MS.391         	5.737          	0.058
MS.392         	5.725          	0.115
MS.393         	5.715          	0.087
MS.394         	5.702          	0.058
MS.395         	5.69           	-0.016
MS.396         	5.68           	0.02
MS.397         	5.668          	0.044
MS.398         	5.657          	0.113
MS.399         	5.645          	0.042
MS.400         	5.635          	0.032
MS.401         	5.622          	0.006
MS.402         	5.612          	0.036
MS.403         	5.6            	0.089
MS.404         	5.59           	0.058
MS.405         	5.577          	0.095
MS.406         	5.567          	0.028
MS.407         	5.555          	0.058
MS.408         	5.545          	0.058
MS.409         	5.535          	0.028
MS.410         	5.523          	0.05
MS.411         	5.512          	0.105
MS.412         	5.5            	0.022
MS.413         	5.49           	0.012
MS.414         	5.48           	0.034
MS.415         	5.467          	0.016
MS.416         	5.457          	0.002
MS.417         	5.445          	0.064
MS.418         	5.435          	0.036
MS.419         	5.425          	0.085
MS.420         	5.412          	0.093
MS.421         	5.402          	0.008
MS.422         	5.392          	0.052
MS.423         	5.38           	0.036
MS.424         	5.37           	0.06
MS.425         	5.36           	0.05
MS.426         	5.35           	0.004
MS.427         	5.338          	0.024
MS.428         	5.327          	0.036
MS.429         	5.318          	0.028
MS.430         	5.307          	0.042
MS.431         	5.295          	0.028
MS.432         	5.285          	0.046
MS.433         	5.275          	0.036
MS.434         	5.265          	0.026
MS.435         	5.253          	0.012
MS.436         	5.242          	0.016
MS.437         	5.233          	0.02
MS.438         	5.222          	0.089
MS.439         	5.213          	-0.004
MS.440         	5.202          	0.01
MS.441         	5.19           	0.022
MS.442         	5.18           	-0.022
MS.443         	5.17           	0.012
MS.444         	5.16           	0.024
MS.445         	5.15           	0.058
MS.446         	5.14           	0.04
MS.447         	5.13           	0.024
MS.448         	5.117          	0.02
MS.449         	5.108          	0.101
MS.450         	5.097          	0.028
MS.451         	5.088          	0.038
MS.452         	5.077          	0.075
MS.453         	5.068          	0.032
MS.454         	5.057          	0.028
MS.455         	5.047          	0.03
MS.456         	5.037          	0.02
MS.457         	5.027          	0.026
MS.458         	5.017          	0.038
MS.459         	5.007          	0.024
MS.460         	4.997          	0.03
MS.461         	4.987          	0.014
MS.462         	4.977          	0.02
MS.463         	4.967          	0.008
MS.464         	4.957          	0.022
MS.465         	4.947          	0.034
MS.466         	4.938          	0.016
MS.467         	4.927          	0.06
MS.468         	4.918          	0.062
MS.469         	4.907          	0.012
MS.470         	4.898          	0.02
MS.471         	4.887          	0.036
MS.472         	4.88           	0.028
MS.473         	4.87           	0.018
MS.474         	4.86           	0.022
MS.475         	4.85           	0.038
MS.476         	4.84           	0.038
MS.477         	4.83           	0.004
MS.478         	4.82           	0.01
MS.479         	4.81           	0.02
MS.480         	4.802          	0.03
MS.481         	4.793          	0.06
MS.482         	4.782          	0.026
MS.483         	4.773          	0.036
MS.484         	4.762          	0.054
MS.485         	4.753          	0.026
MS.486         	4.745          	0.038
MS.487         	4.735          	0.026
MS.488         	4.725          	0.022
MS.489         	4.715          	-0.014
MS.490         	4.707          	0.022
MS.491         	4.697          	0.026
MS.492         	4.688          	0.016
MS.493         	4.677          	0.03
MS.494         	4.67           	0.014
MS.495         	4.66           	0.046
