File:              	C:\Qtrac\Data\Daniel M Sørensen\MScan multicentre study\Data from centres\Antalya\Processed data\TR.NC.ANT.4.1- NCC00315J.QZD
Name:              	TR.NC.ANT.4.1
Protocol:          	MSCAN-R2
Date:              	15/3/20
Start time:        	19:19:26
Age:               	22
Sex:               	f
Temperature:       	30.5
S/R sites:         	APB
NC/disease:        	NC
Operator:          	ab
Comments:          	left APB
M-SCAN DATA (6.5-1.5m)
Scanpts: 177, 183, 522, 544
Stim. (mA)     	Amp. (mV)
MS.1           	12             	13.316
MS.2           	12             	13.31
MS.3           	12             	13.295
MS.4           	12             	13.279
MS.5           	12             	13.295
MS.6           	12             	13.287
MS.7           	12             	13.281
MS.8           	12             	13.295
MS.9           	12             	13.279
MS.10          	12             	13.287
MS.11          	12             	13.304
MS.12          	12             	13.295
MS.13          	12             	13.295
MS.14          	12             	13.287
MS.15          	12             	13.285
MS.16          	12             	13.283
MS.17          	12             	13.275
MS.18          	12             	13.277
MS.19          	12             	13.269
MS.20          	12             	13.293
MS.21          	12             	13.293
MS.22          	12             	13.302
MS.23          	12             	13.299
MS.24          	11.952         	13.304
MS.25          	11.927         	13.289
MS.26          	11.905         	13.283
MS.27          	11.88          	13.283
MS.28          	11.858         	13.285
MS.29          	11.832         	13.281
MS.30          	11.81          	13.279
MS.31          	11.785         	13.308
MS.32          	11.762         	13.314
MS.33          	11.74          	13.306
MS.34          	11.715         	13.304
MS.35          	11.693         	13.316
MS.36          	11.667         	13.293
MS.37          	11.645         	13.287
MS.38          	11.622         	13.295
MS.39          	11.6           	13.289
MS.40          	11.575         	13.283
MS.41          	11.552         	13.295
MS.42          	11.53          	13.297
MS.43          	11.507         	13.304
MS.44          	11.483         	13.31
MS.45          	11.46          	13.302
MS.46          	11.438         	13.31
MS.47          	11.415         	13.283
MS.48          	11.392         	13.293
MS.49          	11.37          	13.304
MS.50          	11.347         	13.291
MS.51          	11.325         	13.293
MS.52          	11.3           	13.304
MS.53          	11.278         	13.285
MS.54          	11.255         	13.304
MS.55          	11.233         	13.293
MS.56          	11.21          	13.289
MS.57          	11.188         	13.306
MS.58          	11.167         	13.293
MS.59          	11.145         	13.289
MS.60          	11.122         	13.306
MS.61          	11.1           	13.299
MS.62          	11.077         	13.308
MS.63          	11.055         	13.308
MS.64          	11.032         	13.31
MS.65          	11.01          	13.297
MS.66          	10.99          	13.306
MS.67          	10.967         	13.306
MS.68          	10.945         	13.295
MS.69          	10.922         	13.297
MS.70          	10.903         	13.299
MS.71          	10.88          	13.283
MS.72          	10.858         	13.304
MS.73          	10.837         	13.304
MS.74          	10.815         	13.297
MS.75          	10.792         	13.287
MS.76          	10.773         	13.295
MS.77          	10.75          	13.281
MS.78          	10.727         	13.285
MS.79          	10.707         	13.277
MS.80          	10.685         	13.283
MS.81          	10.665         	13.289
MS.82          	10.642         	13.289
MS.83          	10.622         	13.279
MS.84          	10.6           	13.281
MS.85          	10.58          	13.277
MS.86          	10.557         	13.281
MS.87          	10.537         	13.285
MS.88          	10.515         	13.285
MS.89          	10.495         	13.279
MS.90          	10.475         	13.279
MS.91          	10.452         	13.277
MS.92          	10.432         	13.279
MS.93          	10.412         	13.271
MS.94          	10.39          	13.275
MS.95          	10.37          	13.285
MS.96          	10.35          	13.267
MS.97          	10.327         	13.281
MS.98          	10.307         	13.281
MS.99          	10.287         	13.269
MS.100         	10.267         	13.279
MS.101         	10.245         	13.271
MS.102         	10.225         	13.275
MS.103         	10.205         	13.277
MS.104         	10.185         	13.273
MS.105         	10.165         	13.269
MS.106         	10.145         	13.283
MS.107         	10.125         	13.269
MS.108         	10.102         	13.273
MS.109         	10.082         	13.259
MS.110         	10.062         	13.263
MS.111         	10.042         	13.261
MS.112         	10.023         	13.275
MS.113         	10.002         	13.257
MS.114         	9.983          	13.265
MS.115         	9.962          	13.261
MS.116         	9.943          	13.257
MS.117         	9.922          	13.269
MS.118         	9.903          	13.257
MS.119         	9.885          	13.265
MS.120         	9.865          	13.271
MS.121         	9.845          	13.271
MS.122         	9.825          	13.263
MS.123         	9.805          	13.279
MS.124         	9.785          	13.257
MS.125         	9.765          	13.281
MS.126         	9.747          	13.259
MS.127         	9.727          	13.257
MS.128         	9.707          	13.279
MS.129         	9.688          	13.275
MS.130         	9.67           	13.269
MS.131         	9.65           	13.257
MS.132         	9.63           	13.259
MS.133         	9.61           	13.263
MS.134         	9.592          	13.269
MS.135         	9.573          	13.267
MS.136         	9.552          	13.269
MS.137         	9.535          	13.267
MS.138         	9.515          	13.265
MS.139         	9.497          	13.267
MS.140         	9.477          	13.259
MS.141         	9.457          	13.257
MS.142         	9.44           	13.265
MS.143         	9.42           	13.263
MS.144         	9.403          	13.245
MS.145         	9.382          	13.255
MS.146         	9.365          	13.259
MS.147         	9.345          	13.259
MS.148         	9.327          	13.261
MS.149         	9.307          	13.253
MS.150         	9.29           	13.263
MS.151         	9.27           	13.263
MS.152         	9.252          	13.249
MS.153         	9.235          	13.251
MS.154         	9.215          	13.265
MS.155         	9.198          	13.249
MS.156         	9.18           	13.255
MS.157         	9.16           	13.257
MS.158         	9.142          	13.249
MS.159         	9.125          	13.239
MS.160         	9.105          	13.249
MS.161         	9.087          	13.239
MS.162         	9.07           	13.247
MS.163         	9.052          	13.243
MS.164         	9.033          	13.235
MS.165         	9.015          	13.251
MS.166         	8.997          	13.241
MS.167         	8.98           	13.247
MS.168         	8.96           	13.247
MS.169         	8.943          	13.253
MS.170         	8.925          	13.253
MS.171         	8.908          	13.245
MS.172         	8.89           	13.233
MS.173         	8.872          	13.243
MS.174         	8.855          	13.247
MS.175         	8.837          	13.239
MS.176         	8.82           	13.243
MS.177         	8.802          	13.245
MS.178         	8.783          	13.247
MS.179         	8.765          	13.245
MS.180         	8.747          	13.247
MS.181         	8.73           	13.237
MS.182         	8.715          	13.239
MS.183         	8.698          	13.245
MS.184         	8.68           	13.241
MS.185         	8.662          	13.227
MS.186         	8.645          	13.241
MS.187         	8.627          	13.235
MS.188         	8.61           	13.237
MS.189         	8.592          	13.229
MS.190         	8.575          	13.231
MS.191         	8.557          	13.241
MS.192         	8.54           	13.233
MS.193         	8.525          	13.229
MS.194         	8.507          	13.251
MS.195         	8.49           	13.235
MS.196         	8.472          	13.233
MS.197         	8.455          	13.239
MS.198         	8.44           	13.247
MS.199         	8.422          	13.235
MS.200         	8.405          	13.229
MS.201         	8.39           	13.223
MS.202         	8.372          	13.229
MS.203         	8.355          	13.219
MS.204         	8.337          	13.229
MS.205         	8.323          	13.211
MS.206         	8.305          	13.219
MS.207         	8.29           	13.221
MS.208         	8.273          	13.221
MS.209         	8.255          	13.227
MS.210         	8.24           	13.223
MS.211         	8.222          	13.229
MS.212         	8.207          	13.225
MS.213         	8.19           	13.217
MS.214         	8.172          	13.179
MS.215         	8.158          	13.156
MS.216         	8.14           	13.136
MS.217         	8.125          	13.108
MS.218         	8.108          	13.128
MS.219         	8.092          	13.128
MS.220         	8.075          	13.114
MS.221         	8.06           	13.124
MS.222         	8.045          	13.14
MS.223         	8.028          	13.114
MS.224         	8.012          	13.136
MS.225         	7.995          	13.1
MS.226         	7.98           	13.108
MS.227         	7.965          	13.09
MS.228         	7.947          	13.124
MS.229         	7.932          	13.052
MS.230         	7.915          	13.068
MS.231         	7.9            	13.07
MS.232         	7.885          	13.144
MS.233         	7.87           	13.066
MS.234         	7.852          	13.044
MS.235         	7.837          	12.885
MS.236         	7.822          	13.12
MS.237         	7.805          	13.161
MS.238         	7.79           	12.995
MS.239         	7.775          	13.112
MS.240         	7.76           	12.945
MS.241         	7.745          	12.895
MS.242         	7.727          	12.87
MS.243         	7.712          	13.07
MS.244         	7.697          	13.05
MS.245         	7.682          	12.895
MS.246         	7.668          	12.798
MS.247         	7.652          	12.782
MS.248         	7.635          	12.758
MS.249         	7.62           	12.732
MS.250         	7.605          	12.748
MS.251         	7.59           	12.729
MS.252         	7.575          	12.725
MS.253         	7.56           	12.703
MS.254         	7.545          	12.492
MS.255         	7.53           	12.651
MS.256         	7.515          	12.701
MS.257         	7.5            	12.723
MS.258         	7.485          	12.713
MS.259         	7.47           	12.572
MS.260         	7.455          	12.762
MS.261         	7.44           	12.76
MS.262         	7.425          	12.778
MS.263         	7.41           	12.774
MS.264         	7.395          	12.744
MS.265         	7.38           	12.788
MS.266         	7.365          	12.736
MS.267         	7.352          	12.738
MS.268         	7.337          	12.562
MS.269         	7.322          	12.586
MS.270         	7.307          	12.542
MS.271         	7.293          	12.514
MS.272         	7.277          	12.57
MS.273         	7.265          	12.576
MS.274         	7.25           	12.55
MS.275         	7.235          	12.766
MS.276         	7.22           	12.671
MS.277         	7.205          	12.48
MS.278         	7.192          	12.663
MS.279         	7.177          	12.717
MS.280         	7.162          	12.667
MS.281         	7.148          	12.613
MS.282         	7.135          	12.623
MS.283         	7.12           	12.625
MS.284         	7.105          	12.58
MS.285         	7.092          	12.085
MS.286         	7.077          	12.427
MS.287         	7.062          	12.157
MS.288         	7.05           	12.627
MS.289         	7.035          	12.359
MS.290         	7.02           	12.405
MS.291         	7.007          	12.355
MS.292         	6.992          	12.256
MS.293         	6.98           	11.845
MS.294         	6.965          	11.912
MS.295         	6.95           	11.871
MS.296         	6.938          	11.525
MS.297         	6.922          	11.869
MS.298         	6.91           	11.908
MS.299         	6.895          	11.867
MS.300         	6.882          	11.392
MS.301         	6.867          	11.336
MS.302         	6.855          	11.598
MS.303         	6.84           	11.336
MS.304         	6.827          	11.211
MS.305         	6.812          	11.555
MS.306         	6.8            	11.434
MS.307         	6.787          	11.219
MS.308         	6.773          	11.318
MS.309         	6.76           	10.961
MS.310         	6.745          	11.019
MS.311         	6.733          	10.764
MS.312         	6.72           	10.611
MS.313         	6.705          	10.613
MS.314         	6.692          	10.659
MS.315         	6.677          	10.417
MS.316         	6.665          	10.55
MS.317         	6.652          	10.673
MS.318         	6.637          	10.532
MS.319         	6.625          	10.58
MS.320         	6.612          	10.063
MS.321         	6.6            	10.49
MS.322         	6.585          	10.19
MS.323         	6.572          	10.321
MS.324         	6.56           	10.029
MS.325         	6.547          	9.827
MS.326         	6.532          	9.652
MS.327         	6.52           	9.98
MS.328         	6.507          	10.043
MS.329         	6.495          	9.726
MS.330         	6.48           	9.557
MS.331         	6.467          	9.841
MS.332         	6.455          	9.473
MS.333         	6.442          	9.297
MS.334         	6.43           	8.985
MS.335         	6.418          	8.925
MS.336         	6.405          	9.35
MS.337         	6.39           	9.114
MS.338         	6.378          	8.836
MS.339         	6.365          	8.449
MS.340         	6.352          	8.625
MS.341         	6.34           	8.284
MS.342         	6.327          	7.904
MS.343         	6.315          	8.238
MS.344         	6.302          	8.149
MS.345         	6.29           	7.879
MS.346         	6.277          	7.573
MS.347         	6.265          	7.481
MS.348         	6.253          	7.533
MS.349         	6.24           	7.614
MS.350         	6.227          	7.499
MS.351         	6.215          	6.812
MS.352         	6.202          	7.243
MS.353         	6.19           	7.233
MS.354         	6.177          	6.721
MS.355         	6.165          	7.366
MS.356         	6.152          	7.035
MS.357         	6.14           	6.822
MS.358         	6.128          	6.826
MS.359         	6.115          	6.822
MS.360         	6.102          	6.367
MS.361         	6.092          	6.32
MS.362         	6.08           	6.449
MS.363         	6.067          	6.322
MS.364         	6.055          	6.198
MS.365         	6.043          	6.284
MS.366         	6.03           	5.93
MS.367         	6.02           	5.988
MS.368         	6.007          	5.877
MS.369         	5.995          	5.851
MS.370         	5.983          	6.079
MS.371         	5.97           	5.859
MS.372         	5.96           	5.499
MS.373         	5.947          	5.144
MS.374         	5.935          	5.73
MS.375         	5.922          	5.581
MS.376         	5.912          	5.203
MS.377         	5.9            	5.344
MS.378         	5.887          	5.094
MS.379         	5.875          	5.054
MS.380         	5.865          	4.913
MS.381         	5.852          	5.112
MS.382         	5.84           	5.045
MS.383         	5.83           	4.963
MS.384         	5.817          	4.719
MS.385         	5.805          	4.747
MS.386         	5.795          	4.854
MS.387         	5.782          	4.792
MS.388         	5.773          	4.616
MS.389         	5.76           	4.741
MS.390         	5.747          	4.494
MS.391         	5.737          	4.421
MS.392         	5.725          	4.457
MS.393         	5.715          	4.282
MS.394         	5.702          	4.24
MS.395         	5.69           	4.105
MS.396         	5.68           	3.97
MS.397         	5.668          	4.004
MS.398         	5.657          	3.666
MS.399         	5.645          	3.901
MS.400         	5.635          	4.151
MS.401         	5.622          	3.905
MS.402         	5.612          	3.448
MS.403         	5.6            	3.634
MS.404         	5.59           	3.543
MS.405         	5.577          	3.154
MS.406         	5.567          	3.086
MS.407         	5.555          	3.227
MS.408         	5.545          	3.07
MS.409         	5.535          	3.261
MS.410         	5.523          	2.864
MS.411         	5.512          	3.072
MS.412         	5.5            	2.767
MS.413         	5.49           	2.987
MS.414         	5.48           	2.51
MS.415         	5.467          	2.024
MS.416         	5.457          	2.24
MS.417         	5.445          	2.038
MS.418         	5.435          	2.248
MS.419         	5.425          	2.26
MS.420         	5.412          	1.895
MS.421         	5.402          	1.944
MS.422         	5.392          	1.922
MS.423         	5.38           	1.952
MS.424         	5.37           	1.793
MS.425         	5.36           	1.97
MS.426         	5.35           	1.607
MS.427         	5.338          	1.517
MS.428         	5.327          	1.172
MS.429         	5.318          	1.374
MS.430         	5.307          	1.182
MS.431         	5.295          	0.888
MS.432         	5.285          	0.86
MS.433         	5.275          	1.154
MS.434         	5.265          	1.126
MS.435         	5.253          	0.989
MS.436         	5.242          	1.076
MS.437         	5.233          	0.874
MS.438         	5.222          	1.001
MS.439         	5.213          	1.013
MS.440         	5.202          	0.612
MS.441         	5.19           	0.504
MS.442         	5.18           	0.58
MS.443         	5.17           	0.564
MS.444         	5.16           	0.453
MS.445         	5.15           	0.457
MS.446         	5.14           	0.453
MS.447         	5.13           	0.8
MS.448         	5.117          	0.536
MS.449         	5.108          	0.29
MS.450         	5.097          	0.346
MS.451         	5.088          	0.226
MS.452         	5.077          	0.447
MS.453         	5.068          	0.369
MS.454         	5.057          	0.234
MS.455         	5.047          	0.246
MS.456         	5.037          	0.359
MS.457         	5.027          	0.383
MS.458         	5.017          	0.117
MS.459         	5.007          	0.359
MS.460         	4.997          	0.103
MS.461         	4.987          	0.133
MS.462         	4.977          	0.099
MS.463         	4.967          	0.054
MS.464         	4.957          	0.07
MS.465         	4.947          	0.167
MS.466         	4.938          	-0.004
MS.467         	4.927          	0.058
MS.468         	4.918          	0.016
MS.469         	4.907          	0.073
MS.470         	4.898          	0.014
MS.471         	4.887          	0.056
MS.472         	4.88           	0.044
MS.473         	4.87           	-0.004
MS.474         	4.86           	0.000
MS.475         	4.85           	0.032
MS.476         	4.84           	-0.004
MS.477         	4.83           	-0.004
MS.478         	4.82           	-0.002
MS.479         	4.81           	-0.002
MS.480         	4.802          	0.000
MS.481         	4.793          	0.000
MS.482         	4.782          	-0.002
MS.483         	4.773          	-0.004
MS.484         	4.762          	0.000
MS.485         	4.753          	-0.002
MS.486         	4.745          	-0.002
MS.487         	4.735          	0.000
MS.488         	4.725          	-0.006
MS.489         	4.715          	-0.004
MS.490         	4.707          	0.000
MS.491         	4.697          	-0.004
