File:              	C:\Qtrac\Data\Daniel M Sørensen\MScan multicentre study\Data from centres\Antalya\Processed data\TR.NC.ANT.7.1- NCC01025A.QZD
Name:              	TR.NC.ANT.7.1
Protocol:          	MSCAN-R2
Date:              	25/10/20
Start time:        	16:46:04
Age:               	28
Sex:               	f
Temperature:       	32.4
S/R sites:         	APB
NC/disease:        	NC
Operator:          	ab
Comments:
M-SCAN DATA (8.6-0.7m)
Scanpts: 257, 266, 747, 747
Stim. (mA)     	Amp. (mV)
MS.1           	22.5           	13.368
MS.2           	22.5           	13.37
MS.3           	22.5           	13.356
MS.4           	22.5           	13.312
MS.5           	22.5           	13.31
MS.6           	22.5           	13.322
MS.7           	22.5           	13.308
MS.8           	22.5           	13.318
MS.9           	22.5           	13.293
MS.10          	22.5           	13.297
MS.11          	22.5           	13.299
MS.12          	22.5           	13.316
MS.13          	22.5           	13.332
MS.14          	22.5           	13.358
MS.15          	22.5           	13.346
MS.16          	22.5           	13.376
MS.17          	22.5           	13.39
MS.18          	22.5           	13.392
MS.19          	22.5           	13.416
MS.20          	22.5           	13.445
MS.21          	22.5           	13.384
MS.22          	22.5           	13.424
MS.23          	22.5           	13.459
MS.24          	22.41          	13.418
MS.25          	22.365         	13.398
MS.26          	22.32          	13.402
MS.27          	22.275         	13.396
MS.28          	22.233         	13.384
MS.29          	22.188         	13.374
MS.30          	22.142         	13.384
MS.31          	22.097         	13.37
MS.32          	22.055         	13.36
MS.33          	22.01          	13.366
MS.34          	21.967         	13.356
MS.35          	21.922         	13.358
MS.36          	21.877         	13.352
MS.37          	21.835         	13.374
MS.38          	21.792         	13.356
MS.39          	21.747         	13.334
MS.40          	21.705         	13.344
MS.41          	21.66          	13.34
MS.42          	21.618         	13.35
MS.43          	21.575         	13.352
MS.44          	21.532         	13.34
MS.45          	21.487         	13.334
MS.46          	21.445         	13.36
MS.47          	21.403         	13.36
MS.48          	21.36          	13.362
MS.49          	21.317         	13.336
MS.50          	21.275         	13.336
MS.51          	21.233         	13.332
MS.52          	21.19          	13.334
MS.53          	21.147         	13.364
MS.54          	21.105         	13.398
MS.55          	21.062         	13.372
MS.56          	21.02          	13.37
MS.57          	20.98          	13.299
MS.58          	20.938         	13.334
MS.59          	20.895         	13.302
MS.60          	20.852         	13.324
MS.61          	20.812         	13.332
MS.62          	20.77          	13.324
MS.63          	20.727         	13.312
MS.64          	20.688         	13.306
MS.65          	20.645         	13.295
MS.66          	20.605         	13.287
MS.67          	20.562         	13.299
MS.68          	20.522         	13.283
MS.69          	20.483         	13.283
MS.70          	20.44          	13.306
MS.71          	20.4           	13.295
MS.72          	20.36          	13.271
MS.73          	20.317         	13.275
MS.74          	20.278         	13.253
MS.75          	20.237         	13.267
MS.76          	20.198         	13.249
MS.77          	20.155         	13.265
MS.78          	20.115         	13.251
MS.79          	20.075         	13.233
MS.80          	20.035         	13.243
MS.81          	19.995         	13.237
MS.82          	19.955         	13.227
MS.83          	19.915         	13.235
MS.84          	19.875         	13.233
MS.85          	19.837         	13.207
MS.86          	19.797         	13.199
MS.87          	19.757         	13.187
MS.88          	19.717         	13.207
MS.89          	19.677         	13.213
MS.90          	19.64          	13.215
MS.91          	19.6           	13.211
MS.92          	19.56          	13.199
MS.93          	19.522         	13.205
MS.94          	19.483         	13.205
MS.95          	19.442         	13.205
MS.96          	19.405         	13.213
MS.97          	19.365         	13.223
MS.98          	19.327         	13.235
MS.99          	19.288         	13.197
MS.100         	19.25          	13.203
MS.101         	19.212         	13.219
MS.102         	19.172         	13.217
MS.103         	19.135         	13.249
MS.104         	19.097         	13.281
MS.105         	19.057         	13.291
MS.106         	19.02          	13.293
MS.107         	18.983         	13.267
MS.108         	18.945         	13.255
MS.109         	18.907         	13.259
MS.110         	18.87          	13.269
MS.111         	18.83          	13.273
MS.112         	18.792         	13.273
MS.113         	18.755         	13.273
MS.114         	18.717         	13.289
MS.115         	18.68          	13.283
MS.116         	18.645         	13.279
MS.117         	18.608         	13.275
MS.118         	18.57          	13.277
MS.119         	18.532         	13.271
MS.120         	18.495         	13.251
MS.121         	18.458         	13.267
MS.122         	18.422         	13.283
MS.123         	18.385         	13.271
MS.124         	18.347         	13.271
MS.125         	18.31          	13.265
MS.126         	18.275         	13.259
MS.127         	18.237         	13.261
MS.128         	18.202         	13.243
MS.129         	18.165         	13.255
MS.130         	18.13          	13.249
MS.131         	18.092         	13.241
MS.132         	18.057         	13.225
MS.133         	18.02          	13.225
MS.134         	17.985         	13.239
MS.135         	17.948         	13.225
MS.136         	17.913         	13.215
MS.137         	17.878         	13.219
MS.138         	17.84          	13.213
MS.139         	17.805         	13.209
MS.140         	17.77          	13.203
MS.141         	17.735         	13.209
MS.142         	17.7           	13.201
MS.143         	17.663         	13.207
MS.144         	17.628         	13.195
MS.145         	17.592         	13.193
MS.146         	17.557         	13.209
MS.147         	17.522         	13.205
MS.148         	17.487         	13.201
MS.149         	17.452         	13.191
MS.150         	17.417         	13.193
MS.151         	17.382         	13.195
MS.152         	17.347         	13.201
MS.153         	17.315         	13.189
MS.154         	17.28          	13.191
MS.155         	17.245         	13.187
MS.156         	17.21          	13.193
MS.157         	17.175         	13.171
MS.158         	17.142         	13.175
MS.159         	17.108         	13.189
MS.160         	17.073         	13.187
MS.161         	17.04          	13.171
MS.162         	17.005         	13.191
MS.163         	16.97          	13.193
MS.164         	16.938         	13.181
MS.165         	16.903         	13.13
MS.166         	16.87          	13.086
MS.167         	16.835         	13.215
MS.168         	16.802         	13.229
MS.169         	16.767         	13.215
MS.170         	16.735         	13.225
MS.171         	16.702         	13.223
MS.172         	16.667         	13.223
MS.173         	16.635         	13.219
MS.174         	16.602         	13.219
MS.175         	16.567         	13.239
MS.176         	16.535         	13.225
MS.177         	16.503         	13.227
MS.178         	16.47          	13.219
MS.179         	16.438         	13.245
MS.180         	16.405         	13.231
MS.181         	16.37          	13.229
MS.182         	16.337         	13.229
MS.183         	16.305         	13.245
MS.184         	16.272         	13.233
MS.185         	16.24          	13.239
MS.186         	16.208         	13.251
MS.187         	16.175         	13.251
MS.188         	16.142         	13.233
MS.189         	16.11          	13.235
MS.190         	16.08          	13.231
MS.191         	16.047         	13.219
MS.192         	16.015         	13.217
MS.193         	15.983         	13.215
MS.194         	15.95          	13.223
MS.195         	15.92          	13.207
MS.196         	15.887         	13.205
MS.197         	15.855         	13.197
MS.198         	15.822         	13.215
MS.199         	15.792         	13.217
MS.200         	15.76          	13.245
MS.201         	15.73          	13.267
MS.202         	15.697         	13.271
MS.203         	15.667         	13.249
MS.204         	15.635         	13.247
MS.205         	15.602         	13.231
MS.206         	15.572         	13.255
MS.207         	15.542         	13.304
MS.208         	15.51          	13.306
MS.209         	15.48          	13.32
MS.210         	15.447         	13.308
MS.211         	15.417         	13.291
MS.212         	15.387         	13.304
MS.213         	15.355         	13.344
MS.214         	15.325         	13.32
MS.215         	15.295         	13.312
MS.216         	15.265         	13.295
MS.217         	15.233         	13.289
MS.218         	15.202         	13.275
MS.219         	15.172         	13.283
MS.220         	15.142         	13.267
MS.221         	15.112         	13.263
MS.222         	15.082         	13.247
MS.223         	15.052         	13.263
MS.224         	15.023         	13.253
MS.225         	14.992         	13.245
MS.226         	14.962         	13.245
MS.227         	14.932         	13.239
MS.228         	14.902         	13.239
MS.229         	14.872         	13.229
MS.230         	14.842         	13.247
MS.231         	14.812         	13.225
MS.232         	14.782         	13.211
MS.233         	14.755         	13.213
MS.234         	14.725         	13.205
MS.235         	14.695         	13.191
MS.236         	14.665         	13.197
MS.237         	14.637         	13.203
MS.238         	14.608         	13.201
MS.239         	14.577         	13.201
MS.240         	14.55          	13.187
MS.241         	14.52          	13.191
MS.242         	14.49          	13.201
MS.243         	14.462         	13.193
MS.244         	14.432         	13.183
MS.245         	14.405         	13.193
MS.246         	14.375         	13.193
MS.247         	14.347         	13.175
MS.248         	14.318         	13.177
MS.249         	14.29          	13.171
MS.250         	14.26          	13.183
MS.251         	14.233         	13.191
MS.252         	14.205         	13.197
MS.253         	14.175         	13.195
MS.254         	14.148         	13.213
MS.255         	14.12          	13.215
MS.256         	14.09          	13.231
MS.257         	14.062         	13.231
MS.258         	14.035         	13.225
MS.259         	14.007         	13.229
MS.260         	13.977         	13.235
MS.261         	13.95          	13.233
MS.262         	13.922         	13.219
MS.263         	13.895         	13.203
MS.264         	13.867         	13.211
MS.265         	13.84          	13.207
MS.266         	13.812         	13.199
MS.267         	13.785         	13.211
MS.268         	13.757         	13.199
MS.269         	13.73          	13.197
MS.270         	13.702         	13.217
MS.271         	13.675         	13.223
MS.272         	13.648         	13.217
MS.273         	13.62          	13.227
MS.274         	13.592         	13.193
MS.275         	13.565         	13.211
MS.276         	13.537         	13.207
MS.277         	13.51          	13.213
MS.278         	13.485         	13.152
MS.279         	13.457         	13.165
MS.280         	13.43          	13.102
MS.281         	13.403         	13.199
MS.282         	13.377         	13.148
MS.283         	13.35          	13.122
MS.284         	13.322         	12.883
MS.285         	13.297         	12.919
MS.286         	13.27          	13.108
MS.287         	13.242         	13.136
MS.288         	13.217         	12.925
MS.289         	13.19          	12.885
MS.290         	13.165         	12.866
MS.291         	13.137         	13.104
MS.292         	13.112         	12.879
MS.293         	13.085         	12.899
MS.294         	13.06          	12.83
MS.295         	13.032         	12.74
MS.296         	13.007         	12.87
MS.297         	12.983         	12.802
MS.298         	12.955         	12.8
MS.299         	12.93          	12.786
MS.300         	12.903         	12.798
MS.301         	12.877         	12.74
MS.302         	12.852         	12.842
MS.303         	12.827         	12.802
MS.304         	12.8           	12.687
MS.305         	12.775         	12.681
MS.306         	12.75          	12.619
MS.307         	12.725         	12.641
MS.308         	12.7           	12.752
MS.309         	12.672         	12.711
MS.310         	12.648         	12.717
MS.311         	12.622         	12.719
MS.312         	12.597         	12.627
MS.313         	12.572         	12.705
MS.314         	12.547         	12.603
MS.315         	12.523         	12.613
MS.316         	12.497         	12.54
MS.317         	12.472         	12.617
MS.318         	12.447         	12.607
MS.319         	12.422         	12.542
MS.320         	12.398         	12.593
MS.321         	12.372         	12.3
MS.322         	12.347         	12.302
MS.323         	12.322         	12.572
MS.324         	12.3           	12.345
MS.325         	12.275         	12.343
MS.326         	12.25          	12.572
MS.327         	12.225         	12.528
MS.328         	12.2           	12.266
MS.329         	12.177         	12.502
MS.330         	12.153         	12.188
MS.331         	12.127         	12.204
MS.332         	12.102         	12.212
MS.333         	12.08          	12.226
MS.334         	12.055         	12.159
MS.335         	12.032         	12.186
MS.336         	12.007         	12.17
MS.337         	11.983         	12.192
MS.338         	11.96          	12.083
MS.339         	11.935         	12.17
MS.340         	11.912         	12.178
MS.341         	11.887         	12.164
MS.342         	11.865         	12.131
MS.343         	11.84          	12.117
MS.344         	11.818         	12.157
MS.345         	11.792         	11.94
MS.346         	11.77          	12.045
MS.347         	11.745         	11.898
MS.348         	11.722         	11.96
MS.349         	11.7           	12.002
MS.350         	11.675         	12.083
MS.351         	11.653         	11.998
MS.352         	11.63          	11.97
MS.353         	11.605         	11.92
MS.354         	11.582         	11.974
MS.355         	11.56          	11.904
MS.356         	11.537         	11.968
MS.357         	11.512         	11.747
MS.358         	11.49          	11.863
MS.359         	11.467         	11.853
MS.360         	11.445         	11.815
MS.361         	11.422         	11.684
MS.362         	11.4           	11.684
MS.363         	11.375         	11.702
MS.364         	11.352         	11.718
MS.365         	11.33          	11.702
MS.366         	11.307         	11.841
MS.367         	11.285         	11.755
MS.368         	11.262         	11.835
MS.369         	11.24          	11.751
MS.370         	11.217         	11.726
MS.371         	11.195         	11.608
MS.372         	11.172         	11.72
MS.373         	11.15          	11.805
MS.374         	11.127         	11.652
MS.375         	11.108         	11.739
MS.376         	11.085         	11.628
MS.377         	11.062         	11.489
MS.378         	11.04          	11.531
MS.379         	11.017         	11.62
MS.380         	10.995         	11.722
MS.381         	10.975         	11.396
MS.382         	10.952         	11.453
MS.383         	10.93          	11.461
MS.384         	10.907         	11.493
MS.385         	10.887         	11.493
MS.386         	10.865         	11.436
MS.387         	10.842         	11.606
MS.388         	10.82          	11.354
MS.389         	10.8           	11.293
MS.390         	10.778         	11.249
MS.391         	10.757         	11.092
MS.392         	10.735         	11.295
MS.393         	10.712         	11.134
MS.394         	10.693         	11.187
MS.395         	10.67          	11.219
MS.396         	10.65          	11.036
MS.397         	10.627         	10.997
MS.398         	10.608         	11.062
MS.399         	10.585         	11.124
MS.400         	10.565         	11.017
MS.401         	10.542         	10.891
MS.402         	10.523         	11.017
MS.403         	10.502         	10.917
MS.404         	10.48          	10.86
MS.405         	10.46          	10.905
MS.406         	10.438         	10.862
MS.407         	10.417         	10.844
MS.408         	10.398         	10.703
MS.409         	10.375         	10.649
MS.410         	10.355         	10.804
MS.411         	10.335         	10.715
MS.412         	10.315         	10.703
MS.413         	10.292         	10.296
MS.414         	10.273         	10.822
MS.415         	10.252         	10.669
MS.416         	10.233         	10.621
MS.417         	10.212         	10.699
MS.418         	10.19          	10.284
MS.419         	10.17          	10.262
MS.420         	10.15          	10.254
MS.421         	10.13          	10.071
MS.422         	10.11          	10.133
MS.423         	10.09          	9.926
MS.424         	10.07          	10.063
MS.425         	10.05          	9.952
MS.426         	10.03          	10.2
MS.427         	10.01          	10.089
MS.428         	9.99           	9.841
MS.429         	9.97           	10.085
MS.430         	9.95           	9.789
MS.431         	9.93           	9.777
MS.432         	9.91           	9.775
MS.433         	9.89           	9.734
MS.434         	9.87           	9.763
MS.435         	9.85           	9.724
MS.436         	9.83           	9.73
MS.437         	9.81           	10.012
MS.438         	9.792          	9.815
MS.439         	9.773          	9.7
MS.440         	9.752          	9.751
MS.441         	9.733          	9.74
MS.442         	9.712          	9.747
MS.443         	9.695          	9.638
MS.444         	9.675          	9.688
MS.445         	9.655          	9.638
MS.446         	9.635          	9.628
MS.447         	9.617          	9.62
MS.448         	9.597          	9.63
MS.449         	9.577          	9.416
MS.450         	9.56           	9.43
MS.451         	9.54           	9.591
MS.452         	9.52           	9.579
MS.453         	9.502          	9.402
MS.454         	9.483          	9.38
MS.455         	9.465          	9.608
MS.456         	9.445          	9.539
MS.457         	9.427          	9.311
MS.458         	9.407          	9.265
MS.459         	9.387          	9.273
MS.460         	9.37           	9.285
MS.461         	9.352          	9.45
MS.462         	9.332          	9.273
MS.463         	9.315          	9.199
MS.464         	9.295          	9.201
MS.465         	9.278          	9.281
MS.466         	9.257          	9.201
MS.467         	9.24           	9.144
MS.468         	9.222          	9.267
MS.469         	9.202          	9.253
MS.470         	9.185          	9.261
MS.471         	9.165          	8.963
MS.472         	9.148          	9.17
MS.473         	9.13           	9.138
MS.474         	9.113          	9.11
MS.475         	9.092          	8.754
MS.476         	9.075          	9.13
MS.477         	9.057          	9.021
MS.478         	9.037          	8.957
MS.479         	9.02           	9.106
MS.480         	9.002          	8.935
MS.481         	8.985          	8.921
MS.482         	8.967          	8.925
MS.483         	8.948          	8.719
MS.484         	8.93           	8.927
MS.485         	8.912          	8.717
MS.486         	8.895          	8.933
MS.487         	8.877          	8.743
MS.488         	8.86           	8.697
MS.489         	8.842          	8.891
MS.490         	8.825          	8.933
