File:              	n:\Qtrac\Data\MScan\Normative Controls\CP Nerve\MSCC10712C.QZD
Name:              	OL20A
Protocol:          	MSCAN-R2
Date:              	12/7/21
Start time:        	15:19:51
Age:               	58
Sex:               	F
Temperature:       	34
S/R sites:         	Knee CP-TA
NC/disease:        	NC
Operator:          	BJ
Comments:
M-SCAN DATA (Repeat 2/2, 11-4.6m)
Scanpts: 57, 94, 658, 679
Stim. (mA)     	Amp. (mV)
MS.1           	19             	7.968
MS.2           	19             	7.969
MS.3           	19             	7.98
MS.4           	19             	7.908
MS.5           	19             	7.896
MS.6           	19             	7.899
MS.7           	19             	7.88
MS.8           	19             	7.898
MS.9           	19             	7.877
MS.10          	19             	7.898
MS.11          	19             	7.887
MS.12          	19             	7.902
MS.13          	19             	7.88
MS.14          	19             	7.889
MS.15          	19             	7.885
MS.16          	19             	7.904
MS.17          	19             	7.881
MS.18          	19             	7.896
MS.19          	19             	7.887
MS.20          	19             	7.887
MS.21          	19             	7.899
MS.22          	19             	7.88
MS.23          	19             	7.919
MS.24          	18.962         	7.906
MS.25          	18.887         	7.86
MS.26          	18.847         	7.882
MS.27          	18.81          	7.882
MS.28          	18.772         	7.893
MS.29          	18.735         	7.885
MS.30          	18.698         	7.882
MS.31          	18.66          	7.885
MS.32          	18.625         	7.892
MS.33          	18.587         	7.887
MS.34          	18.55          	7.897
MS.35          	18.512         	7.889
MS.36          	18.475         	7.889
MS.37          	18.438         	7.894
MS.38          	18.403         	7.91
MS.39          	18.365         	7.892
MS.40          	18.327         	7.9
MS.41          	18.292         	7.893
MS.42          	18.255         	7.898
MS.43          	18.217         	7.903
MS.44          	18.182         	7.891
MS.45          	18.145         	7.898
MS.46          	18.11          	7.909
MS.47          	18.073         	7.897
MS.48          	18.038         	7.915
MS.49          	18             	7.903
MS.50          	17.965         	7.902
MS.51          	17.93          	7.902
MS.52          	17.892         	7.898
MS.53          	17.858         	7.898
MS.54          	17.823         	7.928
MS.55          	17.788         	7.917
MS.56          	17.75          	7.917
MS.57          	17.715         	7.916
MS.58          	17.68          	7.932
MS.59          	17.645         	7.916
MS.60          	17.61          	7.924
MS.61          	17.575         	7.921
MS.62          	17.54          	7.915
MS.63          	17.505         	7.924
MS.64          	17.47          	7.916
MS.65          	17.435         	7.908
MS.66          	17.4           	7.915
MS.67          	17.365         	7.933
MS.68          	17.33          	7.922
MS.69          	17.295         	7.915
MS.70          	17.26          	7.915
MS.71          	17.227         	7.921
MS.72          	17.192         	7.922
MS.73          	17.157         	7.937
MS.74          	17.122         	7.914
MS.75          	17.09          	7.922
MS.76          	17.055         	7.93
MS.77          	17.02          	7.931
MS.78          	16.987         	7.92
MS.79          	16.952         	7.93
MS.80          	16.92          	7.926
MS.81          	16.885         	7.927
MS.82          	16.852         	7.935
MS.83          	16.817         	7.928
MS.84          	16.785         	7.925
MS.85          	16.75          	7.928
MS.86          	16.717         	7.908
MS.87          	16.685         	7.914
MS.88          	16.65          	7.935
MS.89          	16.618         	7.938
MS.90          	16.585         	7.921
MS.91          	16.55          	7.917
MS.92          	16.517         	7.919
MS.93          	16.485         	7.933
MS.94          	16.452         	7.909
MS.95          	16.42          	7.915
MS.96          	16.385         	7.919
MS.97          	16.352         	7.911
MS.98          	16.32          	7.926
MS.99          	16.288         	7.903
MS.100         	16.255         	7.925
MS.101         	16.222         	7.911
MS.102         	16.19          	7.924
MS.103         	16.157         	7.81
MS.104         	16.125         	7.809
MS.105         	16.095         	7.936
MS.106         	16.062         	7.916
MS.107         	16.03          	7.898
MS.108         	15.997         	7.931
MS.109         	15.965         	7.82
MS.110         	15.932         	7.933
MS.111         	15.902         	7.937
MS.112         	15.87          	7.902
MS.113         	15.837         	7.803
MS.114         	15.807         	7.819
MS.115         	15.775         	7.805
MS.116         	15.742         	7.82
MS.117         	15.712         	7.937
MS.118         	15.68          	7.935
MS.119         	15.65          	7.812
MS.120         	15.617         	7.811
MS.121         	15.587         	7.811
MS.122         	15.555         	7.827
MS.123         	15.525         	7.81
MS.124         	15.495         	7.817
MS.125         	15.462         	7.805
MS.126         	15.432         	7.819
MS.127         	15.4           	7.938
MS.128         	15.37          	7.832
MS.129         	15.34          	7.928
MS.130         	15.31          	7.83
MS.131         	15.277         	7.799
MS.132         	15.247         	7.926
MS.133         	15.217         	7.805
MS.134         	15.188         	7.826
MS.135         	15.157         	7.782
MS.136         	15.127         	7.778
MS.137         	15.095         	7.794
MS.138         	15.065         	7.809
MS.139         	15.035         	7.766
MS.140         	15.005         	7.759
MS.141         	14.975         	7.803
MS.142         	14.945         	7.767
MS.143         	14.915         	7.76
MS.144         	14.887         	7.789
MS.145         	14.858         	7.81
MS.146         	14.827         	7.75
MS.147         	14.797         	7.734
MS.148         	14.767         	7.776
MS.149         	14.737         	7.762
MS.150         	14.707         	7.76
MS.151         	14.68          	7.778
MS.152         	14.65          	7.749
MS.153         	14.62          	7.754
MS.154         	14.592         	7.733
MS.155         	14.562         	7.721
MS.156         	14.532         	7.738
MS.157         	14.505         	7.72
MS.158         	14.475         	7.748
MS.159         	14.447         	7.726
MS.160         	14.417         	7.729
MS.161         	14.387         	7.728
MS.162         	14.36          	7.732
MS.163         	14.33          	7.725
MS.164         	14.302         	7.742
MS.165         	14.275         	7.736
MS.166         	14.245         	7.742
MS.167         	14.217         	7.722
MS.168         	14.188         	7.725
MS.169         	14.16          	7.72
MS.170         	14.132         	7.717
MS.171         	14.102         	7.729
MS.172         	14.075         	7.731
MS.173         	14.047         	7.743
MS.174         	14.02          	7.726
MS.175         	13.992         	7.736
MS.176         	13.962         	7.725
MS.177         	13.935         	7.727
MS.178         	13.907         	7.72
MS.179         	13.88          	7.723
MS.180         	13.852         	7.717
MS.181         	13.825         	7.709
MS.182         	13.797         	7.721
MS.183         	13.77          	7.711
MS.184         	13.742         	7.714
MS.185         	13.715         	7.705
MS.186         	13.688         	7.725
MS.187         	13.66          	7.699
MS.188         	13.632         	7.729
MS.189         	13.605         	7.708
MS.190         	13.577         	7.706
MS.191         	13.55          	7.711
MS.192         	13.523         	7.716
MS.193         	13.497         	7.717
MS.194         	13.47          	7.698
MS.195         	13.443         	7.709
MS.196         	13.415         	7.72
MS.197         	13.39          	7.711
MS.198         	13.362         	7.72
MS.199         	13.335         	7.725
MS.200         	13.31          	7.723
MS.201         	13.282         	7.725
MS.202         	13.255         	7.711
MS.203         	13.23          	7.693
MS.204         	13.202         	7.678
MS.205         	13.177         	7.697
MS.206         	13.15          	7.683
MS.207         	13.125         	7.714
MS.208         	13.097         	7.69
MS.209         	13.072         	7.695
MS.210         	13.045         	7.697
MS.211         	13.02          	7.689
MS.212         	12.992         	7.69
MS.213         	12.967         	7.677
MS.214         	12.943         	7.723
MS.215         	12.915         	7.681
MS.216         	12.89          	7.681
MS.217         	12.865         	7.645
MS.218         	12.837         	7.689
MS.219         	12.812         	7.649
MS.220         	12.787         	7.675
MS.221         	12.762         	7.699
MS.222         	12.735         	7.653
MS.223         	12.71          	7.684
MS.224         	12.685         	7.648
MS.225         	12.66          	7.659
MS.226         	12.635         	7.666
MS.227         	12.61          	7.635
MS.228         	12.585         	7.604
MS.229         	12.56          	7.566
MS.230         	12.535         	7.609
MS.231         	12.51          	7.582
MS.232         	12.485         	7.661
MS.233         	12.46          	7.603
MS.234         	12.435         	7.577
MS.235         	12.41          	7.565
MS.236         	12.385         	7.56
MS.237         	12.36          	7.556
MS.238         	12.335         	7.402
MS.239         	12.31          	7.589
MS.240         	12.285         	7.524
MS.241         	12.26          	7.554
MS.242         	12.238         	7.561
MS.243         	12.212         	7.487
MS.244         	12.188         	7.341
MS.245         	12.162         	7.515
MS.246         	12.14          	7.526
MS.247         	12.115         	7.41
MS.248         	12.09          	7.474
MS.249         	12.068         	7.36
MS.250         	12.042         	7.523
MS.251         	12.017         	7.323
MS.252         	11.995         	7.482
MS.253         	11.97          	7.382
MS.254         	11.947         	7.452
MS.255         	11.922         	7.314
MS.256         	11.9           	7.327
MS.257         	11.875         	7.339
MS.258         	11.852         	7.324
MS.259         	11.827         	7.283
MS.260         	11.805         	7.321
MS.261         	11.78          	7.313
MS.262         	11.757         	7.307
MS.263         	11.733         	7.261
MS.264         	11.71          	7.462
MS.265         	11.688         	7.238
MS.266         	11.662         	7.272
MS.267         	11.64          	7.222
MS.268         	11.617         	7.245
MS.269         	11.592         	7.275
MS.270         	11.57          	7.266
MS.271         	11.547         	7.239
MS.272         	11.525         	7.19
MS.273         	11.5           	7.159
MS.274         	11.477         	7.179
MS.275         	11.455         	7.175
MS.276         	11.432         	7.202
MS.277         	11.41          	7.172
MS.278         	11.387         	7.148
MS.279         	11.365         	7.15
MS.280         	11.34          	7.104
MS.281         	11.318         	7.126
MS.282         	11.295         	7.046
MS.283         	11.273         	7.101
MS.284         	11.25          	7.14
MS.285         	11.227         	7.135
MS.286         	11.205         	7.14
MS.287         	11.182         	7.037
MS.288         	11.16          	7.02
MS.289         	11.14          	6.984
MS.290         	11.117         	7.111
MS.291         	11.095         	7.02
MS.292         	11.073         	7.014
MS.293         	11.05          	6.874
MS.294         	11.028         	6.954
MS.295         	11.005         	6.919
MS.296         	10.985         	7.025
MS.297         	10.962         	6.989
MS.298         	10.94          	6.843
MS.299         	10.917         	6.796
MS.300         	10.898         	6.857
MS.301         	10.875         	6.738
MS.302         	10.852         	6.821
MS.303         	10.832         	6.736
MS.304         	10.81          	6.692
MS.305         	10.787         	6.714
MS.306         	10.767         	6.561
MS.307         	10.745         	6.757
MS.308         	10.722         	6.67
MS.309         	10.702         	6.716
MS.310         	10.68          	6.593
MS.311         	10.66          	6.46
MS.312         	10.637         	6.677
MS.313         	10.617         	6.615
MS.314         	10.595         	6.592
MS.315         	10.575         	6.56
MS.316         	10.552         	6.538
MS.317         	10.532         	6.592
MS.318         	10.51          	6.436
MS.319         	10.49          	6.547
MS.320         	10.47          	6.443
MS.321         	10.448         	6.385
MS.322         	10.427         	6.388
MS.323         	10.407         	6.285
MS.324         	10.385         	6.306
MS.325         	10.365         	6.332
MS.326         	10.345         	6.261
MS.327         	10.323         	6.32
MS.328         	10.302         	6.279
MS.329         	10.282         	6.318
MS.330         	10.262         	6.177
MS.331         	10.242         	6.206
MS.332         	10.22          	6.149
MS.333         	10.2           	6.061
MS.334         	10.18          	6.052
MS.335         	10.16          	6.102
MS.336         	10.14          	6.102
MS.337         	10.12          	6.056
MS.338         	10.1           	6.053
MS.339         	10.08          	6.085
MS.340         	10.057         	6.001
MS.341         	10.037         	5.957
MS.342         	10.017         	5.986
MS.343         	9.997          	5.898
MS.344         	9.977          	5.972
MS.345         	9.957          	6.011
MS.346         	9.938          	5.905
MS.347         	9.92           	5.923
MS.348         	9.9            	5.981
MS.349         	9.88           	5.837
MS.350         	9.86           	5.875
MS.351         	9.84           	5.818
MS.352         	9.82           	5.615
MS.353         	9.8            	5.753
MS.354         	9.78           	5.627
MS.355         	9.762          	5.767
MS.356         	9.742          	5.681
MS.357         	9.722          	5.625
MS.358         	9.702          	5.784
MS.359         	9.682          	5.554
MS.360         	9.665          	5.455
MS.361         	9.645          	5.624
MS.362         	9.625          	5.598
MS.363         	9.608          	5.557
MS.364         	9.587          	5.546
MS.365         	9.568          	5.522
MS.366         	9.55           	5.504
MS.367         	9.53           	5.41
MS.368         	9.51           	5.391
MS.369         	9.492          	5.311
MS.370         	9.472          	5.47
MS.371         	9.455          	5.389
MS.372         	9.435          	5.338
MS.373         	9.417          	5.22
MS.374         	9.398          	5.291
MS.375         	9.377          	5.32
MS.376         	9.36           	5.26
MS.377         	9.34           	5.085
MS.378         	9.323          	5.219
MS.379         	9.305          	5.016
MS.380         	9.285          	5.238
MS.381         	9.267          	5.02
MS.382         	9.247          	5.114
MS.383         	9.23           	5.093
MS.384         	9.212          	4.904
MS.385         	9.193          	4.934
MS.386         	9.175          	4.989
MS.387         	9.158          	4.983
MS.388         	9.137          	4.851
MS.389         	9.12           	4.91
MS.390         	9.102          	4.792
MS.391         	9.082          	4.745
MS.392         	9.065          	4.65
MS.393         	9.047          	4.774
MS.394         	9.03           	4.612
MS.395         	9.01           	4.724
MS.396         	8.992          	4.503
MS.397         	8.975          	4.471
MS.398         	8.957          	4.525
MS.399         	8.94           	4.423
MS.400         	8.922          	4.419
MS.401         	8.903          	4.481
MS.402         	8.885          	4.417
MS.403         	8.867          	4.369
MS.404         	8.85           	4.357
MS.405         	8.832          	4.304
MS.406         	8.815          	4.242
MS.407         	8.797          	4.159
MS.408         	8.78           	4.236
MS.409         	8.762          	4.137
MS.410         	8.745          	4.141
MS.411         	8.727          	4.017
MS.412         	8.71           	4.087
MS.413         	8.693          	4.026
MS.414         	8.675          	4.037
MS.415         	8.658          	3.901
MS.416         	8.64           	3.923
MS.417         	8.622          	3.749
MS.418         	8.605          	3.844
MS.419         	8.587          	3.76
MS.420         	8.573          	3.77
MS.421         	8.555          	3.801
MS.422         	8.537          	3.721
MS.423         	8.52           	3.667
MS.424         	8.502          	3.735
MS.425         	8.485          	3.746
MS.426         	8.47           	3.602
MS.427         	8.452          	3.604
MS.428         	8.435          	3.661
MS.429         	8.417          	3.555
MS.430         	8.403          	3.569
MS.431         	8.385          	3.538
MS.432         	8.367          	3.582
MS.433         	8.352          	3.383
MS.434         	8.335          	3.324
MS.435         	8.318          	3.379
MS.436         	8.302          	3.307
MS.437         	8.285          	3.357
MS.438         	8.267          	3.435
MS.439         	8.252          	3.308
MS.440         	8.235          	3.129
MS.441         	8.22           	3.065
MS.442         	8.202          	3.116
MS.443         	8.185          	3.199
MS.444         	8.17           	2.885
MS.445         	8.153          	3.053
MS.446         	8.137          	3.173
MS.447         	8.12           	3.081
MS.448         	8.105          	3.035
MS.449         	8.087          	2.952
MS.450         	8.073          	2.987
MS.451         	8.055          	2.916
MS.452         	8.04           	2.841
MS.453         	8.025          	2.797
MS.454         	8.007          	2.517
MS.455         	7.992          	2.704
MS.456         	7.975          	2.749
MS.457         	7.96           	2.568
MS.458         	7.945          	2.721
MS.459         	7.927          	2.583
MS.460         	7.912          	2.681
MS.461         	7.898          	2.695
MS.462         	7.88           	2.495
MS.463         	7.865          	2.335
MS.464         	7.85           	2.405
MS.465         	7.832          	2.435
MS.466         	7.817          	2.302
MS.467         	7.802          	2.322
MS.468         	7.787          	2.185
MS.469         	7.773          	2.443
MS.470         	7.755          	2.196
MS.471         	7.74           	2.195
MS.472         	7.725          	2.122
MS.473         	7.71           	2.209
MS.474         	7.695          	2.155
MS.475         	7.677          	2.028
MS.476         	7.662          	2.139
MS.477         	7.648          	2.018
MS.478         	7.632          	1.877
MS.479         	7.617          	1.887
MS.480         	7.602          	1.917
MS.481         	7.587          	1.838
MS.482         	7.572          	1.869
MS.483         	7.557          	1.796
MS.484         	7.543          	1.841
MS.485         	7.527          	1.831
MS.486         	7.512          	1.77
MS.487         	7.497          	1.721
MS.488         	7.482          	1.776
MS.489         	7.467          	1.741
MS.490         	7.452          	1.628
MS.491         	7.438          	1.659
MS.492         	7.422          	1.648
MS.493         	7.407          	1.569
MS.494         	7.392          	1.611
MS.495         	7.378          	1.591
MS.496         	7.362          	1.621
MS.497         	7.347          	1.552
MS.498         	7.332          	1.558
MS.499         	7.317          	1.504
MS.500         	7.305          	1.567
MS.501         	7.29           	1.547
MS.502         	7.275          	1.584
