File:              	n:\Qtrac\Data\MScan\Normative Controls\CP Nerve\MSCC10708C.QZD
Name:              	MI29A
Protocol:          	MSCAN-R2
Date:              	8/7/21
Start time:        	17:48:02
Age:               	21
Sex:               	F
Temperature:       	34.5
S/R sites:         	Knee TA-CP
NC/disease:        	NC
Operator:          	BJ
Comments:
M-SCAN DATA (12.5-4.3m)
Scanpts: 210, 256, 839, 860
Stim. (mA)     	Amp. (mV)
MS.1           	17             	6.014
MS.2           	17             	6.005
MS.3           	17             	5.975
MS.4           	17             	5.968
MS.5           	17             	5.951
MS.6           	17             	5.847
MS.7           	17             	5.95
MS.8           	17             	5.938
MS.9           	17             	5.931
MS.10          	17             	5.942
MS.11          	17             	5.88
MS.12          	17             	5.89
MS.13          	17             	5.931
MS.14          	17             	5.874
MS.15          	17             	5.854
MS.16          	17             	5.868
MS.17          	17             	5.914
MS.18          	17             	5.874
MS.19          	17             	5.901
MS.20          	17             	5.908
MS.21          	17             	5.903
MS.22          	17             	5.896
MS.23          	17             	5.979
MS.24          	16.932         	5.942
MS.25          	16.897         	5.864
MS.26          	16.865         	5.935
MS.27          	16.83          	5.881
MS.28          	16.797         	5.891
MS.29          	16.762         	5.88
MS.30          	16.73          	5.887
MS.31          	16.698         	5.881
MS.32          	16.663         	5.886
MS.33          	16.63          	5.887
MS.34          	16.597         	5.894
MS.35          	16.562         	5.902
MS.36          	16.53          	5.891
MS.37          	16.497         	5.894
MS.38          	16.465         	5.978
MS.39          	16.432         	5.944
MS.40          	16.4           	5.896
MS.41          	16.365         	5.9
MS.42          	16.333         	5.914
MS.43          	16.3           	5.909
MS.44          	16.267         	5.916
MS.45          	16.235         	5.898
MS.46          	16.202         	5.925
MS.47          	16.17          	5.902
MS.48          	16.137         	5.913
MS.49          	16.108         	5.911
MS.50          	16.075         	5.908
MS.51          	16.042         	5.941
MS.52          	16.01          	5.913
MS.53          	15.977         	5.977
MS.54          	15.945         	5.916
MS.55          	15.915         	5.919
MS.56          	15.882         	5.925
MS.57          	15.85          	5.927
MS.58          	15.82          	5.931
MS.59          	15.787         	5.942
MS.60          	15.755         	5.963
MS.61          	15.725         	5.931
MS.62          	15.693         	5.927
MS.63          	15.662         	5.925
MS.64          	15.63          	5.938
MS.65          	15.6           	5.942
MS.66          	15.568         	5.939
MS.67          	15.537         	5.94
MS.68          	15.505         	5.946
MS.69          	15.475         	5.939
MS.70          	15.445         	5.941
MS.71          	15.412         	5.93
MS.72          	15.382         	5.933
MS.73          	15.352         	5.947
MS.74          	15.32          	5.939
MS.75          	15.29          	5.959
MS.76          	15.26          	5.958
MS.77          	15.23          	5.947
MS.78          	15.197         	5.942
MS.79          	15.167         	5.944
MS.80          	15.137         	5.946
MS.81          	15.108         	5.974
MS.82          	15.077         	5.95
MS.83          	15.047         	5.952
MS.84          	15.017         	5.948
MS.85          	14.987         	5.956
MS.86          	14.957         	5.952
MS.87          	14.927         	5.945
MS.88          	14.898         	5.953
MS.89          	14.867         	5.952
MS.90          	14.837         	5.948
MS.91          	14.807         	5.953
MS.92          	14.78          	5.973
MS.93          	14.75          	5.968
MS.94          	14.72          	5.966
MS.95          	14.69          	5.951
MS.96          	14.662         	5.953
MS.97          	14.632         	5.957
MS.98          	14.602         	5.953
MS.99          	14.572         	5.959
MS.100         	14.545         	5.953
MS.101         	14.515         	5.962
MS.102         	14.487         	5.956
MS.103         	14.457         	5.964
MS.104         	14.427         	5.962
MS.105         	14.4           	5.955
MS.106         	14.37          	5.958
MS.107         	14.342         	5.967
MS.108         	14.312         	5.959
MS.109         	14.285         	5.956
MS.110         	14.257         	5.967
MS.111         	14.227         	5.969
MS.112         	14.2           	5.972
MS.113         	14.17          	5.967
MS.114         	14.142         	5.969
MS.115         	14.115         	5.97
MS.116         	14.087         	5.969
MS.117         	14.057         	5.984
MS.118         	14.03          	5.967
MS.119         	14.002         	5.972
MS.120         	13.975         	5.981
MS.121         	13.945         	5.969
MS.122         	13.917         	5.972
MS.123         	13.89          	5.958
MS.124         	13.862         	5.968
MS.125         	13.835         	5.977
MS.126         	13.807         	5.968
MS.127         	13.78          	5.97
MS.128         	13.752         	5.968
MS.129         	13.725         	5.963
MS.130         	13.697         	5.969
MS.131         	13.67          	5.973
MS.132         	13.642         	5.974
MS.133         	13.615         	5.959
MS.134         	13.587         	5.973
MS.135         	13.56          	5.986
MS.136         	13.535         	5.964
MS.137         	13.507         	5.975
MS.138         	13.48          	5.963
MS.139         	13.452         	5.979
MS.140         	13.425         	5.974
MS.141         	13.4           	5.962
MS.142         	13.372         	5.966
MS.143         	13.345         	5.961
MS.144         	13.32          	5.969
MS.145         	13.292         	5.967
MS.146         	13.265         	5.961
MS.147         	13.24          	5.959
MS.148         	13.212         	5.962
MS.149         	13.188         	5.969
MS.150         	13.16          	5.967
MS.151         	13.135         	5.962
MS.152         	13.108         	5.966
MS.153         	13.082         	5.959
MS.154         	13.055         	5.961
MS.155         	13.03          	5.968
MS.156         	13.002         	5.967
MS.157         	12.977         	5.977
MS.158         	12.952         	5.974
MS.159         	12.925         	5.963
MS.160         	12.9           	5.972
MS.161         	12.875         	5.967
MS.162         	12.847         	5.964
MS.163         	12.822         	5.967
MS.164         	12.797         	5.961
MS.165         	12.773         	5.956
MS.166         	12.745         	5.962
MS.167         	12.72          	5.98
MS.168         	12.695         	5.928
MS.169         	12.67          	5.909
MS.170         	12.645         	5.908
MS.171         	12.62          	5.903
MS.172         	12.595         	5.9
MS.173         	12.568         	5.92
MS.174         	12.542         	5.909
MS.175         	12.517         	5.983
MS.176         	12.492         	5.908
MS.177         	12.467         	5.914
MS.178         	12.443         	5.924
MS.179         	12.42          	5.996
MS.180         	12.395         	5.901
MS.181         	12.37          	5.925
MS.182         	12.345         	5.924
MS.183         	12.32          	5.923
MS.184         	12.295         	5.938
MS.185         	12.27          	5.933
MS.186         	12.245         	5.933
MS.187         	12.222         	5.924
MS.188         	12.197         	5.919
MS.189         	12.172         	5.959
MS.190         	12.148         	5.931
MS.191         	12.125         	5.93
MS.192         	12.1           	5.928
MS.193         	12.075         	5.947
MS.194         	12.052         	5.941
MS.195         	12.028         	5.942
MS.196         	12.002         	5.941
MS.197         	11.98          	5.946
MS.198         	11.955         	5.935
MS.199         	11.932         	5.945
MS.200         	11.907         	5.94
MS.201         	11.885         	5.941
MS.202         	11.86          	5.935
MS.203         	11.837         	5.941
MS.204         	11.812         	5.94
MS.205         	11.79          	5.947
MS.206         	11.765         	5.948
MS.207         	11.742         	5.98
MS.208         	11.72          	5.941
MS.209         	11.695         	5.944
MS.210         	11.672         	5.967
MS.211         	11.65          	5.983
MS.212         	11.625         	5.955
MS.213         	11.602         	5.945
MS.214         	11.58          	5.952
MS.215         	11.555         	5.942
MS.216         	11.532         	5.948
MS.217         	11.51          	5.975
MS.218         	11.488         	5.951
MS.219         	11.465         	5.947
MS.220         	11.44          	5.94
MS.221         	11.417         	5.942
MS.222         	11.395         	5.969
MS.223         	11.372         	5.933
MS.224         	11.35          	5.947
MS.225         	11.327         	5.94
MS.226         	11.305         	5.977
MS.227         	11.282         	5.942
MS.228         	11.26          	5.944
MS.229         	11.238         	5.95
MS.230         	11.215         	5.945
MS.231         	11.193         	5.959
MS.232         	11.17          	5.945
MS.233         	11.148         	5.97
MS.234         	11.125         	5.962
MS.235         	11.102         	5.95
MS.236         	11.08          	5.942
MS.237         	11.057         	5.957
MS.238         	11.037         	5.967
MS.239         	11.015         	5.967
MS.240         	10.992         	5.945
MS.241         	10.97          	5.956
MS.242         	10.948         	5.95
MS.243         	10.927         	5.966
MS.244         	10.905         	5.945
MS.245         	10.882         	5.942
MS.246         	10.863         	5.938
MS.247         	10.84          	5.948
MS.248         	10.818         	5.938
MS.249         	10.797         	5.933
MS.250         	10.775         	5.95
MS.251         	10.752         	5.941
MS.252         	10.733         	5.955
MS.253         	10.71          	5.94
MS.254         	10.69          	5.958
MS.255         	10.667         	5.945
MS.256         	10.648         	5.95
MS.257         	10.625         	5.944
MS.258         	10.605         	5.946
MS.259         	10.582         	5.961
MS.260         	10.562         	5.948
MS.261         	10.54          	5.953
MS.262         	10.52          	5.947
MS.263         	10.497         	5.945
MS.264         	10.477         	5.903
MS.265         	10.457         	5.902
MS.266         	10.435         	5.881
MS.267         	10.415         	5.894
MS.268         	10.395         	5.89
MS.269         	10.372         	5.886
MS.270         	10.352         	5.901
MS.271         	10.332         	5.896
MS.272         	10.31          	5.89
MS.273         	10.29          	5.881
MS.274         	10.27          	5.894
MS.275         	10.25          	5.883
MS.276         	10.23          	5.889
MS.277         	10.207         	5.876
MS.278         	10.188         	5.862
MS.279         	10.167         	5.864
MS.280         	10.148         	5.867
MS.281         	10.127         	5.851
MS.282         	10.108         	5.868
MS.283         	10.087         	5.862
MS.284         	10.068         	5.876
MS.285         	10.047         	5.852
MS.286         	10.028         	5.865
MS.287         	10.005         	5.858
MS.288         	9.988          	5.852
MS.289         	9.967          	5.848
MS.290         	9.948          	5.865
MS.291         	9.927          	5.844
MS.292         	9.907          	5.826
MS.293         	9.887          	5.836
MS.294         	9.867          	5.858
MS.295         	9.847          	5.846
MS.296         	9.827          	5.847
MS.297         	9.807          	5.835
MS.298         	9.787          	5.845
MS.299         	9.77           	5.848
MS.300         	9.75           	5.833
MS.301         	9.73           	5.842
MS.302         	9.71           	5.826
MS.303         	9.69           	5.824
MS.304         	9.672          	5.839
MS.305         	9.653          	5.829
MS.306         	9.632          	5.813
MS.307         	9.615          	5.811
MS.308         	9.595          	5.824
MS.309         	9.575          	5.833
MS.310         	9.557          	5.825
MS.311         	9.537          	5.82
MS.312         	9.517          	5.815
MS.313         	9.5            	5.837
MS.314         	9.48           	5.817
MS.315         	9.462          	5.826
MS.316         	9.443          	5.807
MS.317         	9.422          	5.803
MS.318         	9.405          	5.79
MS.319         	9.385          	5.797
MS.320         	9.367          	5.809
MS.321         	9.347          	5.829
MS.322         	9.33           	5.801
MS.323         	9.31           	5.809
MS.324         	9.292          	5.806
MS.325         	9.275          	5.791
MS.326         	9.255          	5.802
MS.327         	9.238          	5.789
MS.328         	9.217          	5.815
MS.329         	9.2            	5.814
MS.330         	9.182          	5.778
MS.331         	9.162          	5.801
MS.332         	9.145          	5.781
MS.333         	9.127          	5.793
MS.334         	9.108          	5.756
MS.335         	9.09           	5.787
MS.336         	9.073          	5.773
MS.337         	9.055          	5.785
MS.338         	9.035          	5.789
MS.339         	9.017          	5.768
MS.340         	9              	5.762
MS.341         	8.983          	5.78
MS.342         	8.965          	5.754
MS.343         	8.945          	5.77
MS.344         	8.927          	5.756
MS.345         	8.91           	5.765
MS.346         	8.892          	5.765
MS.347         	8.875          	5.737
MS.348         	8.858          	5.731
MS.349         	8.84           	5.701
MS.350         	8.823          	5.75
MS.351         	8.805          	5.709
MS.352         	8.787          	5.748
MS.353         	8.77           	5.706
MS.354         	8.752          	5.734
MS.355         	8.735          	5.717
MS.356         	8.717          	5.736
MS.357         	8.7            	5.746
MS.358         	8.682          	5.743
MS.359         	8.665          	5.736
MS.360         	8.648          	5.737
MS.361         	8.63           	5.695
MS.362         	8.613          	5.708
MS.363         	8.595          	5.717
MS.364         	8.577          	5.743
MS.365         	8.56           	5.715
MS.366         	8.545          	5.684
MS.367         	8.528          	5.679
MS.368         	8.51           	5.668
MS.369         	8.492          	5.662
MS.370         	8.475          	5.673
MS.371         	8.46           	5.686
MS.372         	8.443          	5.684
MS.373         	8.425          	5.697
MS.374         	8.408          	5.681
MS.375         	8.392          	5.638
MS.376         	8.375          	5.688
MS.377         	8.358          	5.656
MS.378         	8.34           	5.682
MS.379         	8.325          	5.651
MS.380         	8.307          	5.616
MS.381         	8.292          	5.627
MS.382         	8.275          	5.636
MS.383         	8.257          	5.647
MS.384         	8.242          	5.643
MS.385         	8.225          	5.621
MS.386         	8.21           	5.649
MS.387         	8.193          	5.607
MS.388         	8.175          	5.579
MS.389         	8.16           	5.576
MS.390         	8.142          	5.586
MS.391         	8.127          	5.581
MS.392         	8.11           	5.625
MS.393         	8.095          	5.637
MS.394         	8.077          	5.581
MS.395         	8.062          	5.601
MS.396         	8.047          	5.57
MS.397         	8.03           	5.559
MS.398         	8.015          	5.601
MS.399         	7.997          	5.592
MS.400         	7.982          	5.614
MS.401         	7.965          	5.576
MS.402         	7.95           	5.604
MS.403         	7.935          	5.527
MS.404         	7.918          	5.566
MS.405         	7.902          	5.499
MS.406         	7.887          	5.546
MS.407         	7.87           	5.498
MS.408         	7.855          	5.505
MS.409         	7.84           	5.441
MS.410         	7.825          	5.498
MS.411         	7.807          	5.465
MS.412         	7.793          	5.516
MS.413         	7.777          	5.369
MS.414         	7.762          	5.457
MS.415         	7.747          	5.41
MS.416         	7.73           	5.37
MS.417         	7.715          	5.408
MS.418         	7.7            	5.444
MS.419         	7.685          	5.375
MS.420         	7.67           	5.437
MS.421         	7.655          	5.338
MS.422         	7.637          	5.385
MS.423         	7.622          	5.361
MS.424         	7.607          	5.37
MS.425         	7.592          	5.336
MS.426         	7.577          	5.289
MS.427         	7.562          	5.303
MS.428         	7.547          	5.311
MS.429         	7.532          	5.245
MS.430         	7.517          	5.282
MS.431         	7.503          	5.26
MS.432         	7.487          	5.261
MS.433         	7.472          	5.231
MS.434         	7.457          	5.245
MS.435         	7.442          	5.215
MS.436         	7.427          	5.203
MS.437         	7.412          	5.215
MS.438         	7.398          	5.21
MS.439         	7.382          	5.178
MS.440         	7.367          	5.206
MS.441         	7.352          	5.166
MS.442         	7.34           	5.171
MS.443         	7.325          	5.148
MS.444         	7.31           	5.183
MS.445         	7.295          	5.125
MS.446         	7.28           	5.131
MS.447         	7.265          	5.109
MS.448         	7.253          	5.088
MS.449         	7.237          	5.065
MS.450         	7.222          	5.095
MS.451         	7.207          	5.039
MS.452         	7.192          	5.1
MS.453         	7.18           	5.082
MS.454         	7.165          	5.045
MS.455         	7.15           	5.035
MS.456         	7.137          	4.98
MS.457         	7.122          	5.012
MS.458         	7.108          	5.006
MS.459         	7.092          	4.983
MS.460         	7.08           	4.987
MS.461         	7.065          	4.99
MS.462         	7.052          	4.95
MS.463         	7.037          	4.966
MS.464         	7.023          	4.938
MS.465         	7.01           	4.893
MS.466         	6.995          	4.918
MS.467         	6.98           	4.891
MS.468         	6.967          	4.807
MS.469         	6.952          	4.852
MS.470         	6.94           	4.912
MS.471         	6.925          	4.823
MS.472         	6.912          	4.75
MS.473         	6.898          	4.825
MS.474         	6.885          	4.789
MS.475         	6.87           	4.769
MS.476         	6.858          	4.716
MS.477         	6.842          	4.735
MS.478         	6.83           	4.689
MS.479         	6.815          	4.734
MS.480         	6.802          	4.586
MS.481         	6.787          	4.72
MS.482         	6.775          	4.639
MS.483         	6.762          	4.626
MS.484         	6.747          	4.58
MS.485         	6.735          	4.559
MS.486         	6.72           	4.587
MS.487         	6.707          	4.452
MS.488         	6.695          	4.569
MS.489         	6.68           	4.513
MS.490         	6.668          	4.41
MS.491         	6.655          	4.426
MS.492         	6.64           	4.434
MS.493         	6.628          	4.46
MS.494         	6.615          	4.393
MS.495         	6.6            	4.406
MS.496         	6.587          	4.388
MS.497         	6.575          	4.314
MS.498         	6.562          	4.369
MS.499         	6.547          	4.302
MS.500         	6.535          	4.27
MS.501         	6.523          	4.275
MS.502         	6.51           	4.249
