File:              	n:\Qtrac\Data\MScan\Normative Controls\CP Nerve\MSCC10730C.QZD
Name:              	MI07H
Protocol:          	MSCAN-R2
Date:              	30/7/21
Start time:        	14:47:27
Age:               	18
Sex:               	F
Temperature:       	37.5
S/R sites:         	Knee CP-TA
NC/disease:        	NC
Operator:          	BJ
Comments:
M-SCAN DATA (13.6-3.4m)
Scanpts: 7, 30, 642, 659
Stim. (mA)     	Amp. (mV)
MS.1           	21             	5.831
MS.2           	21             	5.8
MS.3           	21             	5.817
MS.4           	21             	5.797
MS.5           	21             	5.768
MS.6           	21             	5.778
MS.7           	21             	5.764
MS.8           	21             	5.78
MS.9           	21             	5.807
MS.10          	21             	5.789
MS.11          	21             	5.786
MS.12          	21             	5.793
MS.13          	21             	5.802
MS.14          	21             	5.778
MS.15          	21             	5.807
MS.16          	21             	5.825
MS.17          	21             	5.776
MS.18          	21             	5.839
MS.19          	21             	5.826
MS.20          	21             	5.792
MS.21          	21             	5.803
MS.22          	21             	5.815
MS.23          	21             	5.75
MS.24          	20.915         	5.812
MS.25          	20.875         	5.771
MS.26          	20.833         	5.743
MS.27          	20.79          	5.773
MS.28          	20.75          	5.764
MS.29          	20.708         	5.796
MS.30          	20.667         	5.768
MS.31          	20.625         	5.775
MS.32          	20.585         	5.809
MS.33          	20.542         	5.798
MS.34          	20.502         	5.818
MS.35          	20.46          	5.795
MS.36          	20.42          	5.835
MS.37          	20.38          	5.784
MS.38          	20.337         	5.804
MS.39          	20.297         	5.77
MS.40          	20.257         	5.768
MS.41          	20.217         	5.808
MS.42          	20.177         	5.779
MS.43          	20.135         	5.796
MS.44          	20.095         	5.792
MS.45          	20.055         	5.779
MS.46          	20.015         	5.781
MS.47          	19.975         	5.773
MS.48          	19.935         	5.757
MS.49          	19.895         	5.781
MS.50          	19.855         	5.793
MS.51          	19.817         	5.763
MS.52          	19.778         	5.811
MS.53          	19.737         	5.801
MS.54          	19.698         	5.775
MS.55          	19.657         	5.768
MS.56          	19.62          	5.731
MS.57          	19.58          	5.746
MS.58          	19.54          	5.737
MS.59          	19.502         	5.751
MS.60          	19.462         	5.768
MS.61          	19.425         	5.79
MS.62          	19.385         	5.779
MS.63          	19.347         	5.732
MS.64          	19.307         	5.757
MS.65          	19.27          	5.759
MS.66          	19.23          	5.758
MS.67          	19.192         	5.762
MS.68          	19.155         	5.779
MS.69          	19.115         	5.768
MS.70          	19.077         	5.813
MS.71          	19.04          	5.773
MS.72          	19.002         	5.787
MS.73          	18.962         	5.776
MS.74          	18.925         	5.8
MS.75          	18.887         	5.746
MS.76          	18.85          	5.773
MS.77          	18.812         	5.756
MS.78          	18.775         	5.771
MS.79          	18.737         	5.76
MS.80          	18.7           	5.807
MS.81          	18.663         	5.773
MS.82          	18.625         	5.736
MS.83          	18.587         	5.774
MS.84          	18.55          	5.758
MS.85          	18.515         	5.717
MS.86          	18.477         	5.747
MS.87          	18.44          	5.764
MS.88          	18.403         	5.72
MS.89          	18.368         	5.72
MS.90          	18.33          	5.704
MS.91          	18.292         	5.712
MS.92          	18.257         	5.721
MS.93          	18.22          	5.724
MS.94          	18.182         	5.765
MS.95          	18.147         	5.859
MS.96          	18.11          	5.859
MS.97          	18.075         	5.839
MS.98          	18.038         	5.792
MS.99          	18.003         	5.822
MS.100         	17.967         	5.748
MS.101         	17.93          	5.73
MS.102         	17.895         	5.763
MS.103         	17.86          	5.753
MS.104         	17.823         	5.789
MS.105         	17.788         	5.742
MS.106         	17.753         	5.731
MS.107         	17.717         	5.753
MS.108         	17.682         	5.698
MS.109         	17.645         	5.66
MS.110         	17.61          	5.693
MS.111         	17.575         	5.743
MS.112         	17.54          	5.688
MS.113         	17.505         	5.668
MS.114         	17.47          	5.664
MS.115         	17.435         	5.685
MS.116         	17.4           	5.686
MS.117         	17.365         	5.63
MS.118         	17.333         	5.61
MS.119         	17.297         	5.59
MS.120         	17.262         	5.673
MS.121         	17.227         	5.609
MS.122         	17.192         	5.604
MS.123         	17.16          	5.598
MS.124         	17.125         	5.64
MS.125         	17.09          	5.59
MS.126         	17.057         	5.531
MS.127         	17.022         	5.638
MS.128         	16.987         	5.64
MS.129         	16.955         	5.554
MS.130         	16.92          	5.638
MS.131         	16.887         	5.526
MS.132         	16.852         	5.585
MS.133         	16.82          	5.627
MS.134         	16.785         	5.603
MS.135         	16.753         	5.562
MS.136         	16.717         	5.525
MS.137         	16.685         	5.558
MS.138         	16.653         	5.488
MS.139         	16.618         	5.537
MS.140         	16.585         	5.518
MS.141         	16.552         	5.458
MS.142         	16.52          	5.46
MS.143         	16.485         	5.492
MS.144         	16.452         	5.452
MS.145         	16.42          	5.417
MS.146         	16.387         	5.406
MS.147         	16.355         	5.453
MS.148         	16.323         	5.356
MS.149         	16.29          	5.406
MS.150         	16.257         	5.396
MS.151         	16.225         	5.348
MS.152         	16.192         	5.334
MS.153         	16.16          	5.286
MS.154         	16.128         	5.272
MS.155         	16.095         	5.42
MS.156         	16.062         	5.334
MS.157         	16.03          	5.334
MS.158         	16             	5.333
MS.159         	15.967         	5.319
MS.160         	15.935         	5.253
MS.161         	15.902         	5.303
MS.162         	15.872         	5.372
MS.163         	15.84          	5.376
MS.164         	15.807         	5.303
MS.165         	15.777         	5.287
MS.166         	15.745         	5.344
MS.167         	15.712         	5.216
MS.168         	15.682         	5.225
MS.169         	15.65          	5.118
MS.170         	15.62          	5.255
MS.171         	15.587         	5.179
MS.172         	15.557         	5.216
MS.173         	15.525         	5.145
MS.174         	15.495         	4.983
MS.175         	15.465         	5.006
MS.176         	15.432         	4.987
MS.177         	15.402         	5.135
MS.178         	15.372         	4.891
MS.179         	15.34          	5.149
MS.180         	15.31          	5.098
MS.181         	15.28          	5.12
MS.182         	15.25          	4.993
MS.183         	15.217         	4.993
MS.184         	15.188         	5.167
MS.185         	15.157         	4.9
MS.186         	15.127         	4.985
MS.187         	15.097         	4.779
MS.188         	15.068         	4.976
MS.189         	15.037         	4.825
MS.190         	15.007         	4.901
MS.191         	14.977         	4.912
MS.192         	14.947         	4.801
MS.193         	14.917         	4.938
MS.194         	14.887         	4.696
MS.195         	14.858         	4.774
MS.196         	14.827         	4.708
MS.197         	14.797         	4.619
MS.198         	14.77          	4.713
MS.199         	14.74          	4.635
MS.200         	14.71          	4.498
MS.201         	14.68          	4.623
MS.202         	14.65          	4.622
MS.203         	14.622         	4.567
MS.204         	14.592         	4.525
MS.205         	14.562         	4.576
MS.206         	14.535         	4.478
MS.207         	14.505         	4.487
MS.208         	14.477         	4.429
MS.209         	14.447         	4.495
MS.210         	14.417         	4.573
MS.211         	14.39          	4.399
MS.212         	14.36          	4.464
MS.213         	14.332         	4.457
MS.214         	14.302         	4.426
MS.215         	14.275         	4.434
MS.216         	14.247         	4.5
MS.217         	14.217         	4.526
MS.218         	14.19          	4.451
MS.219         	14.162         	4.347
MS.220         	14.132         	4.47
MS.221         	14.105         	4.326
MS.222         	14.077         	4.377
MS.223         	14.047         	4.379
MS.224         	14.02          	4.396
MS.225         	13.992         	4.408
MS.226         	13.965         	4.344
MS.227         	13.938         	4.296
MS.228         	13.91          	4.318
MS.229         	13.88          	4.275
MS.230         	13.852         	4.21
MS.231         	13.825         	4.27
MS.232         	13.797         	4.202
MS.233         	13.77          	4.232
MS.234         	13.742         	4.17
MS.235         	13.715         	4.137
MS.236         	13.688         	4.122
MS.237         	13.66          	4.059
MS.238         	13.632         	4.031
MS.239         	13.605         	4.093
MS.240         	13.58          	4.036
MS.241         	13.552         	4.038
MS.242         	13.525         	3.99
MS.243         	13.497         	4.015
MS.244         	13.47          	3.92
MS.245         	13.445         	4.023
MS.246         	13.417         	4.004
MS.247         	13.39          	3.997
MS.248         	13.362         	3.959
MS.249         	13.337         	3.998
MS.250         	13.31          	3.95
MS.251         	13.282         	3.981
MS.252         	13.257         	3.942
MS.253         	13.23          	3.97
MS.254         	13.205         	3.937
MS.255         	13.177         	3.915
MS.256         	13.153         	3.914
MS.257         	13.125         	3.811
MS.258         	13.1           	3.816
MS.259         	13.072         	3.801
MS.260         	13.047         	3.75
MS.261         	13.02          	3.801
MS.262         	12.995         	3.729
MS.263         	12.967         	3.754
MS.264         	12.943         	3.68
MS.265         	12.917         	3.715
MS.266         	12.89          	3.61
MS.267         	12.865         	3.622
MS.268         	12.84          	3.643
MS.269         	12.812         	3.674
MS.270         	12.787         	3.64
MS.271         	12.762         	3.589
MS.272         	12.738         	3.564
MS.273         	12.712         	3.564
MS.274         	12.685         	3.513
MS.275         	12.66          	3.558
MS.276         	12.635         	3.578
MS.277         	12.61          	3.612
MS.278         	12.585         	3.668
MS.279         	12.56          	3.524
MS.280         	12.535         	3.533
MS.281         	12.51          	3.561
MS.282         	12.485         	3.485
MS.283         	12.46          	3.527
MS.284         	12.435         	3.514
MS.285         	12.41          	3.501
MS.286         	12.385         	3.566
MS.287         	12.36          	3.397
MS.288         	12.335         	3.522
MS.289         	12.312         	3.566
MS.290         	12.287         	3.436
MS.291         	12.262         	3.425
MS.292         	12.238         	3.275
MS.293         	12.212         	3.545
MS.294         	12.19          	3.289
MS.295         	12.165         	3.485
MS.296         	12.14          	3.424
MS.297         	12.115         	3.351
MS.298         	12.092         	3.275
MS.299         	12.068         	3.221
MS.300         	12.042         	3.259
MS.301         	12.02          	3.165
MS.302         	11.995         	3.088
MS.303         	11.972         	3.164
MS.304         	11.947         	3.003
MS.305         	11.922         	3.06
MS.306         	11.9           	3.087
MS.307         	11.875         	3.063
MS.308         	11.852         	3.131
MS.309         	11.827         	3.042
MS.310         	11.805         	3.042
MS.311         	11.782         	3.011
MS.312         	11.757         	3.113
MS.313         	11.735         	2.896
MS.314         	11.71          	2.952
MS.315         	11.688         	2.814
MS.316         	11.665         	2.966
MS.317         	11.64          	2.867
MS.318         	11.617         	2.936
MS.319         	11.595         	2.701
MS.320         	11.57          	2.809
MS.321         	11.547         	2.745
MS.322         	11.525         	2.709
MS.323         	11.502         	2.905
MS.324         	11.48          	2.843
MS.325         	11.455         	2.689
MS.326         	11.432         	2.629
MS.327         	11.41          	2.826
MS.328         	11.387         	2.673
MS.329         	11.365         	2.609
MS.330         	11.342         	2.56
MS.331         	11.32          	2.706
MS.332         	11.297         	2.657
MS.333         	11.275         	2.499
MS.334         	11.252         	2.677
MS.335         	11.23          	2.458
MS.336         	11.207         	2.605
MS.337         	11.185         	2.516
MS.338         	11.162         	2.383
MS.339         	11.14          	2.395
MS.340         	11.117         	2.511
MS.341         	11.095         	2.388
MS.342         	11.073         	2.383
MS.343         	11.05          	2.281
MS.344         	11.03          	2.44
MS.345         	11.007         	2.322
MS.346         	10.985         	2.477
MS.347         	10.962         	2.346
MS.348         	10.94          	2.358
MS.349         	10.92          	2.19
MS.350         	10.898         	2.148
MS.351         	10.875         	2.373
MS.352         	10.855         	2.096
MS.353         	10.832         	2.053
MS.354         	10.81          	2.085
MS.355         	10.79          	2.05
MS.356         	10.767         	2.107
MS.357         	10.745         	2.065
MS.358         	10.725         	2.006
MS.359         	10.702         	1.941
MS.360         	10.682         	1.986
MS.361         	10.66          	2.014
MS.362         	10.64          	1.879
MS.363         	10.617         	1.783
MS.364         	10.597         	1.874
MS.365         	10.575         	1.887
MS.366         	10.555         	1.94
MS.367         	10.532         	1.859
MS.368         	10.512         	1.964
MS.369         	10.49          	1.766
MS.370         	10.47          	1.793
MS.371         	10.45          	1.816
MS.372         	10.427         	1.713
MS.373         	10.407         	1.932
MS.374         	10.387         	1.51
MS.375         	10.365         	1.626
MS.376         	10.345         	1.572
MS.377         	10.325         	1.691
MS.378         	10.305         	1.672
MS.379         	10.282         	1.484
MS.380         	10.262         	1.445
MS.381         	10.242         	1.472
MS.382         	10.222         	1.326
MS.383         	10.202         	1.519
MS.384         	10.18          	1.381
MS.385         	10.16          	1.357
MS.386         	10.14          	1.426
MS.387         	10.12          	1.407
MS.388         	10.1           	1.345
MS.389         	10.08          	1.295
MS.390         	10.06          	1.404
MS.391         	10.04          	1.228
MS.392         	10.02          	1.26
MS.393         	10             	1.279
MS.394         	9.98           	1.205
MS.395         	9.96           	1.238
MS.396         	9.94           	1.132
MS.397         	9.92           	1.151
MS.398         	9.9            	1.205
MS.399         	9.88           	1.13
MS.400         	9.86           	1.133
MS.401         	9.84           	1.351
MS.402         	9.82           	1.167
MS.403         	9.802          	1.161
MS.404         	9.782          	1.113
MS.405         	9.762          	1.216
MS.406         	9.742          	1.158
MS.407         	9.722          	1.046
MS.408         	9.705          	1.139
MS.409         	9.685          	1.122
MS.410         	9.665          	1.055
MS.411         	9.645          	1.016
MS.412         	9.627          	1.233
MS.413         	9.608          	1.075
MS.414         	9.587          	1.056
MS.415         	9.57           	1.031
MS.416         	9.55           	1.04
MS.417         	9.53           	1.067
MS.418         	9.512          	1.056
MS.419         	9.492          	1.069
MS.420         	9.472          	0.936
MS.421         	9.455          	1.028
MS.422         	9.435          	0.933
MS.423         	9.417          	0.951
MS.424         	9.398          	0.936
MS.425         	9.38           	0.919
MS.426         	9.36           	0.969
MS.427         	9.342          	0.985
MS.428         	9.323          	0.836
MS.429         	9.305          	0.885
MS.430         	9.285          	0.834
MS.431         	9.267          	0.869
MS.432         	9.25           	0.895
MS.433         	9.23           	0.891
MS.434         	9.212          	0.869
MS.435         	9.193          	0.784
MS.436         	9.175          	0.885
MS.437         	9.158          	0.836
MS.438         	9.137          	0.796
MS.439         	9.12           	0.879
MS.440         	9.102          	0.706
MS.441         	9.085          	0.836
MS.442         	9.065          	0.837
MS.443         	9.047          	0.757
MS.444         	9.03           	0.681
MS.445         	9.012          	0.699
MS.446         	8.992          	0.685
MS.447         	8.975          	0.609
MS.448         	8.957          	0.571
MS.449         	8.94           	0.742
MS.450         	8.922          	0.699
MS.451         	8.905          	0.664
MS.452         	8.887          	0.742
MS.453         	8.867          	0.635
MS.454         	8.85           	0.643
MS.455         	8.832          	0.673
MS.456         	8.815          	0.566
MS.457         	8.797          	0.549
MS.458         	8.78           	0.531
MS.459         	8.762          	0.587
MS.460         	8.745          	0.527
MS.461         	8.727          	0.505
MS.462         	8.71           	0.525
MS.463         	8.693          	0.586
MS.464         	8.675          	0.468
MS.465         	8.658          	0.488
MS.466         	8.64           	0.519
MS.467         	8.622          	0.416
MS.468         	8.608          	0.45
MS.469         	8.59           	0.404
MS.470         	8.573          	0.507
MS.471         	8.555          	0.402
MS.472         	8.537          	0.519
MS.473         	8.52           	0.397
MS.474         	8.505          	0.413
MS.475         	8.488          	0.377
MS.476         	8.47           	0.441
MS.477         	8.452          	0.432
MS.478         	8.435          	0.399
MS.479         	8.42           	0.365
MS.480         	8.403          	0.404
MS.481         	8.385          	0.338
MS.482         	8.37           	0.339
MS.483         	8.352          	0.367
MS.484         	8.335          	0.35
MS.485         	8.32           	0.253
MS.486         	8.302          	0.281
MS.487         	8.285          	0.314
MS.488         	8.27           	0.332
MS.489         	8.252          	0.325
MS.490         	8.235          	0.201
MS.491         	8.22           	0.287
MS.492         	8.202          	0.239
MS.493         	8.188          	0.321
MS.494         	8.17           	0.243
MS.495         	8.155          	0.209
MS.496         	8.137          	0.287
MS.497         	8.122          	0.284
MS.498         	8.105          	0.242
MS.499         	8.09           	0.271
MS.500         	8.073          	0.305
MS.501         	8.057          	0.258
MS.502         	8.04           	0.327
