File:              	n:\Qtrac\Data\MScan\Normative Controls\CP Nerve\MSCC10723C.QZD
Name:              	MI07H
Protocol:          	MSCAN-R2
Date:              	23/7/21
Start time:        	15:20:16
Age:               	18
Sex:               	F
Temperature:       	33.7
S/R sites:         	Knee CP-TA
NC/disease:        	NC
Operator:          	BJ
Comments:
M-SCAN DATA (11.6-3m)
Scanpts: 2, 11, 509, 514
Stim. (mA)     	Amp. (mV)
MS.1           	20             	5.958
MS.2           	20             	5.95
MS.3           	19.92          	6.002
MS.4           	19.88          	5.924
MS.5           	19.84          	6.028
MS.6           	19.8           	5.952
MS.7           	19.762         	6.013
MS.8           	19.722         	5.947
MS.9           	19.682         	5.973
MS.10          	19.642         	5.966
MS.11          	19.605         	5.957
MS.12          	19.565         	5.959
MS.13          	19.525         	5.938
MS.14          	19.487         	5.938
MS.15          	19.448         	5.969
MS.16          	19.41          	5.944
MS.17          	19.37          	5.931
MS.18          	19.333         	5.923
MS.19          	19.292         	5.948
MS.20          	19.255         	5.944
MS.21          	19.215         	5.935
MS.22          	19.177         	5.907
MS.23          	19.14          	5.923
MS.24          	19.1           	5.891
MS.25          	19.062         	5.905
MS.26          	19.025         	5.868
MS.27          	18.987         	5.885
MS.28          	18.948         	5.889
MS.29          	18.91          	5.9
MS.30          	18.872         	5.78
MS.31          	18.835         	5.883
MS.32          	18.797         	5.891
MS.33          	18.76          	5.84
MS.34          	18.722         	5.885
MS.35          	18.685         	5.791
MS.36          	18.647         	5.874
MS.37          	18.61          	5.874
MS.38          	18.573         	5.786
MS.39          	18.535         	5.886
MS.40          	18.5           	5.791
MS.41          	18.462         	5.859
MS.42          	18.425         	5.856
MS.43          	18.387         	5.797
MS.44          	18.352         	5.758
MS.45          	18.315         	5.851
MS.46          	18.278         	5.857
MS.47          	18.243         	5.876
MS.48          	18.205         	5.889
MS.49          	18.17          	5.791
MS.50          	18.132         	5.84
MS.51          	18.097         	5.819
MS.52          	18.06          	5.892
MS.53          	18.025         	5.822
MS.54          	17.987         	5.747
MS.55          	17.952         	5.819
MS.56          	17.917         	5.797
MS.57          	17.88          	5.768
MS.58          	17.845         	5.801
MS.59          	17.81          	5.751
MS.60          	17.775         	5.775
MS.61          	17.737         	5.792
MS.62          	17.702         	5.767
MS.63          	17.667         	5.776
MS.64          	17.632         	5.773
MS.65          	17.597         	5.768
MS.66          	17.562         	5.72
MS.67          	17.528         	5.764
MS.68          	17.493         	5.765
MS.69          	17.458         	5.758
MS.70          	17.422         	5.729
MS.71          	17.387         	5.739
MS.72          	17.352         	5.752
MS.73          	17.317         	5.762
MS.74          	17.282         	5.667
MS.75          	17.247         	5.654
MS.76          	17.215         	5.627
MS.77          	17.18          	5.607
MS.78          	17.145         	5.507
MS.79          	17.11          	5.532
MS.80          	17.077         	5.626
MS.81          	17.042         	5.634
MS.82          	17.01          	5.637
MS.83          	16.975         	5.469
MS.84          	16.94          	5.452
MS.85          	16.907         	5.542
MS.86          	16.872         	5.416
MS.87          	16.84          	5.496
MS.88          	16.805         	5.448
MS.89          	16.772         	5.433
MS.90          	16.74          	5.549
MS.91          	16.705         	5.443
MS.92          	16.672         	5.455
MS.93          	16.637         	5.422
MS.94          	16.605         	5.391
MS.95          	16.573         	5.349
MS.96          	16.54          	5.369
MS.97          	16.505         	5.383
MS.98          	16.472         	5.383
MS.99          	16.44          	5.349
MS.100         	16.407         	5.375
MS.101         	16.375         	5.366
MS.102         	16.342         	5.375
MS.103         	16.31          	5.371
MS.104         	16.278         	5.267
MS.105         	16.245         	5.355
MS.106         	16.212         	5.364
MS.107         	16.18          	5.326
MS.108         	16.147         	5.326
MS.109         	16.115         	5.312
MS.110         	16.083         	5.331
MS.111         	16.05          	5.299
MS.112         	16.017         	5.387
MS.113         	15.985         	5.376
MS.114         	15.955         	5.399
MS.115         	15.922         	5.417
MS.116         	15.89          	5.382
MS.117         	15.86          	5.312
MS.118         	15.827         	5.273
MS.119         	15.795         	5.255
MS.120         	15.765         	5.226
MS.121         	15.733         	5.22
MS.122         	15.7           	5.197
MS.123         	15.67          	5.107
MS.124         	15.637         	5.21
MS.125         	15.608         	5.14
MS.126         	15.575         	5.148
MS.127         	15.545         	5.151
MS.128         	15.515         	5.15
MS.129         	15.483         	5.157
MS.130         	15.452         	5.092
MS.131         	15.42          	5.094
MS.132         	15.39          	4.971
MS.133         	15.36          	5.033
MS.134         	15.327         	4.897
MS.135         	15.297         	5.006
MS.136         	15.267         	4.88
MS.137         	15.237         	4.868
MS.138         	15.207         	4.89
MS.139         	15.175         	4.846
MS.140         	15.145         	4.845
MS.141         	15.115         	4.843
MS.142         	15.085         	4.807
MS.143         	15.055         	4.756
MS.144         	15.025         	4.783
MS.145         	14.995         	4.784
MS.146         	14.965         	4.695
MS.147         	14.935         	4.774
MS.148         	14.905         	4.744
MS.149         	14.875         	4.774
MS.150         	14.845         	4.784
MS.151         	14.818         	4.724
MS.152         	14.787         	4.896
MS.153         	14.757         	4.81
MS.154         	14.727         	4.818
MS.155         	14.697         	4.919
MS.156         	14.67          	4.948
MS.157         	14.64          	4.76
MS.158         	14.61          	4.958
MS.159         	14.58          	4.929
MS.160         	14.552         	4.894
MS.161         	14.523         	4.935
MS.162         	14.495         	4.86
MS.163         	14.465         	4.902
MS.164         	14.435         	4.835
MS.165         	14.407         	4.778
MS.166         	14.377         	4.718
MS.167         	14.35          	4.773
MS.168         	14.32          	4.849
MS.169         	14.292         	4.717
MS.170         	14.265         	4.681
MS.171         	14.235         	4.644
MS.172         	14.207         	4.55
MS.173         	14.177         	4.355
MS.174         	14.15          	4.603
MS.175         	14.122         	4.438
MS.176         	14.092         	4.469
MS.177         	14.065         	4.396
MS.178         	14.037         	4.344
MS.179         	14.01          	4.222
MS.180         	13.983         	4.298
MS.181         	13.952         	4.126
MS.182         	13.925         	4.072
MS.183         	13.898         	4.071
MS.184         	13.87          	3.964
MS.185         	13.842         	4.042
MS.186         	13.815         	4.109
MS.187         	13.787         	3.984
MS.188         	13.76          	4.105
MS.189         	13.733         	4.017
MS.190         	13.705         	3.929
MS.191         	13.677         	3.811
MS.192         	13.65          	3.994
MS.193         	13.622         	3.809
MS.194         	13.595         	3.684
MS.195         	13.568         	3.666
MS.196         	13.54          	3.694
MS.197         	13.515         	3.684
MS.198         	13.487         	3.517
MS.199         	13.46          	3.713
MS.200         	13.432         	3.762
MS.201         	13.407         	3.859
MS.202         	13.38          	3.772
MS.203         	13.352         	3.816
MS.204         	13.325         	3.478
MS.205         	13.3           	3.651
MS.206         	13.273         	3.645
MS.207         	13.247         	3.563
MS.208         	13.22          	3.745
MS.209         	13.193         	3.605
MS.210         	13.167         	3.86
MS.211         	13.14          	3.735
MS.212         	13.115         	3.785
MS.213         	13.087         	3.506
MS.214         	13.062         	3.566
MS.215         	13.035         	3.472
MS.216         	13.01          	3.544
MS.217         	12.985         	3.448
MS.218         	12.957         	3.571
MS.219         	12.932         	3.546
MS.220         	12.907         	3.308
MS.221         	12.88          	3.428
MS.222         	12.855         	3.47
MS.223         	12.83          	3.295
MS.224         	12.802         	3.345
MS.225         	12.778         	3.304
MS.226         	12.752         	3.159
MS.227         	12.727         	3.207
MS.228         	12.702         	3.043
MS.229         	12.675         	3.138
MS.230         	12.65          	3.169
MS.231         	12.625         	3.058
MS.232         	12.6           	3.098
MS.233         	12.575         	2.99
MS.234         	12.55          	2.819
MS.235         	12.525         	2.981
MS.236         	12.5           	2.898
MS.237         	12.475         	2.883
MS.238         	12.45          	2.775
MS.239         	12.425         	2.825
MS.240         	12.4           	2.82
MS.241         	12.375         	2.791
MS.242         	12.35          	2.861
MS.243         	12.325         	2.808
MS.244         	12.302         	2.899
MS.245         	12.278         	2.86
MS.246         	12.252         	2.821
MS.247         	12.227         	2.788
MS.248         	12.202         	2.838
MS.249         	12.18          	2.795
MS.250         	12.155         	2.699
MS.251         	12.13          	2.889
MS.252         	12.108         	2.826
MS.253         	12.082         	2.743
MS.254         	12.057         	2.642
MS.255         	12.035         	2.637
MS.256         	12.01          	2.576
MS.257         	11.985         	2.559
MS.258         	11.962         	2.511
MS.259         	11.938         	2.454
MS.260         	11.915         	2.356
MS.261         	11.89          	2.245
MS.262         	11.867         	2.288
MS.263         	11.842         	2.079
MS.264         	11.82          	2.385
MS.265         	11.795         	2.299
MS.266         	11.773         	1.982
MS.267         	11.747         	2.145
MS.268         	11.725         	1.987
MS.269         	11.702         	1.979
MS.270         	11.677         	1.958
MS.271         	11.655         	1.951
MS.272         	11.632         	1.814
MS.273         	11.608         	1.833
MS.274         	11.585         	1.815
MS.275         	11.562         	1.65
MS.276         	11.54          	1.636
MS.277         	11.515         	1.775
MS.278         	11.492         	1.793
MS.279         	11.47          	1.659
MS.280         	11.447         	1.588
MS.281         	11.425         	1.663
MS.282         	11.403         	1.528
MS.283         	11.377         	1.748
MS.284         	11.355         	1.523
MS.285         	11.332         	1.638
MS.286         	11.31          	1.602
MS.287         	11.287         	1.646
MS.288         	11.265         	1.603
MS.289         	11.242         	1.443
MS.290         	11.22          	1.625
MS.291         	11.197         	1.492
MS.292         	11.175         	1.699
MS.293         	11.153         	1.636
MS.294         	11.13          	1.479
MS.295         	11.108         	1.669
MS.296         	11.087         	1.564
MS.297         	11.065         	1.543
MS.298         	11.042         	1.537
MS.299         	11.02          	1.506
MS.300         	10.997         	1.382
MS.301         	10.975         	1.361
MS.302         	10.955         	1.479
MS.303         	10.932         	1.372
MS.304         	10.91          	1.289
MS.305         	10.887         	1.292
MS.306         	10.867         	1.333
MS.307         	10.845         	1.245
MS.308         	10.823         	1.182
MS.309         	10.802         	1.228
MS.310         	10.78          	0.984
MS.311         	10.76          	1.11
MS.312         	10.738         	1.057
MS.313         	10.715         	1.155
MS.314         	10.695         	0.995
MS.315         	10.672         	1.064
MS.316         	10.653         	1.053
MS.317         	10.63          	0.969
MS.318         	10.61          	0.953
MS.319         	10.587         	1.016
MS.320         	10.568         	0.984
MS.321         	10.545         	0.927
MS.322         	10.525         	0.828
MS.323         	10.502         	0.859
MS.324         	10.483         	0.929
MS.325         	10.462         	0.892
MS.326         	10.44          	0.891
MS.327         	10.42          	0.897
MS.328         	10.4           	0.753
MS.329         	10.377         	0.732
MS.330         	10.358         	0.823
MS.331         	10.337         	0.857
MS.332         	10.318         	0.83
MS.333         	10.295         	0.779
MS.334         	10.275         	0.665
MS.335         	10.255         	0.792
MS.336         	10.235         	0.818
MS.337         	10.212         	0.802
MS.338         	10.193         	0.764
MS.339         	10.172         	0.77
MS.340         	10.153         	0.809
MS.341         	10.132         	0.74
MS.342         	10.113         	0.702
MS.343         	10.092         	0.698
MS.344         	10.073         	0.704
MS.345         	10.052         	0.77
MS.346         	10.032         	0.627
MS.347         	10.012         	0.582
MS.348         	9.992          	0.599
MS.349         	9.972          	0.671
MS.350         	9.952          	0.586
MS.351         	9.932          	0.568
MS.352         	9.912          	0.56
MS.353         	9.892          	0.629
MS.354         	9.872          	0.676
MS.355         	9.852          	0.565
MS.356         	9.832          	0.569
MS.357         	9.812          	0.573
MS.358         	9.792          	0.575
MS.359         	9.775          	0.582
MS.360         	9.755          	0.541
MS.361         	9.735          	0.499
MS.362         	9.715          	0.497
MS.363         	9.695          	0.524
MS.364         	9.677          	0.522
MS.365         	9.657          	0.427
MS.366         	9.637          	0.452
MS.367         	9.62           	0.416
MS.368         	9.6            	0.42
MS.369         	9.58           	0.399
MS.370         	9.562          	0.381
MS.371         	9.542          	0.355
MS.372         	9.523          	0.271
MS.373         	9.505          	0.4
MS.374         	9.485          	0.278
MS.375         	9.465          	0.306
MS.376         	9.448          	0.386
MS.377         	9.427          	0.36
MS.378         	9.41           	0.266
MS.379         	9.39           	0.245
MS.380         	9.372          	0.343
MS.381         	9.352          	0.302
MS.382         	9.335          	0.25
MS.383         	9.315          	0.244
MS.384         	9.297          	0.254
MS.385         	9.28           	0.21
MS.386         	9.26           	0.179
MS.387         	9.242          	0.273
MS.388         	9.222          	0.184
MS.389         	9.205          	0.245
MS.390         	9.188          	0.199
MS.391         	9.167          	0.171
MS.392         	9.15           	0.261
MS.393         	9.132          	0.248
MS.394         	9.113          	0.217
MS.395         	9.095          	0.197
MS.396         	9.077          	0.251
MS.397         	9.057          	0.225
MS.398         	9.04           	0.197
MS.399         	9.023          	0.165
MS.400         	9.005          	0.214
MS.401         	8.988          	0.223
MS.402         	8.967          	0.175
MS.403         	8.95           	0.16
MS.404         	8.932          	0.17
MS.405         	8.915          	0.155
MS.406         	8.898          	0.156
MS.407         	8.88           	0.135
MS.408         	8.863          	0.175
MS.409         	8.845          	0.178
MS.410         	8.825          	0.148
MS.411         	8.807          	0.172
MS.412         	8.79           	0.143
MS.413         	8.773          	0.182
MS.414         	8.755          	0.165
MS.415         	8.738          	0.181
MS.416         	8.72           	0.16
MS.417         	8.702          	0.178
MS.418         	8.685          	0.183
MS.419         	8.67           	0.155
MS.420         	8.653          	0.142
MS.421         	8.635          	0.164
MS.422         	8.617          	0.167
MS.423         	8.6            	0.149
MS.424         	8.582          	0.15
MS.425         	8.565          	0.167
MS.426         	8.547          	0.17
MS.427         	8.53           	0.146
MS.428         	8.515          	0.156
MS.429         	8.497          	0.159
MS.430         	8.48           	0.167
MS.431         	8.462          	0.162
MS.432         	8.448          	0.159
MS.433         	8.43           	0.16
MS.434         	8.412          	0.161
MS.435         	8.395          	0.16
MS.436         	8.38           	0.159
MS.437         	8.363          	0.164
MS.438         	8.345          	0.149
MS.439         	8.33           	0.137
MS.440         	8.312          	0.156
MS.441         	8.295          	0.146
MS.442         	8.28           	0.134
MS.443         	8.262          	0.165
MS.444         	8.245          	0.153
MS.445         	8.23           	0.137
MS.446         	8.212          	0.131
MS.447         	8.198          	0.137
MS.448         	8.18           	0.171
MS.449         	8.165          	0.149
MS.450         	8.148          	0.144
MS.451         	8.132          	0.161
MS.452         	8.115          	0.156
MS.453         	8.1            	0.146
MS.454         	8.082          	0.138
MS.455         	8.068          	0.144
MS.456         	8.05           	0.127
MS.457         	8.035          	0.149
MS.458         	8.017          	0.16
MS.459         	8.002          	0.132
MS.460         	7.987          	0.131
MS.461         	7.97           	0.135
MS.462         	7.955          	0.129
MS.463         	7.938          	0.132
MS.464         	7.922          	0.145
MS.465         	7.907          	0.145
MS.466         	7.89           	0.133
MS.467         	7.875          	0.134
MS.468         	7.86           	0.135
MS.469         	7.845          	0.153
MS.470         	7.827          	0.127
MS.471         	7.812          	0.137
MS.472         	7.797          	0.129
MS.473         	7.782          	0.135
MS.474         	7.765          	0.128
MS.475         	7.75           	0.125
MS.476         	7.735          	0.128
MS.477         	7.72           	0.135
MS.478         	7.705          	0.133
MS.479         	7.688          	0.129
MS.480         	7.672          	0.121
MS.481         	7.657          	0.12
MS.482         	7.642          	0.128
MS.483         	7.628          	0.129
MS.484         	7.612          	0.129
MS.485         	7.597          	0.127
MS.486         	7.582          	0.128
MS.487         	7.567          	0.127
MS.488         	7.552          	0.129
MS.489         	7.537          	0.127
MS.490         	7.52           	0.126
MS.491         	7.505          	0.125
MS.492         	7.49           	0.125
MS.493         	7.475          	0.126
MS.494         	7.462          	0.123
MS.495         	7.447          	0.123
MS.496         	7.432          	0.117
MS.497         	7.418          	0.122
MS.498         	7.402          	0.121
MS.499         	7.387          	0.112
MS.500         	7.372          	0.043
MS.501         	7.357          	0.044
MS.502         	7.342          	0.11
