File:              	C:\Qtrac\Data\Daniel M Sørensen\MScan multicentre study\Data from centres\Oslo\IronKey\Oslo_NC_first examination\SZC00611B.QZD
Name:              	NO.OSL.NC.18.1
Protocol:          	MSCAN-R2
Date:              	11/6/20
Start time:        	17:22:23
Age:               	32
Sex:               	F
Temperature:       	30.9
S/R sites:         	Ulnar Wr-ADM
NC/disease:        	NC18
Operator:          	SZ
Comments:          	Test1
M-SCAN DATA (7.5-2.9m)
Scanpts: 16, 23, 488, 509
Stim. (mA)     	Amp. (mV)
MS.1           	16.5           	14.79
MS.2           	16.5           	14.832
MS.3           	16.5           	14.85
MS.4           	16.5           	14.82
MS.5           	16.5           	14.854
MS.6           	16.5           	14.824
MS.7           	16.5           	14.909
MS.8           	16.5           	14.947
MS.9           	16.5           	14.905
MS.10          	16.5           	14.899
MS.11          	16.5           	14.873
MS.12          	16.5           	14.897
MS.13          	16.5           	14.86
MS.14          	16.5           	14.909
MS.15          	16.5           	14.891
MS.16          	16.5           	14.865
MS.17          	16.5           	14.931
MS.18          	16.5           	14.927
MS.19          	16.5           	14.913
MS.20          	16.5           	14.84
MS.21          	16.5           	14.893
MS.22          	16.5           	14.844
MS.23          	16.5           	14.905
MS.24          	16.4           	14.877
MS.25          	16.368         	14.939
MS.26          	16.335         	14.879
MS.27          	16.302         	14.963
MS.28          	16.27          	14.917
MS.29          	16.237         	14.862
MS.30          	16.205         	14.865
MS.31          	16.172         	14.834
MS.32          	16.14          	14.891
MS.33          	16.108         	14.905
MS.34          	16.077         	14.907
MS.35          	16.045         	14.923
MS.36          	16.012         	14.846
MS.37          	15.98          	14.913
MS.38          	15.947         	14.86
MS.39          	15.917         	14.84
MS.40          	15.885         	14.77
MS.41          	15.852         	14.891
MS.42          	15.822         	14.875
MS.43          	15.79          	14.86
MS.44          	15.757         	14.77
MS.45          	15.727         	14.889
MS.46          	15.695         	14.84
MS.47          	15.665         	14.744
MS.48          	15.632         	14.75
MS.49          	15.602         	14.794
MS.50          	15.57          	14.822
MS.51          	15.54          	14.778
MS.52          	15.507         	14.802
MS.53          	15.477         	14.732
MS.54          	15.445         	14.782
MS.55          	15.415         	14.792
MS.56          	15.385         	14.74
MS.57          	15.352         	14.8
MS.58          	15.322         	14.762
MS.59          	15.292         	14.796
MS.60          	15.262         	14.788
MS.61          	15.233         	14.82
MS.62          	15.2           	14.768
MS.63          	15.17          	14.798
MS.64          	15.14          	14.76
MS.65          	15.11          	14.726
MS.66          	15.08          	14.746
MS.67          	15.05          	14.764
MS.68          	15.02          	14.742
MS.69          	14.99          	14.734
MS.70          	14.96          	14.711
MS.71          	14.93          	14.762
MS.72          	14.9           	14.73
MS.73          	14.87          	14.778
MS.74          	14.84          	14.726
MS.75          	14.81          	14.756
MS.76          	14.78          	14.77
MS.77          	14.752         	14.756
MS.78          	14.722         	14.744
MS.79          	14.693         	14.746
MS.80          	14.662         	14.705
MS.81          	14.635         	14.707
MS.82          	14.605         	14.744
MS.83          	14.575         	14.701
MS.84          	14.547         	14.699
MS.85          	14.517         	14.719
MS.86          	14.487         	14.669
MS.87          	14.46          	14.691
MS.88          	14.43          	14.653
MS.89          	14.403         	14.699
MS.90          	14.372         	14.707
MS.91          	14.345         	14.693
MS.92          	14.315         	14.742
MS.93          	14.287         	14.703
MS.94          	14.257         	14.663
MS.95          	14.23          	14.659
MS.96          	14.202         	14.713
MS.97          	14.172         	14.717
MS.98          	14.145         	14.643
MS.99          	14.117         	14.73
MS.100         	14.087         	14.709
MS.101         	14.06          	14.649
MS.102         	14.032         	14.601
MS.103         	14.005         	14.645
MS.104         	13.975         	14.623
MS.105         	13.947         	14.633
MS.106         	13.92          	14.623
MS.107         	13.892         	14.576
MS.108         	13.865         	14.609
MS.109         	13.837         	14.613
MS.110         	13.81          	14.609
MS.111         	13.782         	14.583
MS.112         	13.755         	14.605
MS.113         	13.727         	14.532
MS.114         	13.7           	14.572
MS.115         	13.672         	14.568
MS.116         	13.645         	14.627
MS.117         	13.617         	14.536
MS.118         	13.59          	14.526
MS.119         	13.562         	14.498
MS.120         	13.535         	14.532
MS.121         	13.51          	14.429
MS.122         	13.483         	14.494
MS.123         	13.455         	14.49
MS.124         	13.427         	14.429
MS.125         	13.403         	14.446
MS.126         	13.375         	14.375
MS.127         	13.347         	14.494
MS.128         	13.32          	14.423
MS.129         	13.295         	14.454
MS.130         	13.267         	14.391
MS.131         	13.242         	14.403
MS.132         	13.215         	14.379
MS.133         	13.188         	14.319
MS.134         	13.162         	14.359
MS.135         	13.135         	14.23
MS.136         	13.11          	14.395
MS.137         	13.082         	14.343
MS.138         	13.057         	14.315
MS.139         	13.032         	14.307
MS.140         	13.005         	14.319
MS.141         	12.98          	14.258
MS.142         	12.952         	14.395
MS.143         	12.927         	14.26
MS.144         	12.903         	14.141
MS.145         	12.875         	14.206
MS.146         	12.85          	14.226
MS.147         	12.825         	14.174
MS.148         	12.8           	14.375
MS.149         	12.773         	14.373
MS.150         	12.747         	14.433
MS.151         	12.722         	14.051
MS.152         	12.697         	14.264
MS.153         	12.672         	14.162
MS.154         	12.645         	13.874
MS.155         	12.62          	14.162
MS.156         	12.595         	13.992
MS.157         	12.57          	13.922
MS.158         	12.545         	14.101
MS.159         	12.52          	14.017
MS.160         	12.495         	13.878
MS.161         	12.47          	13.926
MS.162         	12.445         	13.984
MS.163         	12.42          	13.765
MS.164         	12.395         	13.867
MS.165         	12.37          	13.888
MS.166         	12.347         	13.829
MS.167         	12.322         	13.753
MS.168         	12.297         	13.751
MS.169         	12.273         	13.555
MS.170         	12.247         	13.692
MS.171         	12.222         	13.638
MS.172         	12.2           	13.575
MS.173         	12.175         	13.388
MS.174         	12.15          	13.447
MS.175         	12.125         	13.491
MS.176         	12.102         	13.253
MS.177         	12.077         	13.531
MS.178         	12.052         	13.426
MS.179         	12.03          	13.302
MS.180         	12.005         	13.076
MS.181         	11.983         	13.213
MS.182         	11.957         	13.102
MS.183         	11.932         	13.366
MS.184         	11.91          	13.138
MS.185         	11.885         	12.897
MS.186         	11.863         	12.949
MS.187         	11.837         	12.907
MS.188         	11.815         	13.068
MS.189         	11.79          	12.943
MS.190         	11.767         	12.846
MS.191         	11.745         	12.838
MS.192         	11.72          	12.84
MS.193         	11.697         	12.707
MS.194         	11.675         	12.663
MS.195         	11.65          	12.784
MS.196         	11.627         	12.574
MS.197         	11.605         	12.727
MS.198         	11.58          	12.663
MS.199         	11.557         	12.345
MS.200         	11.535         	12.437
MS.201         	11.512         	12.504
MS.202         	11.488         	12.427
MS.203         	11.465         	12.373
MS.204         	11.443         	12.462
MS.205         	11.42          	12.417
MS.206         	11.398         	12.536
MS.207         	11.375         	12.419
MS.208         	11.352         	12.3
MS.209         	11.33          	12.192
MS.210         	11.307         	12.29
MS.211         	11.282         	12.236
MS.212         	11.26          	12.226
MS.213         	11.238         	12.151
MS.214         	11.215         	11.988
MS.215         	11.195         	12.035
MS.216         	11.172         	12.051
MS.217         	11.15          	11.922
MS.218         	11.127         	11.914
MS.219         	11.105         	11.769
MS.220         	11.082         	11.91
MS.221         	11.06          	11.918
MS.222         	11.037         	11.712
MS.223         	11.015         	11.767
MS.224         	10.995         	11.72
MS.225         	10.972         	11.694
MS.226         	10.95          	11.674
MS.227         	10.927         	11.575
MS.228         	10.907         	11.585
MS.229         	10.885         	11.414
MS.230         	10.863         	11.225
MS.231         	10.84          	11.396
MS.232         	10.82          	11.164
MS.233         	10.797         	11.289
MS.234         	10.778         	11.162
MS.235         	10.755         	11.223
MS.236         	10.733         	11.223
MS.237         	10.712         	11.245
MS.238         	10.69          	11.068
MS.239         	10.67          	11.16
MS.240         	10.648         	10.86
MS.241         	10.627         	10.856
MS.242         	10.605         	10.806
MS.243         	10.585         	10.975
MS.244         	10.562         	10.683
MS.245         	10.542         	10.703
MS.246         	10.52          	10.721
MS.247         	10.5           	10.677
MS.248         	10.48          	10.641
MS.249         	10.457         	10.645
MS.250         	10.438         	10.349
MS.251         	10.415         	10.417
MS.252         	10.395         	10.508
MS.253         	10.375         	10.403
MS.254         	10.355         	10.198
MS.255         	10.332         	10.321
MS.256         	10.312         	10.143
MS.257         	10.292         	9.926
MS.258         	10.273         	9.934
MS.259         	10.25          	9.99
MS.260         	10.23          	9.881
MS.261         	10.21          	9.875
MS.262         	10.19          	9.7
MS.263         	10.17          	9.728
MS.264         	10.15          	9.509
MS.265         	10.127         	9.745
MS.266         	10.108         	9.734
MS.267         	10.087         	9.193
MS.268         	10.068         	9.328
MS.269         	10.047         	9.412
MS.270         	10.028         	9.044
MS.271         	10.007         	9.237
MS.272         	9.988          	8.927
MS.273         	9.967          	8.862
MS.274         	9.948          	9.021
MS.275         	9.927          	8.643
MS.276         	9.907          	8.788
MS.277         	9.887          	8.84
MS.278         	9.867          	8.296
MS.279         	9.85           	8.276
MS.280         	9.83           	8.381
MS.281         	9.81           	8.024
MS.282         	9.79           	8.32
MS.283         	9.77           	8.105
MS.284         	9.75           	7.652
MS.285         	9.733          	8.022
MS.286         	9.712          	8.041
MS.287         	9.693          	7.871
MS.288         	9.672          	7.696
MS.289         	9.655          	7.344
MS.290         	9.635          	7.849
MS.291         	9.615          	7.714
MS.292         	9.595          	7.7
MS.293         	9.577          	7.042
MS.294         	9.557          	6.941
MS.295         	9.537          	6.101
MS.296         	9.52           	6.633
MS.297         	9.5            	6.621
MS.298         	9.483          	6.331
MS.299         	9.462          	6.592
MS.300         	9.445          	5.924
MS.301         	9.425          	6.343
MS.302         	9.405          	6.764
MS.303         	9.387          	6.242
MS.304         	9.367          	5.982
MS.305         	9.35           	5.65
MS.306         	9.33           	5.313
MS.307         	9.312          	5.956
MS.308         	9.295          	5.67
MS.309         	9.275          	5.738
MS.310         	9.257          	5.283
MS.311         	9.238          	4.864
MS.312         	9.22           	5.033
MS.313         	9.202          	4.737
MS.314         	9.182          	4.536
MS.315         	9.165          	3.716
MS.316         	9.148          	3.434
MS.317         	9.127          	4.375
MS.318         	9.11           	3.773
MS.319         	9.092          	3.758
MS.320         	9.073          	3.325
MS.321         	9.055          	3.764
MS.322         	9.037          	3.98
MS.323         	9.02           	4.018
MS.324         	9              	3.267
MS.325         	8.983          	3.146
MS.326         	8.965          	3.118
MS.327         	8.948          	2.951
MS.328         	8.93           	2.985
MS.329         	8.912          	2.949
MS.330         	8.895          	3.144
MS.331         	8.875          	2.751
MS.332         	8.858          	2.59
MS.333         	8.84           	2.961
MS.334         	8.823          	2.453
MS.335         	8.805          	2.856
MS.336         	8.787          	2.771
MS.337         	8.77           	2.854
MS.338         	8.752          	2.729
MS.339         	8.735          	2.457
MS.340         	8.717          	2.365
MS.341         	8.7            	2.34
MS.342         	8.682          	2.552
MS.343         	8.665          	2.218
MS.344         	8.648          	2.222
MS.345         	8.63           	2.29
MS.346         	8.613          	2.659
MS.347         	8.597          	1.805
MS.348         	8.58           	2.018
MS.349         	8.562          	2.179
MS.350         	8.545          	1.954
MS.351         	8.528          	1.905
MS.352         	8.51           	2.032
MS.353         	8.495          	1.869
MS.354         	8.477          	1.76
MS.355         	8.46           	1.813
MS.356         	8.443          	1.595
MS.357         	8.427          	1.686
MS.358         	8.41           	1.48
MS.359         	8.392          	1.303
MS.360         	8.375          	1.396
MS.361         	8.36           	1.577
MS.362         	8.342          	1.486
MS.363         	8.325          	1.486
MS.364         	8.31           	1.267
MS.365         	8.292          	1.217
MS.366         	8.275          	1.273
MS.367         	8.26           	1.184
MS.368         	8.242          	1.148
MS.369         	8.227          	1.019
MS.370         	8.21           	0.862
MS.371         	8.193          	1.208
MS.372         	8.177          	1.08
MS.373         	8.16           	0.991
MS.374         	8.145          	1.116
MS.375         	8.127          	0.872
MS.376         	8.113          	1.021
MS.377         	8.095          	0.85
MS.378         	8.08           	1.029
MS.379         	8.062          	0.703
MS.380         	8.047          	0.788
MS.381         	8.033          	0.578
MS.382         	8.015          	0.796
MS.383         	8              	0.504
MS.384         	7.982          	0.677
MS.385         	7.967          	0.884
MS.386         	7.952          	0.34
MS.387         	7.935          	0.61
MS.388         	7.92           	0.556
MS.389         	7.905          	0.375
MS.390         	7.887          	0.441
MS.391         	7.872          	0.443
MS.392         	7.857          	0.373
MS.393         	7.84           	0.495
MS.394         	7.825          	0.24
MS.395         	7.81           	0.216
MS.396         	7.795          	0.24
MS.397         	7.777          	0.459
MS.398         	7.762          	0.248
MS.399         	7.747          	0.193
MS.400         	7.732          	0.151
MS.401         	7.717          	0.393
MS.402         	7.7            	0.197
MS.403         	7.685          	0.23
MS.404         	7.67           	0.167
MS.405         	7.655          	0.173
MS.406         	7.64           	0.109
MS.407         	7.625          	0.26
MS.408         	7.61           	0.131
MS.409         	7.595          	0.141
MS.410         	7.58           	0.111
MS.411         	7.562          	0.149
MS.412         	7.547          	0.282
MS.413         	7.532          	0.117
MS.414         	7.517          	0.129
MS.415         	7.503          	0.167
MS.416         	7.487          	0.083
MS.417         	7.472          	0.111
MS.418         	7.457          	0.093
MS.419         	7.442          	0.127
MS.420         	7.427          	0.054
MS.421         	7.415          	0.066
MS.422         	7.4            	0.056
MS.423         	7.385          	0.064
MS.424         	7.37           	0.042
MS.425         	7.355          	0.095
MS.426         	7.34           	0.054
MS.427         	7.325          	0.048
MS.428         	7.31           	0.054
MS.429         	7.295          	0.046
MS.430         	7.282          	0.097
MS.431         	7.267          	0.093
MS.432         	7.253          	0.064
MS.433         	7.237          	0.052
MS.434         	7.222          	0.077
MS.435         	7.21           	0.097
MS.436         	7.195          	0.064
MS.437         	7.18           	0.093
MS.438         	7.165          	0.103
MS.439         	7.152          	0.089
MS.440         	7.137          	0.093
MS.441         	7.122          	0.081
MS.442         	7.11           	0.083
MS.443         	7.095          	0.087
MS.444         	7.08           	0.099
MS.445         	7.067          	0.095
MS.446         	7.052          	0.079
MS.447         	7.037          	0.097
MS.448         	7.025          	0.075
MS.449         	7.01           	0.081
MS.450         	6.995          	0.087
MS.451         	6.983          	0.087
MS.452         	6.967          	0.087
MS.453         	6.955          	0.083
MS.454         	6.94           	0.064
MS.455         	6.927          	0.091
MS.456         	6.912          	0.054
MS.457         	6.9            	0.066
MS.458         	6.885          	0.068
MS.459         	6.872          	0.073
MS.460         	6.858          	0.05
MS.461         	6.845          	0.077
MS.462         	6.83           	0.075
MS.463         	6.817          	0.079
MS.464         	6.802          	0.044
MS.465         	6.79           	0.077
MS.466         	6.775          	0.042
MS.467         	6.762          	0.046
MS.468         	6.747          	0.073
MS.469         	6.735          	0.064
MS.470         	6.722          	0.066
MS.471         	6.707          	0.079
MS.472         	6.695          	0.056
MS.473         	6.682          	0.077
MS.474         	6.668          	0.05
MS.475         	6.655          	0.044
MS.476         	6.642          	0.034
MS.477         	6.628          	0.044
MS.478         	6.615          	0.026
MS.479         	6.602          	0.034
MS.480         	6.587          	0.054
MS.481         	6.575          	0.022
MS.482         	6.562          	0.036
MS.483         	6.55           	0.03
MS.484         	6.535          	0.026
MS.485         	6.523          	0.02
MS.486         	6.51           	0.03
MS.487         	6.497          	0.034
MS.488         	6.485          	0.032
MS.489         	6.47           	0.028
MS.490         	6.457          	0.012
MS.491         	6.445          	0.028
MS.492         	6.432          	0.018
MS.493         	6.42           	0.028
MS.494         	6.407          	0.022
