File:              	C:\Qtrac\Data\Daniel M Sørensen\MScan multicentre study\Data from centres\Oslo\IronKey\Oslo_NC_first examination\SZC00619C.QZD
Name:              	NO.OSL.NC.21.1
Protocol:          	MSCAN-R2
Date:              	19/6/20
Start time:        	12:03:41
Age:               	37
Sex:               	M
Temperature:       	32.4
S/R sites:         	Peroneal -TA
NC/disease:        	NC21
Operator:          	SZ
Comments:          	Test1
M-SCAN DATA (8.2-2.1m)
Scanpts: 35, 41, 632, 654
Stim. (mA)     	Amp. (mV)
MS.1           	19.5           	10.192
MS.2           	19.5           	10.218
MS.3           	19.5           	10.218
MS.4           	19.5           	10.178
MS.5           	19.5           	10.133
MS.6           	19.5           	10.18
MS.7           	19.5           	10.196
MS.8           	19.5           	10.153
MS.9           	19.5           	10.165
MS.10          	19.5           	10.163
MS.11          	19.5           	10.103
MS.12          	19.5           	10.167
MS.13          	19.5           	10.163
MS.14          	19.5           	10.174
MS.15          	19.5           	10.153
MS.16          	19.5           	10.143
MS.17          	19.5           	10.141
MS.18          	19.5           	10.139
MS.19          	19.5           	10.174
MS.20          	19.5           	10.169
MS.21          	19.5           	10.182
MS.22          	19.5           	10.143
MS.23          	19.5           	10.196
MS.24          	19.422         	10.075
MS.25          	19.382         	10.174
MS.26          	19.345         	10.18
MS.27          	19.305         	10.143
MS.28          	19.267         	10.123
MS.29          	19.23          	10.172
MS.30          	19.19          	10.198
MS.31          	19.153         	10.157
MS.32          	19.115         	10.192
MS.33          	19.075         	10.157
MS.34          	19.038         	10.2
MS.35          	19             	10.153
MS.36          	18.962         	10.157
MS.37          	18.922         	10.2
MS.38          	18.885         	10.192
MS.39          	18.847         	10.167
MS.40          	18.81          	10.161
MS.41          	18.772         	10.165
MS.42          	18.735         	10.18
MS.43          	18.698         	10.212
MS.44          	18.66          	10.178
MS.45          	18.622         	10.169
MS.46          	18.585         	10.151
MS.47          	18.55          	10.157
MS.48          	18.512         	10.153
MS.49          	18.475         	10.174
MS.50          	18.438         	10.2
MS.51          	18.4           	10.165
MS.52          	18.365         	10.141
MS.53          	18.327         	10.135
MS.54          	18.29          	10.133
MS.55          	18.255         	10.165
MS.56          	18.217         	10.165
MS.57          	18.182         	10.143
MS.58          	18.145         	10.167
MS.59          	18.11          	10.159
MS.60          	18.073         	10.145
MS.61          	18.038         	10.18
MS.62          	18             	10.167
MS.63          	17.965         	10.105
MS.64          	17.93          	10.133
MS.65          	17.892         	10.151
MS.66          	17.858         	10.151
MS.67          	17.823         	10.071
MS.68          	17.785         	10.115
MS.69          	17.75          	10.083
MS.70          	17.715         	10.123
MS.71          	17.68          	10.117
MS.72          	17.645         	10.087
MS.73          	17.61          	10.087
MS.74          	17.575         	10.119
MS.75          	17.538         	10.077
MS.76          	17.503         	10.063
MS.77          	17.467         	10.097
MS.78          	17.435         	10.069
MS.79          	17.4           	10.095
MS.80          	17.365         	10.081
MS.81          	17.33          	10.079
MS.82          	17.295         	10.085
MS.83          	17.26          	10.073
MS.84          	17.225         	9.98
MS.85          	17.192         	9.761
MS.86          	17.157         	10.037
MS.87          	17.122         	10.073
MS.88          	17.087         	10.071
MS.89          	17.055         	10.022
MS.90          	17.02          	9.728
MS.91          	16.987         	9.99
MS.92          	16.952         	9.65
MS.93          	16.917         	9.7
MS.94          	16.885         	10.026
MS.95          	16.85          	9.751
MS.96          	16.817         	9.704
MS.97          	16.782         	9.65
MS.98          	16.75          	9.503
MS.99          	16.717         	9.65
MS.100         	16.682         	9.475
MS.101         	16.65          	9.442
MS.102         	16.618         	9.444
MS.103         	16.583         	9.404
MS.104         	16.55          	9.541
MS.105         	16.517         	9.599
MS.106         	16.485         	9.434
MS.107         	16.452         	9.253
MS.108         	16.417         	9.313
MS.109         	16.385         	9.281
MS.110         	16.352         	9.573
MS.111         	16.32          	9.338
MS.112         	16.288         	9.215
MS.113         	16.255         	9.303
MS.114         	16.222         	9.279
MS.115         	16.19          	9.213
MS.116         	16.157         	9.223
MS.117         	16.125         	9.134
MS.118         	16.092         	9.223
MS.119         	16.062         	9.183
MS.120         	16.03          	8.909
MS.121         	15.997         	9.13
MS.122         	15.965         	9.183
MS.123         	15.932         	9.096
MS.124         	15.902         	9.094
MS.125         	15.87          	9.068
MS.126         	15.837         	9.088
MS.127         	15.807         	9.126
MS.128         	15.775         	8.77
MS.129         	15.742         	8.81
MS.130         	15.712         	8.786
MS.131         	15.68          	8.8
MS.132         	15.65          	8.758
MS.133         	15.617         	8.814
MS.134         	15.587         	8.784
MS.135         	15.555         	8.78
MS.136         	15.525         	9.062
MS.137         	15.492         	8.731
MS.138         	15.462         	8.731
MS.139         	15.432         	8.768
MS.140         	15.4           	8.756
MS.141         	15.37          	8.745
MS.142         	15.34          	8.657
MS.143         	15.307         	8.715
MS.144         	15.277         	8.713
MS.145         	15.247         	8.522
MS.146         	15.217         	8.607
MS.147         	15.188         	8.564
MS.148         	15.155         	8.594
MS.149         	15.125         	8.695
MS.150         	15.095         	8.516
MS.151         	15.065         	8.349
MS.152         	15.035         	8.445
MS.153         	15.005         	8.808
MS.154         	14.975         	8.522
MS.155         	14.945         	8.248
MS.156         	14.915         	8.32
MS.157         	14.885         	8.53
MS.158         	14.855         	8.47
MS.159         	14.827         	8.2
MS.160         	14.797         	8.224
MS.161         	14.767         	8.135
MS.162         	14.737         	8.361
MS.163         	14.707         	8.234
MS.164         	14.68          	8.202
MS.165         	14.65          	8.167
MS.166         	14.62          	8.059
MS.167         	14.59          	8.097
MS.168         	14.562         	7.906
MS.169         	14.532         	7.859
MS.170         	14.505         	7.885
MS.171         	14.475         	7.863
MS.172         	14.445         	8.014
MS.173         	14.417         	7.807
MS.174         	14.387         	7.807
MS.175         	14.36          	7.928
MS.176         	14.33          	7.861
MS.177         	14.302         	7.718
MS.178         	14.273         	7.454
MS.179         	14.245         	7.736
MS.180         	14.217         	7.551
MS.181         	14.188         	7.765
MS.182         	14.16          	7.724
MS.183         	14.132         	7.612
MS.184         	14.102         	7.497
MS.185         	14.075         	7.402
MS.186         	14.047         	7.456
MS.187         	14.02          	7.489
MS.188         	13.99          	7.319
MS.189         	13.962         	7.587
MS.190         	13.935         	7.273
MS.191         	13.907         	7.249
MS.192         	13.88          	7.174
MS.193         	13.852         	7.154
MS.194         	13.825         	7.255
MS.195         	13.797         	7.128
MS.196         	13.77          	7.104
MS.197         	13.742         	7.142
MS.198         	13.715         	7.237
MS.199         	13.688         	6.901
MS.200         	13.66          	6.909
MS.201         	13.632         	6.729
MS.202         	13.605         	6.997
MS.203         	13.577         	6.917
MS.204         	13.55          	6.51
MS.205         	13.523         	6.677
MS.206         	13.495         	6.741
MS.207         	13.47          	6.798
MS.208         	13.443         	6.633
MS.209         	13.415         	6.653
MS.210         	13.387         	6.633
MS.211         	13.362         	6.617
MS.212         	13.335         	6.411
MS.213         	13.307         	6.355
MS.214         	13.282         	6.471
MS.215         	13.255         	6.647
MS.216         	13.23          	6.52
MS.217         	13.202         	6.22
MS.218         	13.175         	6.51
MS.219         	13.15          	6.163
MS.220         	13.122         	6.312
MS.221         	13.097         	6.113
MS.222         	13.07          	6.119
MS.223         	13.045         	5.76
MS.224         	13.02          	5.799
MS.225         	12.992         	5.926
MS.226         	12.967         	5.875
MS.227         	12.94          	5.76
MS.228         	12.915         	5.706
MS.229         	12.89          	5.885
MS.230         	12.862         	5.763
MS.231         	12.837         	5.609
MS.232         	12.812         	5.603
MS.233         	12.787         	5.573
MS.234         	12.76          	5.573
MS.235         	12.735         	5.485
MS.236         	12.71          	5.553
MS.237         	12.685         	5.551
MS.238         	12.66          	5.519
MS.239         	12.635         	5.456
MS.240         	12.61          	5.35
MS.241         	12.585         	5.374
MS.242         	12.557         	5.45
MS.243         	12.532         	5.293
MS.244         	12.507         	5.303
MS.245         	12.483         	5.301
MS.246         	12.457         	5.158
MS.247         	12.432         	5.257
MS.248         	12.41          	5.15
MS.249         	12.385         	5.201
MS.250         	12.36          	5.178
MS.251         	12.335         	5.106
MS.252         	12.31          	5.072
MS.253         	12.285         	4.979
MS.254         	12.26          	5.023
MS.255         	12.238         	5.076
MS.256         	12.212         	4.866
MS.257         	12.188         	4.88
MS.258         	12.162         	4.737
MS.259         	12.14          	4.753
MS.260         	12.115         	4.919
MS.261         	12.09          	4.671
MS.262         	12.065         	4.788
MS.263         	12.042         	4.614
MS.264         	12.017         	4.51
MS.265         	11.995         	4.725
MS.266         	11.97          	4.538
MS.267         	11.945         	4.572
MS.268         	11.922         	4.586
MS.269         	11.898         	4.502
MS.270         	11.875         	4.423
MS.271         	11.85          	4.556
MS.272         	11.827         	4.566
MS.273         	11.802         	4.514
MS.274         	11.78          	4.441
MS.275         	11.757         	4.193
MS.276         	11.733         	4.326
MS.277         	11.71          	4.03
MS.278         	11.685         	4.022
MS.279         	11.662         	4.23
MS.280         	11.64          	4.067
MS.281         	11.617         	4.101
MS.282         	11.592         	3.958
MS.283         	11.57          	3.974
MS.284         	11.547         	3.877
MS.285         	11.525         	3.97
MS.286         	11.5           	3.948
MS.287         	11.477         	3.803
MS.288         	11.455         	3.775
MS.289         	11.432         	3.758
MS.290         	11.41          	3.726
MS.291         	11.387         	3.674
MS.292         	11.363         	3.783
MS.293         	11.34          	3.613
MS.294         	11.318         	3.71
MS.295         	11.295         	3.662
MS.296         	11.273         	3.511
MS.297         	11.25          	3.621
MS.298         	11.227         	3.458
MS.299         	11.205         	3.507
MS.300         	11.182         	3.396
MS.301         	11.16          	3.458
MS.302         	11.137         	3.533
MS.303         	11.117         	3.408
MS.304         	11.095         	3.384
MS.305         	11.073         	3.319
MS.306         	11.05          	3.309
MS.307         	11.028         	3.267
MS.308         	11.005         	3.229
MS.309         	10.983         	3.315
MS.310         	10.962         	3.253
MS.311         	10.94          	3.211
MS.312         	10.917         	3.233
MS.313         	10.895         	3.132
MS.314         	10.875         	3.114
MS.315         	10.852         	3.128
MS.316         	10.83          	3.13
MS.317         	10.81          	3.162
MS.318         	10.787         	3.039
MS.319         	10.765         	2.955
MS.320         	10.745         	3.047
MS.321         	10.722         	2.957
MS.322         	10.702         	2.919
MS.323         	10.68          	2.967
MS.324         	10.66          	2.917
MS.325         	10.637         	2.88
MS.326         	10.617         	2.886
MS.327         	10.595         	2.808
MS.328         	10.575         	2.89
MS.329         	10.552         	2.852
MS.330         	10.532         	2.874
MS.331         	10.51          	2.721
MS.332         	10.49          	2.735
MS.333         	10.47          	2.745
MS.334         	10.448         	2.614
MS.335         	10.427         	2.671
MS.336         	10.407         	2.614
MS.337         	10.385         	2.673
MS.338         	10.365         	2.675
MS.339         	10.345         	2.641
MS.340         	10.323         	2.56
MS.341         	10.302         	2.483
MS.342         	10.282         	2.447
MS.343         	10.262         	2.361
MS.344         	10.24          	2.5
MS.345         	10.22          	2.397
MS.346         	10.2           	2.395
MS.347         	10.18          	2.359
MS.348         	10.16          	2.365
MS.349         	10.14          	2.234
MS.350         	10.12          	2.272
MS.351         	10.097         	2.222
MS.352         	10.077         	2.238
MS.353         	10.057         	2.145
MS.354         	10.037         	2.208
MS.355         	10.017         	2.119
MS.356         	9.997          	2.254
MS.357         	9.977          	2.058
MS.358         	9.957          	2.139
MS.359         	9.938          	2.026
MS.360         	9.917          	2.105
MS.361         	9.9            	1.992
MS.362         	9.88           	1.922
MS.363         	9.86           	1.974
MS.364         	9.84           	2.032
MS.365         	9.82           	1.879
MS.366         	9.8            	1.813
MS.367         	9.78           	1.821
MS.368         	9.76           	1.911
MS.369         	9.742          	1.668
MS.370         	9.722          	1.728
MS.371         	9.702          	1.744
MS.372         	9.682          	1.591
MS.373         	9.665          	1.656
MS.374         	9.645          	1.567
MS.375         	9.625          	1.674
MS.376         	9.605          	1.515
MS.377         	9.587          	1.497
MS.378         	9.568          	1.507
MS.379         	9.55           	1.585
MS.380         	9.53           	1.495
MS.381         	9.51           	1.404
MS.382         	9.492          	1.317
MS.383         	9.472          	1.329
MS.384         	9.452          	1.325
MS.385         	9.435          	1.364
MS.386         	9.415          	1.307
MS.387         	9.398          	1.341
MS.388         	9.377          	1.309
MS.389         	9.36           	1.221
MS.390         	9.34           	1.211
MS.391         	9.323          	1.15
MS.392         	9.302          	1.128
MS.393         	9.285          	1.239
MS.394         	9.267          	1.188
MS.395         	9.247          	1.198
MS.396         	9.23           	1.114
MS.397         	9.21           	1.152
MS.398         	9.193          	1.09
MS.399         	9.175          	1.059
MS.400         	9.155          	1.043
MS.401         	9.137          	1.057
MS.402         	9.12           	1.033
MS.403         	9.1            	1.128
MS.404         	9.082          	1.057
MS.405         	9.065          	1.055
MS.406         	9.047          	0.989
MS.407         	9.028          	0.977
MS.408         	9.01           	0.963
MS.409         	8.992          	0.975
MS.410         	8.975          	1.001
MS.411         	8.957          	0.967
MS.412         	8.94           	0.959
MS.413         	8.92           	0.878
MS.414         	8.903          	0.876
MS.415         	8.885          	0.916
MS.416         	8.867          	0.86
MS.417         	8.85           	0.83
MS.418         	8.832          	0.81
MS.419         	8.815          	0.842
MS.420         	8.797          	0.842
MS.421         	8.78           	0.814
MS.422         	8.762          	0.838
MS.423         	8.745          	0.818
MS.424         	8.727          	0.798
MS.425         	8.71           	0.826
MS.426         	8.693          	0.79
MS.427         	8.675          	0.8
MS.428         	8.658          	0.802
MS.429         	8.64           	0.749
MS.430         	8.622          	0.773
MS.431         	8.605          	0.781
MS.432         	8.587          	0.757
MS.433         	8.57           	0.745
MS.434         	8.555          	0.755
MS.435         	8.537          	0.769
MS.436         	8.52           	0.727
MS.437         	8.502          	0.757
MS.438         	8.485          	0.721
MS.439         	8.47           	0.707
MS.440         	8.452          	0.725
MS.441         	8.435          	0.679
MS.442         	8.417          	0.705
MS.443         	8.403          	0.705
MS.444         	8.385          	0.614
MS.445         	8.367          	0.636
MS.446         	8.35           	0.626
MS.447         	8.335          	0.624
MS.448         	8.318          	0.612
MS.449         	8.302          	0.614
MS.450         	8.285          	0.598
MS.451         	8.267          	0.596
MS.452         	8.252          	0.542
MS.453         	8.235          	0.562
MS.454         	8.217          	0.576
MS.455         	8.202          	0.568
MS.456         	8.185          	0.51
MS.457         	8.17           	0.544
MS.458         	8.153          	0.564
MS.459         	8.137          	0.495
MS.460         	8.12           	0.528
MS.461         	8.105          	0.514
MS.462         	8.087          	0.455
MS.463         	8.073          	0.544
MS.464         	8.055          	0.487
MS.465         	8.04           	0.495
MS.466         	8.025          	0.475
MS.467         	8.007          	0.413
MS.468         	7.992          	0.473
MS.469         	7.975          	0.431
MS.470         	7.96           	0.463
MS.471         	7.945          	0.481
MS.472         	7.927          	0.417
MS.473         	7.912          	0.379
MS.474         	7.898          	0.395
MS.475         	7.88           	0.399
MS.476         	7.865          	0.395
MS.477         	7.85           	0.367
MS.478         	7.832          	0.395
MS.479         	7.817          	0.395
MS.480         	7.802          	0.375
MS.481         	7.787          	0.399
MS.482         	7.77           	0.344
MS.483         	7.755          	0.379
MS.484         	7.74           	0.359
MS.485         	7.725          	0.344
MS.486         	7.71           	0.359
MS.487         	7.695          	0.435
MS.488         	7.677          	0.342
MS.489         	7.662          	0.34
MS.490         	7.648          	0.33
MS.491         	7.632          	0.314
MS.492         	7.617          	0.328
MS.493         	7.602          	0.31
MS.494         	7.587          	0.29
MS.495         	7.572          	0.352
MS.496         	7.557          	0.306
MS.497         	7.543          	0.286
MS.498         	7.527          	0.294
