File:              	C:\Qtrac\Data\Daniel M Sørensen\MScan multicentre study\Data from centres\Oslo\IronKey\Oslo_NC_first examination\SZC00604C.QZD
Name:              	NO.OSL.NC.16.1
Protocol:          	MSCAN-R2
Date:              	4/6/20
Start time:        	16:06:45
Age:               	64
Sex:               	M
Temperature:       	33.8
S/R sites:         	Peronea TA
NC/disease:        	NC16
Operator:          	SZ
Comments:          	Test1
M-SCAN DATA (11.4-2.4m)
Scanpts: 27, 35, 923, 944
Stim. (mA)     	Amp. (mV)
MS.1           	34             	10.558
MS.2           	34             	10.55
MS.3           	34             	10.601
MS.4           	34             	10.536
MS.5           	34             	10.584
MS.6           	34             	10.53
MS.7           	34             	10.518
MS.8           	34             	10.566
MS.9           	34             	10.554
MS.10          	34             	10.532
MS.11          	34             	10.482
MS.12          	34             	10.532
MS.13          	34             	10.518
MS.14          	34             	10.506
MS.15          	34             	10.572
MS.16          	34             	10.518
MS.17          	34             	10.562
MS.18          	34             	10.524
MS.19          	34             	10.588
MS.20          	34             	10.548
MS.21          	34             	10.5
MS.22          	34             	10.468
MS.23          	34             	10.548
MS.24          	33.865         	10.431
MS.25          	33.798         	10.466
MS.26          	33.73          	10.522
MS.27          	33.662         	10.526
MS.28          	33.595         	10.534
MS.29          	33.528         	10.532
MS.30          	33.46          	10.52
MS.31          	33.392         	10.516
MS.32          	33.327         	10.522
MS.33          	33.26          	10.53
MS.34          	33.193         	10.502
MS.35          	33.127         	10.544
MS.36          	33.06          	10.512
MS.37          	32.995         	10.524
MS.38          	32.93          	10.538
MS.39          	32.862         	10.494
MS.40          	32.798         	10.504
MS.41          	32.732         	10.502
MS.42          	32.667         	10.421
MS.43          	32.603         	10.435
MS.44          	32.537         	10.419
MS.45          	32.472         	10.453
MS.46          	32.407         	10.449
MS.47          	32.342         	10.476
MS.48          	32.278         	10.451
MS.49          	32.212         	10.466
MS.50          	32.147         	10.427
MS.51          	32.085         	10.433
MS.52          	32.02          	10.425
MS.53          	31.955         	10.349
MS.54          	31.892         	10.417
MS.55          	31.827         	10.401
MS.56          	31.765         	10.306
MS.57          	31.702         	10.377
MS.58          	31.637         	10.377
MS.59          	31.575         	10.363
MS.60          	31.512         	10.365
MS.61          	31.448         	10.353
MS.62          	31.385         	10.339
MS.63          	31.323         	10.335
MS.64          	31.26          	10.31
MS.65          	31.198         	10.308
MS.66          	31.135         	10.302
MS.67          	31.073         	10.256
MS.68          	31.012         	10.292
MS.69          	30.95          	10.218
MS.70          	30.887         	10.216
MS.71          	30.825         	10.284
MS.72          	30.765         	10.252
MS.73          	30.702         	10.264
MS.74          	30.642         	10.222
MS.75          	30.58          	10.232
MS.76          	30.52          	10.214
MS.77          	30.457         	10.246
MS.78          	30.397         	10.184
MS.79          	30.337         	10.178
MS.80          	30.275         	10.232
MS.81          	30.215         	10.172
MS.82          	30.155         	10.244
MS.83          	30.095         	10.214
MS.84          	30.035         	10.192
MS.85          	29.975         	10.198
MS.86          	29.915         	10.119
MS.87          	29.855         	10.125
MS.88          	29.795         	10.147
MS.89          	29.735         	10.157
MS.90          	29.677         	10.125
MS.91          	29.617         	10.182
MS.92          	29.557         	10.129
MS.93          	29.5           	10.121
MS.94          	29.44          	10.157
MS.95          	29.382         	10.216
MS.96          	29.323         	10.101
MS.97          	29.265         	10.115
MS.98          	29.205         	10.121
MS.99          	29.147         	10.123
MS.100         	29.09          	10.113
MS.101         	29.03          	10.079
MS.102         	28.972         	10.143
MS.103         	28.915         	10.107
MS.104         	28.858         	10.105
MS.105         	28.8           	10.099
MS.106         	28.743         	10.117
MS.107         	28.685         	10.093
MS.108         	28.627         	10.093
MS.109         	28.57          	10.113
MS.110         	28.512         	10.111
MS.111         	28.455         	10.085
MS.112         	28.4           	10.091
MS.113         	28.342         	10.087
MS.114         	28.285         	10.045
MS.115         	28.23          	10.081
MS.116         	28.172         	10.085
MS.117         	28.118         	10.113
MS.118         	28.06          	10.061
MS.119         	28.005         	10.079
MS.120         	27.948         	10.061
MS.121         	27.892         	10.039
MS.122         	27.837         	10.105
MS.123         	27.78          	10.093
MS.124         	27.725         	10.081
MS.125         	27.67          	10.085
MS.126         	27.615         	10.031
MS.127         	27.56          	10.053
MS.128         	27.505         	10.099
MS.129         	27.45          	10.051
MS.130         	27.395         	10.087
MS.131         	27.34          	10.079
MS.132         	27.285         	10.01
MS.133         	27.23          	10.061
MS.134         	27.177         	10.01
MS.135         	27.122         	10.016
MS.136         	27.067         	10.069
MS.137         	27.015         	10.053
MS.138         	26.96          	10.063
MS.139         	26.905         	10.02
MS.140         	26.852         	10.063
MS.141         	26.8           	10.035
MS.142         	26.745         	10.037
MS.143         	26.692         	9.968
MS.144         	26.637         	10.041
MS.145         	26.585         	10.037
MS.146         	26.532         	10.039
MS.147         	26.48          	10.051
MS.148         	26.425         	10.081
MS.149         	26.372         	10.029
MS.150         	26.32          	10.016
MS.151         	26.267         	10.041
MS.152         	26.215         	10.024
MS.153         	26.162         	10.043
MS.154         	26.11          	10.022
MS.155         	26.06          	10.031
MS.156         	26.007         	10.01
MS.157         	25.955         	10.004
MS.158         	25.903         	10.037
MS.159         	25.85          	10.004
MS.160         	25.8           	10.02
MS.161         	25.747         	10.022
MS.162         	25.698         	10.041
MS.163         	25.645         	9.976
MS.164         	25.595         	9.984
MS.165         	25.542         	10.01
MS.166         	25.493         	9.996
MS.167         	25.44          	9.98
MS.168         	25.39          	9.982
MS.169         	25.34          	9.974
MS.170         	25.288         	10.002
MS.171         	25.237         	10.004
MS.172         	25.188         	9.978
MS.173         	25.137         	9.95
MS.174         	25.087         	9.982
MS.175         	25.038         	10.01
MS.176         	24.987         	9.97
MS.177         	24.938         	9.954
MS.178         	24.887         	9.958
MS.179         	24.837         	9.96
MS.180         	24.788         	9.986
MS.181         	24.737         	9.958
MS.182         	24.69          	9.998
MS.183         	24.64          	9.966
MS.184         	24.59          	9.982
MS.185         	24.542         	9.972
MS.186         	24.493         	9.966
MS.187         	24.442         	9.968
MS.188         	24.395         	9.982
MS.189         	24.345         	9.958
MS.190         	24.297         	9.948
MS.191         	24.247         	9.978
MS.192         	24.2           	9.958
MS.193         	24.153         	9.964
MS.194         	24.102         	9.98
MS.195         	24.055         	9.952
MS.196         	24.007         	9.976
MS.197         	23.96          	9.958
MS.198         	23.913         	9.962
MS.199         	23.862         	9.978
MS.200         	23.815         	9.976
MS.201         	23.767         	9.936
MS.202         	23.72          	10.006
MS.203         	23.672         	9.954
MS.204         	23.625         	9.98
MS.205         	23.58          	9.948
MS.206         	23.532         	9.99
MS.207         	23.485         	9.978
MS.208         	23.438         	9.964
MS.209         	23.39          	9.978
MS.210         	23.345         	9.99
MS.211         	23.297         	9.98
MS.212         	23.25          	9.974
MS.213         	23.205         	9.968
MS.214         	23.157         	9.958
MS.215         	23.112         	9.972
MS.216         	23.065         	9.968
MS.217         	23.02          	9.994
MS.218         	22.975         	10.002
MS.219         	22.927         	9.976
MS.220         	22.882         	9.958
MS.221         	22.837         	9.976
MS.222         	22.79          	9.96
MS.223         	22.745         	9.958
MS.224         	22.7           	9.974
MS.225         	22.655         	9.966
MS.226         	22.61          	9.948
MS.227         	22.565         	9.98
MS.228         	22.52          	9.968
MS.229         	22.475         	9.956
MS.230         	22.43          	9.974
MS.231         	22.385         	9.942
MS.232         	22.34          	9.96
MS.233         	22.295         	9.962
MS.234         	22.25          	9.958
MS.235         	22.205         	9.914
MS.236         	22.163         	9.958
MS.237         	22.118         	9.954
MS.238         	22.073         	9.898
MS.239         	22.03          	9.952
MS.240         	21.985         	9.906
MS.241         	21.94          	9.956
MS.242         	21.897         	9.94
MS.243         	21.852         	9.972
MS.244         	21.81          	9.881
MS.245         	21.765         	9.877
MS.246         	21.722         	9.958
MS.247         	21.68          	9.906
MS.248         	21.635         	9.908
MS.249         	21.592         	9.892
MS.250         	21.55          	9.91
MS.251         	21.507         	9.879
MS.252         	21.462         	9.974
MS.253         	21.42          	9.928
MS.254         	21.377         	9.89
MS.255         	21.335         	9.879
MS.256         	21.292         	9.851
MS.257         	21.25          	9.867
MS.258         	21.208         	9.867
MS.259         	21.165         	9.851
MS.260         	21.122         	9.867
MS.261         	21.08          	9.924
MS.262         	21.038         	9.827
MS.263         	20.997         	9.875
MS.264         	20.955         	9.777
MS.265         	20.913         	9.879
MS.266         	20.87          	9.849
MS.267         	20.83          	9.819
MS.268         	20.788         	9.831
MS.269         	20.745         	9.835
MS.270         	20.705         	9.793
MS.271         	20.663         	9.765
MS.272         	20.622         	9.873
MS.273         	20.58          	9.71
MS.274         	20.54          	9.712
MS.275         	20.497         	9.773
MS.276         	20.458         	9.783
MS.277         	20.417         	9.753
MS.278         	20.375         	9.716
MS.279         	20.335         	9.664
MS.280         	20.295         	9.65
MS.281         	20.255         	9.662
MS.282         	20.212         	9.646
MS.283         	20.172         	9.72
MS.284         	20.132         	9.563
MS.285         	20.092         	9.708
MS.286         	20.052         	9.662
MS.287         	20.012         	9.694
MS.288         	19.972         	9.624
MS.289         	19.932         	9.634
MS.290         	19.892         	9.642
MS.291         	19.852         	9.589
MS.292         	19.812         	9.511
MS.293         	19.775         	9.567
MS.294         	19.735         	9.561
MS.295         	19.695         	9.547
MS.296         	19.655         	9.456
MS.297         	19.615         	9.591
MS.298         	19.577         	9.493
MS.299         	19.538         	9.458
MS.300         	19.5           	9.448
MS.301         	19.46          	9.477
MS.302         	19.42          	9.483
MS.303         	19.382         	9.479
MS.304         	19.342         	9.497
MS.305         	19.305         	9.483
MS.306         	19.267         	9.446
MS.307         	19.227         	9.483
MS.308         	19.19          	9.499
MS.309         	19.15          	9.452
MS.310         	19.112         	9.471
MS.311         	19.075         	9.495
MS.312         	19.038         	9.501
MS.313         	18.997         	9.493
MS.314         	18.96          	9.495
MS.315         	18.922         	9.458
MS.316         	18.885         	9.495
MS.317         	18.847         	9.465
MS.318         	18.81          	9.511
MS.319         	18.772         	9.481
MS.320         	18.735         	9.509
MS.321         	18.698         	9.497
MS.322         	18.66          	9.487
MS.323         	18.622         	9.503
MS.324         	18.585         	9.493
MS.325         	18.547         	9.424
MS.326         	18.51          	9.485
MS.327         	18.475         	9.485
MS.328         	18.438         	9.485
MS.329         	18.4           	9.454
MS.330         	18.362         	9.463
MS.331         	18.327         	9.461
MS.332         	18.29          	9.473
MS.333         	18.253         	9.416
MS.334         	18.217         	9.352
MS.335         	18.18          	9.378
MS.336         	18.145         	9.436
MS.337         	18.108         	9.402
MS.338         	18.073         	9.428
MS.339         	18.035         	9.388
MS.340         	18             	9.404
MS.341         	17.965         	9.37
MS.342         	17.927         	9.362
MS.343         	17.892         	9.354
MS.344         	17.858         	9.35
MS.345         	17.82          	9.352
MS.346         	17.785         	9.364
MS.347         	17.75          	9.336
MS.348         	17.715         	9.384
MS.349         	17.677         	9.342
MS.350         	17.642         	9.39
MS.351         	17.608         	9.398
MS.352         	17.573         	9.295
MS.353         	17.538         	9.38
MS.354         	17.503         	9.382
MS.355         	17.467         	9.289
MS.356         	17.432         	9.305
MS.357         	17.397         	9.311
MS.358         	17.362         	9.277
MS.359         	17.327         	9.229
MS.360         	17.295         	9.281
MS.361         	17.26          	9.235
MS.362         	17.225         	9.295
MS.363         	17.19          	9.235
MS.364         	17.155         	9.279
MS.365         	17.122         	9.241
MS.366         	17.087         	9.269
MS.367         	17.052         	9.291
MS.368         	17.02          	9.257
MS.369         	16.985         	9.249
MS.370         	16.952         	9.195
MS.371         	16.917         	9.191
MS.372         	16.885         	9.187
MS.373         	16.85          	9.195
MS.374         	16.817         	9.174
MS.375         	16.782         	9.112
MS.376         	16.75          	9.122
MS.377         	16.715         	9.15
MS.378         	16.682         	9.191
MS.379         	16.65          	9.172
MS.380         	16.615         	9.104
MS.381         	16.583         	9.199
MS.382         	16.55          	9.102
MS.383         	16.517         	9.132
MS.384         	16.483         	9.088
MS.385         	16.45          	9.064
MS.386         	16.417         	9.074
MS.387         	16.385         	9.064
MS.388         	16.352         	9.05
MS.389         	16.32          	9.042
MS.390         	16.288         	9.122
MS.391         	16.255         	9.031
MS.392         	16.222         	9.11
MS.393         	16.19          	9.074
MS.394         	16.157         	8.895
MS.395         	16.125         	9.015
MS.396         	16.092         	9.009
MS.397         	16.06          	9.034
MS.398         	16.028         	9.036
MS.399         	15.997         	8.961
MS.400         	15.965         	8.886
MS.401         	15.932         	9.04
MS.402         	15.9           	8.951
MS.403         	15.87          	8.965
MS.404         	15.837         	8.901
MS.405         	15.805         	8.852
MS.406         	15.775         	8.941
MS.407         	15.742         	8.764
MS.408         	15.71          	8.79
MS.409         	15.68          	8.876
MS.410         	15.648         	8.86
MS.411         	15.617         	8.854
MS.412         	15.585         	8.677
MS.413         	15.555         	8.715
MS.414         	15.523         	8.75
MS.415         	15.492         	8.707
MS.416         	15.462         	8.619
MS.417         	15.43          	8.703
MS.418         	15.4           	8.689
MS.419         	15.37          	8.655
MS.420         	15.337         	8.689
MS.421         	15.307         	8.546
MS.422         	15.277         	8.56
MS.423         	15.247         	8.546
MS.424         	15.215         	8.536
MS.425         	15.185         	8.594
MS.426         	15.155         	8.395
MS.427         	15.125         	8.369
MS.428         	15.095         	8.556
MS.429         	15.065         	8.457
MS.430         	15.035         	8.496
MS.431         	15.005         	8.327
MS.432         	14.975         	8.28
MS.433         	14.945         	8.109
MS.434         	14.915         	8.194
MS.435         	14.885         	8.296
MS.436         	14.855         	8.302
MS.437         	14.825         	8.28
MS.438         	14.795         	8.32
MS.439         	14.767         	8.141
MS.440         	14.737         	8.27
MS.441         	14.707         	8.177
MS.442         	14.677         	8.129
MS.443         	14.65          	8.061
MS.444         	14.62          	7.996
MS.445         	14.59          	7.978
MS.446         	14.56          	7.908
MS.447         	14.532         	8.028
MS.448         	14.502         	8.008
MS.449         	14.475         	7.936
MS.450         	14.445         	7.968
MS.451         	14.417         	7.902
MS.452         	14.387         	7.976
MS.453         	14.358         	7.819
MS.454         	14.33          	7.821
MS.455         	14.302         	7.825
MS.456         	14.273         	7.757
MS.457         	14.245         	7.712
MS.458         	14.215         	7.889
MS.459         	14.188         	7.732
MS.460         	14.16          	7.591
MS.461         	14.13          	7.765
MS.462         	14.102         	7.75
MS.463         	14.075         	7.511
MS.464         	14.047         	7.632
MS.465         	14.017         	7.607
MS.466         	13.99          	7.436
MS.467         	13.962         	7.448
MS.468         	13.935         	7.346
MS.469         	13.907         	7.426
MS.470         	13.877         	7.358
MS.471         	13.85          	7.438
MS.472         	13.822         	7.338
MS.473         	13.795         	7.509
MS.474         	13.767         	7.372
MS.475         	13.74          	7.4
MS.476         	13.712         	7.507
MS.477         	13.685         	7.378
MS.478         	13.657         	7.334
MS.479         	13.63          	7.422
MS.480         	13.605         	7.207
MS.481         	13.577         	7.251
MS.482         	13.55          	7.315
MS.483         	13.523         	7.301
MS.484         	13.495         	7.193
MS.485         	13.467         	7.197
MS.486         	13.443         	7.241
MS.487         	13.415         	7.215
MS.488         	13.387         	7.233
MS.489         	13.36          	7.215
MS.490         	13.335         	7.255
MS.491         	13.307         	7.114
MS.492         	13.282         	7.138
MS.493         	13.255         	7.152
MS.494         	13.227         	7.05
MS.495         	13.202         	7.122
MS.496         	13.175         	7.027
