File:              	C:\Qtrac\Data\Daniel M Sørensen\MScan multicentre study\Data from centres\Oslo\IronKey\Oslo_NC_first examination\SZC00619B.QZD
Name:              	NO.OSL.NC.21.1
Protocol:          	MSCAN-R2
Date:              	19/6/20
Start time:        	11:50:16
Age:               	37
Sex:               	M
Temperature:       	34.2
S/R sites:         	Ulnar Wr-ADM
NC/disease:        	NC21
Operator:          	SZ
Comments:          	Test1
M-SCAN DATA (6.4-2.8m)
Scanpts: 8, 12, 393, 401
Stim. (mA)     	Amp. (mV)
MS.1           	22             	14.182
MS.2           	22             	14.192
MS.3           	22             	14.224
MS.4           	22             	14.238
MS.5           	22             	14.214
MS.6           	22             	14.2
MS.7           	22             	14.244
MS.8           	22             	14.23
MS.9           	22             	14.218
MS.10          	22             	14.234
MS.11          	22             	14.23
MS.12          	22             	14.242
MS.13          	22             	14.202
MS.14          	22             	14.21
MS.15          	22             	14.236
MS.16          	22             	14.202
MS.17          	22             	14.18
MS.18          	22             	14.2
MS.19          	22             	14.186
MS.20          	22             	14.194
MS.21          	22             	14.168
MS.22          	22             	14.17
MS.23          	22             	14.065
MS.24          	21.913         	14.147
MS.25          	21.868         	14.174
MS.26          	21.825         	14.065
MS.27          	21.78          	14.103
MS.28          	21.737         	14.039
MS.29          	21.695         	14.158
MS.30          	21.65          	13.916
MS.31          	21.608         	14.111
MS.32          	21.565         	14.095
MS.33          	21.52          	14.029
MS.34          	21.477         	13.922
MS.35          	21.435         	13.95
MS.36          	21.392         	13.954
MS.37          	21.35          	14.01
MS.38          	21.307         	13.956
MS.39          	21.265         	13.799
MS.40          	21.222         	13.861
MS.41          	21.18          	13.676
MS.42          	21.137         	13.884
MS.43          	21.095         	13.739
MS.44          	21.052         	13.765
MS.45          	21.01          	13.735
MS.46          	20.97          	13.644
MS.47          	20.927         	13.769
MS.48          	20.885         	13.535
MS.49          	20.842         	13.527
MS.50          	20.802         	13.471
MS.51          	20.76          	13.422
MS.52          	20.717         	13.519
MS.53          	20.677         	13.485
MS.54          	20.635         	13.434
MS.55          	20.595         	13.249
MS.56          	20.552         	13.445
MS.57          	20.512         	13.253
MS.58          	20.472         	13.422
MS.59          	20.43          	13.396
MS.60          	20.39          	13.344
MS.61          	20.35          	13.044
MS.62          	20.307         	13.306
MS.63          	20.267         	13.169
MS.64          	20.227         	13.193
MS.65          	20.188         	13.183
MS.66          	20.147         	12.844
MS.67          	20.108         	12.913
MS.68          	20.065         	13.034
MS.69          	20.025         	12.943
MS.70          	19.985         	13.054
MS.71          	19.945         	13.011
MS.72          	19.907         	12.858
MS.73          	19.868         	12.591
MS.74          	19.827         	12.601
MS.75          	19.788         	12.76
MS.76          	19.747         	12.685
MS.77          	19.708         	12.562
MS.78          	19.67          	12.607
MS.79          	19.63          	12.621
MS.80          	19.59          	12.738
MS.81          	19.55          	12.597
MS.82          	19.512         	12.52
MS.83          	19.472         	12.56
MS.84          	19.435         	12.399
MS.85          	19.395         	12.311
MS.86          	19.358         	12.528
MS.87          	19.317         	12.294
MS.88          	19.28          	12.21
MS.89          	19.24          	12.27
MS.90          	19.202         	12.157
MS.91          	19.165         	12.157
MS.92          	19.125         	12.278
MS.93          	19.087         	12.238
MS.94          	19.05          	11.952
MS.95          	19.012         	12
MS.96          	18.972         	11.994
MS.97          	18.935         	11.944
MS.98          	18.897         	11.908
MS.99          	18.86          	12.025
MS.100         	18.823         	11.928
MS.101         	18.785         	11.96
MS.102         	18.747         	11.865
MS.103         	18.71          	11.849
MS.104         	18.672         	11.896
MS.105         	18.635         	11.833
MS.106         	18.597         	11.867
MS.107         	18.56          	11.769
MS.108         	18.522         	11.803
MS.109         	18.487         	11.642
MS.110         	18.45          	11.664
MS.111         	18.413         	10.951
MS.112         	18.375         	11.585
MS.113         	18.34          	11.616
MS.114         	18.302         	11.664
MS.115         	18.265         	11.513
MS.116         	18.23          	10.764
MS.117         	18.192         	11.469
MS.118         	18.157         	11.354
MS.119         	18.12          	10.806
MS.120         	18.085         	11.255
MS.121         	18.047         	10.294
MS.122         	18.012         	9.819
MS.123         	17.975         	10.659
MS.124         	17.94          	11.017
MS.125         	17.905         	10.073
MS.126         	17.868         	10.169
MS.127         	17.833         	10.113
MS.128         	17.797         	10.089
MS.129         	17.762         	10.073
MS.130         	17.725         	10.208
MS.131         	17.69          	9.833
MS.132         	17.655         	9.676
MS.133         	17.62          	9.644
MS.134         	17.585         	9.394
MS.135         	17.55          	9.732
MS.136         	17.515         	9.616
MS.137         	17.48          	9.076
MS.138         	17.445         	9.485
MS.139         	17.41          	8.79
MS.140         	17.375         	9.007
MS.141         	17.34          	9.114
MS.142         	17.305         	9.332
MS.143         	17.27          	8.82
MS.144         	17.237         	8.973
MS.145         	17.202         	8.824
MS.146         	17.167         	8.667
MS.147         	17.132         	8.878
MS.148         	17.1           	8.645
MS.149         	17.065         	8.588
MS.150         	17.03          	8.516
MS.151         	16.997         	8.194
MS.152         	16.962         	8.411
MS.153         	16.93          	8.419
MS.154         	16.895         	8.353
MS.155         	16.862         	8.224
MS.156         	16.827         	8.097
MS.157         	16.795         	8.331
MS.158         	16.76          	8.028
MS.159         	16.727         	8.157
MS.160         	16.695         	8.159
MS.161         	16.66          	8.095
MS.162         	16.628         	7.847
MS.163         	16.595         	8
MS.164         	16.56          	7.896
MS.165         	16.528         	7.912
MS.166         	16.495         	7.753
MS.167         	16.462         	7.769
MS.168         	16.43          	7.706
MS.169         	16.395         	7.634
MS.170         	16.362         	7.682
MS.171         	16.33          	7.541
MS.172         	16.297         	7.539
MS.173         	16.265         	7.422
MS.174         	16.233         	7.454
MS.175         	16.2           	7.428
MS.176         	16.167         	7.239
MS.177         	16.135         	7.076
MS.178         	16.102         	7.08
MS.179         	16.073         	7.132
MS.180         	16.04          	7.001
MS.181         	16.007         	7.029
MS.182         	15.975         	7.033
MS.183         	15.943         	6.872
MS.184         	15.912         	6.782
MS.185         	15.88          	6.719
MS.186         	15.847         	6.758
MS.187         	15.818         	6.828
MS.188         	15.785         	6.415
MS.189         	15.752         	6.772
MS.190         	15.722         	6.552
MS.191         	15.69          	6.691
MS.192         	15.66          	6.536
MS.193         	15.627         	6.403
MS.194         	15.597         	6.617
MS.195         	15.565         	6.333
MS.196         	15.535         	6.401
MS.197         	15.502         	6.192
MS.198         	15.472         	6.246
MS.199         	15.44          	6.31
MS.200         	15.41          	6
MS.201         	15.38          	6.286
MS.202         	15.35          	5.843
MS.203         	15.318         	5.912
MS.204         	15.287         	5.962
MS.205         	15.257         	5.497
MS.206         	15.227         	5.456
MS.207         	15.195         	5.785
MS.208         	15.165         	5.682
MS.209         	15.135         	5.325
MS.210         	15.105         	5.249
MS.211         	15.075         	5.239
MS.212         	15.045         	5.12
MS.213         	15.015         	5.015
MS.214         	14.985         	4.951
MS.215         	14.955         	4.784
MS.216         	14.925         	4.53
MS.217         	14.895         	5.142
MS.218         	14.865         	4.496
MS.219         	14.835         	4.465
MS.220         	14.805         	4.169
MS.221         	14.777         	4.473
MS.222         	14.747         	4.151
MS.223         	14.717         	4.133
MS.224         	14.688         	3.998
MS.225         	14.66          	3.964
MS.226         	14.63          	3.638
MS.227         	14.6           	3.805
MS.228         	14.57          	4.32
MS.229         	14.542         	3.478
MS.230         	14.512         	3.515
MS.231         	14.485         	2.985
MS.232         	14.455         	3.553
MS.233         	14.425         	3.547
MS.234         	14.398         	2.846
MS.235         	14.367         	3.442
MS.236         	14.34          	3.315
MS.237         	14.31          	2.933
MS.238         	14.282         	2.977
MS.239         	14.255         	2.097
MS.240         	14.225         	2.812
MS.241         	14.197         	2.723
MS.242         	14.167         	2.459
MS.243         	14.14          	2.814
MS.244         	14.112         	2.62
MS.245         	14.085         	2.264
MS.246         	14.055         	1.599
MS.247         	14.028         	1.913
MS.248         	14             	2.002
MS.249         	13.972         	1.847
MS.250         	13.945         	1.845
MS.251         	13.915         	1.783
MS.252         	13.887         	1.976
MS.253         	13.86          	1.527
MS.254         	13.832         	2.284
MS.255         	13.805         	1.567
MS.256         	13.778         	1.531
MS.257         	13.75          	1.922
MS.258         	13.722         	1.563
MS.259         	13.695         	1.795
MS.260         	13.667         	1.835
MS.261         	13.64          	1.881
MS.262         	13.612         	1.579
MS.263         	13.585         	1.611
MS.264         	13.56          	1.482
MS.265         	13.532         	1.482
MS.266         	13.505         	1.478
MS.267         	13.477         	1.539
MS.268         	13.45          	1.617
MS.269         	13.425         	1.349
MS.270         	13.398         	1.279
MS.271         	13.37          	1.305
MS.272         	13.342         	1.311
MS.273         	13.318         	1.211
MS.274         	13.29          	1.128
MS.275         	13.265         	1.196
MS.276         	13.237         	1.335
MS.277         	13.21          	1.047
MS.278         	13.185         	0.947
MS.279         	13.157         	1.128
MS.280         	13.132         	1.217
MS.281         	13.105         	0.941
MS.282         	13.08          	1.043
MS.283         	13.052         	0.927
MS.284         	13.028         	1.311
MS.285         	13             	0.959
MS.286         	12.975         	0.687
MS.287         	12.95          	0.707
MS.288         	12.922         	0.731
MS.289         	12.898         	0.739
MS.290         	12.872         	0.828
MS.291         	12.845         	0.814
MS.292         	12.82          	0.544
MS.293         	12.795         	0.491
MS.294         	12.77          	0.5
MS.295         	12.742         	0.459
MS.296         	12.717         	0.62
MS.297         	12.693         	0.53
MS.298         	12.667         	0.512
MS.299         	12.642         	0.493
MS.300         	12.617         	0.532
MS.301         	12.592         	0.441
MS.302         	12.568         	0.638
MS.303         	12.542         	0.548
MS.304         	12.517         	0.409
MS.305         	12.492         	0.391
MS.306         	12.467         	0.373
MS.307         	12.443         	0.443
MS.308         	12.417         	0.477
MS.309         	12.392         	0.367
MS.310         	12.367         	0.361
MS.311         	12.342         	0.367
MS.312         	12.318         	0.371
MS.313         	12.292         	0.379
MS.314         	12.267         	0.363
MS.315         	12.245         	0.292
MS.316         	12.22          	0.3
MS.317         	12.195         	0.298
MS.318         	12.17          	0.359
MS.319         	12.148         	0.296
MS.320         	12.122         	0.29
MS.321         	12.097         	0.314
MS.322         	12.075         	0.357
MS.323         	12.05          	0.292
MS.324         	12.025         	0.29
MS.325         	12.002         	0.357
MS.326         	11.977         	0.292
MS.327         	11.952         	0.296
MS.328         	11.93          	0.292
MS.329         	11.905         	0.29
MS.330         	11.882         	0.29
MS.331         	11.858         	0.298
MS.332         	11.835         	0.3
MS.333         	11.81          	0.288
MS.334         	11.787         	0.292
MS.335         	11.765         	0.292
MS.336         	11.74          	0.302
MS.337         	11.717         	0.292
MS.338         	11.693         	0.294
MS.339         	11.67          	0.294
MS.340         	11.648         	0.294
MS.341         	11.622         	0.294
MS.342         	11.6           	0.302
MS.343         	11.577         	0.294
MS.344         	11.555         	0.296
MS.345         	11.53          	0.292
MS.346         	11.507         	0.296
MS.347         	11.485         	0.298
MS.348         	11.462         	0.298
MS.349         	11.44          	0.298
MS.350         	11.415         	0.304
MS.351         	11.392         	0.304
MS.352         	11.37          	0.3
MS.353         	11.347         	0.298
MS.354         	11.325         	0.302
MS.355         	11.302         	0.302
MS.356         	11.28          	0.3
MS.357         	11.257         	0.183
MS.358         	11.235         	0.306
MS.359         	11.212         	0.165
MS.360         	11.19          	0.302
MS.361         	11.167         	0.3
MS.362         	11.145         	0.169
MS.363         	11.122         	0.171
MS.364         	11.1           	0.181
MS.365         	11.08          	0.159
MS.366         	11.057         	0.167
MS.367         	11.035         	0.294
MS.368         	11.012         	0.175
MS.369         	10.99          	0.177
MS.370         	10.967         	0.062
MS.371         	10.948         	0.169
MS.372         	10.925         	0.298
MS.373         	10.903         	0.183
MS.374         	10.88          	0.171
MS.375         	10.86          	0.066
MS.376         	10.837         	0.054
MS.377         	10.815         	0.06
MS.378         	10.795         	0.167
MS.379         	10.773         	0.052
MS.380         	10.752         	0.058
MS.381         	10.73          	0.058
MS.382         	10.707         	0.06
MS.383         	10.688         	0.058
MS.384         	10.665         	0.052
MS.385         	10.645         	0.056
MS.386         	10.622         	0.062
MS.387         	10.602         	0.058
MS.388         	10.58          	0.058
MS.389         	10.56          	0.054
MS.390         	10.537         	0.056
MS.391         	10.517         	0.06
MS.392         	10.497         	0.05
MS.393         	10.475         	0.058
MS.394         	10.455         	0.054
MS.395         	10.432         	0.054
MS.396         	10.412         	0.058
MS.397         	10.392         	0.052
MS.398         	10.372         	0.052
MS.399         	10.35          	0.054
MS.400         	10.33          	0.054
MS.401         	10.31          	0.056
MS.402         	10.287         	0.06
MS.403         	10.267         	0.056
MS.404         	10.247         	0.052
MS.405         	10.227         	0.056
DERIVED EXCITABILITY VARIABLES
Program = QTracP 3/4/2020
Threshold method = 6 (optimised for CAP, using data for present condition only)
SR method = 1 (using actual data values)
6.                 	0.000               	Peak response\(mV)
9.                 	34.2                	Temperature ( C)
17.                	37                  	Age (years)
18.                	1                   	Sex (M=1, F=2)

EXTRA VARIABLES

MScPeak(mV) = 14.15
MScS5(mA) = 12.92
MScS50(mA) = 16.11
MScS95(mA) = 20.72
MScNSteps = 2
MScSteps(%) = 4.9
MScStepMax(%) = 2.6
MScD50 = 49
MScSlope = 4.59
MSFPeakAmp(mV) = 14.2
MSFNUnits = 154
MSFMeanUnitAmp(uV) = 92.1
MSFHuntTime(m) = 2.85
MSFError(%) = 3.7
MSFNLarge = 42.19
MSFMedianAmp(%) = 0.522
MSFMedianAmp(mV) = 0.074
MSFHalfAmpAmp(%) = 0.667
MSFHalfAmpAmp(mV) = 0.0946
MSFLargestAmp(%) = 2.39
MSFLargestAmp(mV) = 0.338
MSFMeanRS(%) = 2
MSFOpts = 10106121
MScDuration(min) = 3.6
MSFTraces = 394
MSFSizeLimit(uV) = 35.4
MSFLimitType = 1
MSFSmallestAmp(uV) = 37.3

EXTRA WAVEFORMS


!MScan Model
!154
	1	10.92	0.71	2
	2	11.32	0.74	2
	3	12.14	0.55	2
	4	12.31	0.35	2
	5	12.51	0.53	2
	6	12.67	0.74	2
	7	12.79	0.81	2
	8	12.89	0.67	2
	9	12.98	0.65	2
	10	13.05	0.61	2
	11	13.13	0.67	2
	12	13.2	0.63	2
	13	13.28	0.73	2
	14	13.39	0.9	2
	15	13.57	1.35	2
	16	13.96	1.86	2
	17	14.07	1.38	2
	18	14.07	0.26	2
	19	14.16	1.47	2
	20	14.23	1.18	2
	21	14.3	1.23	2
	22	14.36	1.28	2
	23	14.37	2.23	2
	24	14.42	1.34	2
	25	14.48	1.21	2
	26	14.53	1.02	2
	27	14.58	1	2
	28	14.62	0.93	2
	29	14.66	0.87	2
	30	14.7	0.87	2
	31	14.74	0.87	2
	32	14.77	0.69	2
	33	14.8	0.63	2
	34	14.84	0.63	2
	35	14.87	0.63	2
	36	14.9	0.6	2
	37	14.92	0.44	2
	38	14.94	0.44	2
	39	14.96	0.44	2
	40	14.99	0.44	2
	41	15.01	0.44	2
	42	15.03	0.44	2
	43	15.05	0.47	2
	44	15.08	0.55	2
	45	15.11	0.54	2
	46	15.13	0.52	2
	47	15.16	0.5	2
	48	15.19	0.49	2
	49	15.22	0.65	2
	50	15.26	0.72	2
	51	15.3	0.66	2
	52	15.34	0.61	2
	53	15.37	0.63	2
	54	15.41	0.62	2
	55	15.45	0.57	2
	56	15.49	0.53	2
	57	15.55	0.7	2
	58	15.6	0.69	2
	59	15.65	0.62	2
	60	15.7	0.57	2
	61	15.74	0.55	2
	62	15.78	0.53	2
	63	15.82	0.46	2
	64	15.85	0.29	2
	65	15.88	0.29	2
	66	15.9	0.29	2
	67	15.93	0.29	2
	68	15.96	0.3	2
	69	15.98	0.27	2
	70	16.02	0.44	2
	71	16.06	0.44	2
	72	16.11	0.56	2
	73	16.16	0.45	2
	74	16.19	0.31	2
	75	16.21	0.31	2
	76	16.24	0.31	2
	77	16.27	0.31	2
	78	16.3	0.32	2
	79	16.33	0.37	2
	80	16.36	0.36	2
	81	16.4	0.35	2
	82	16.43	0.34	2
	83	16.46	0.34	2
	84	16.49	0.29	2
	85	16.52	0.29	2
	86	16.55	0.29	2
	87	16.57	0.29	2
	88	16.6	0.28	2
	89	16.63	0.28	2
	90	16.66	0.35	2
	91	16.69	0.35	2
	92	16.73	0.36	2
	93	16.76	0.36	2
	94	16.79	0.36	2
	95	16.85	0.61	2
	96	16.91	0.62	2
	97	16.97	0.61	2
	98	17.03	0.58	2
	99	17.08	0.64	2
	100	17.13	0.67	2
	101	17.18	0.51	2
	102	17.22	0.53	2
	103	17.26	0.57	2
	104	17.3	0.6	2
	105	17.37	0.98	2
	106	17.45	1.08	2
	107	17.53	1.22	2
	108	17.62	1.12	2
	109	17.62	0.28	2
	110	17.7	1.38	2
	111	17.79	2.39	2
	112	17.86	1.97	2
	113	17.88	1.84	2
	114	17.97	1.41	2
	115	18.08	1.8	2
	116	18.21	1.73	2
	117	18.35	1.89	2
	118	18.95	0.81	2
	119	19.03	0.57	2
	120	19.11	0.48	2
	121	19.18	0.33	2
	122	19.24	0.32	2
	123	19.31	0.32	2
	124	19.36	0.33	2
	125	19.42	0.36	2
	126	19.48	0.39	2
	127	19.55	0.47	2
	128	19.58	1.37	2
	129	19.61	0.44	2
	130	19.68	0.43	2
	131	19.76	0.46	2
	132	19.83	0.48	2
	133	19.91	0.51	2
	134	20	0.5	2
	135	20.08	0.46	2
	136	20.16	0.42	2
	137	20.24	0.41	2
	138	20.33	0.5	2
	139	20.41	0.52	2
	140	20.5	0.49	2
