File:              	C:\Qtrac\Data\Daniel M Sørensen\MScan multicentre study\Data from centres\Oslo\Processed data\SZC00618G.QZD
Name:              	NO.OSL.NC.18.2
Protocol:          	MSCAN-R2
Date:              	18/6/20
Start time:        	16:48:35
Age:               	32
Sex:               	F
Temperature:       	33.8
S/R sites:         	APB
NC/disease:        	NC18
Operator:          	SZ
Comments:          	Test1
M-SCAN DATA (9.7-2.9m)
Scanpts: 369, 387, 699, 720
Stim. (mA)     	Amp. (mV)
MS.1           	16.5           	8.081
MS.2           	16.5           	8.065
MS.3           	16.5           	8.115
MS.4           	16.5           	8.107
MS.5           	16.5           	8.091
MS.6           	16.5           	8.079
MS.7           	16.5           	8.095
MS.8           	16.5           	8.109
MS.9           	16.5           	8.133
MS.10          	16.5           	8.085
MS.11          	16.5           	8.099
MS.12          	16.5           	8.089
MS.13          	16.5           	8.125
MS.14          	16.5           	8.109
MS.15          	16.5           	8.085
MS.16          	16.5           	8.095
MS.17          	16.5           	8.115
MS.18          	16.5           	8.117
MS.19          	16.5           	8.115
MS.20          	16.5           	8.141
MS.21          	16.5           	8.109
MS.22          	16.5           	8.101
MS.23          	16.5           	8.107
MS.24          	16.4           	8.087
MS.25          	16.368         	8.087
MS.26          	16.335         	8.079
MS.27          	16.302         	8.127
MS.28          	16.27          	8.103
MS.29          	16.237         	8.095
MS.30          	16.205         	8.097
MS.31          	16.172         	8.093
MS.32          	16.14          	8.107
MS.33          	16.108         	8.091
MS.34          	16.077         	8.095
MS.35          	16.045         	8.113
MS.36          	16.012         	8.079
MS.37          	15.98          	8.087
MS.38          	15.947         	8.103
MS.39          	15.917         	8.085
MS.40          	15.885         	8.095
MS.41          	15.852         	8.075
MS.42          	15.822         	8.095
MS.43          	15.79          	8.099
MS.44          	15.757         	8.107
MS.45          	15.727         	8.087
MS.46          	15.695         	8.111
MS.47          	15.665         	8.099
MS.48          	15.632         	8.095
MS.49          	15.602         	8.085
MS.50          	15.57          	8.099
MS.51          	15.54          	8.093
MS.52          	15.507         	8.087
MS.53          	15.477         	8.083
MS.54          	15.445         	8.093
MS.55          	15.415         	8.093
MS.56          	15.385         	8.085
MS.57          	15.352         	8.081
MS.58          	15.322         	8.099
MS.59          	15.292         	8.093
MS.60          	15.262         	8.081
MS.61          	15.233         	8.107
MS.62          	15.2           	8.091
MS.63          	15.17          	8.103
MS.64          	15.14          	8.081
MS.65          	15.11          	8.101
MS.66          	15.08          	8.095
MS.67          	15.05          	8.101
MS.68          	15.02          	8.077
MS.69          	14.99          	8.089
MS.70          	14.96          	8.113
MS.71          	14.93          	8.113
MS.72          	14.9           	8.085
MS.73          	14.87          	8.077
MS.74          	14.84          	8.087
MS.75          	14.81          	8.089
MS.76          	14.78          	8.053
MS.77          	14.752         	8.075
MS.78          	14.722         	8.071
MS.79          	14.693         	8.022
MS.80          	14.662         	8.043
MS.81          	14.635         	8.01
MS.82          	14.605         	8.041
MS.83          	14.575         	8.043
MS.84          	14.547         	8.053
MS.85          	14.517         	8.053
MS.86          	14.487         	8.041
MS.87          	14.46          	8.063
MS.88          	14.43          	8.047
MS.89          	14.403         	8.053
MS.90          	14.372         	8.041
MS.91          	14.345         	8.081
MS.92          	14.315         	8.075
MS.93          	14.287         	8.073
MS.94          	14.257         	8.083
MS.95          	14.23          	8.069
MS.96          	14.202         	8.069
MS.97          	14.172         	8.014
MS.98          	14.145         	8.028
MS.99          	14.117         	8.039
MS.100         	14.087         	8.061
MS.101         	14.06          	8.077
MS.102         	14.032         	8.085
MS.103         	14.005         	8.079
MS.104         	13.975         	8.071
MS.105         	13.947         	8.034
MS.106         	13.92          	8.069
MS.107         	13.892         	8.055
MS.108         	13.865         	8.055
MS.109         	13.837         	8.069
MS.110         	13.81          	8.063
MS.111         	13.782         	8.022
MS.112         	13.755         	8.055
MS.113         	13.727         	8.061
MS.114         	13.7           	8.077
MS.115         	13.672         	8.075
MS.116         	13.645         	8.085
MS.117         	13.617         	8.087
MS.118         	13.59          	8.081
MS.119         	13.562         	8.087
MS.120         	13.535         	8.091
MS.121         	13.51          	8.059
MS.122         	13.483         	8.081
MS.123         	13.455         	8.065
MS.124         	13.427         	8.077
MS.125         	13.403         	8.069
MS.126         	13.375         	8.085
MS.127         	13.347         	8.091
MS.128         	13.32          	8.095
MS.129         	13.295         	8.087
MS.130         	13.267         	8.087
MS.131         	13.242         	8.085
MS.132         	13.215         	8.077
MS.133         	13.188         	8.069
MS.134         	13.162         	8.073
MS.135         	13.135         	8.087
MS.136         	13.11          	8.081
MS.137         	13.082         	8.071
MS.138         	13.057         	8.065
MS.139         	13.032         	8.077
MS.140         	13.005         	8.079
MS.141         	12.98          	8.067
MS.142         	12.952         	8.065
MS.143         	12.927         	8.085
MS.144         	12.903         	8.071
MS.145         	12.875         	8.073
MS.146         	12.85          	8.073
MS.147         	12.825         	8.073
MS.148         	12.8           	8.077
MS.149         	12.773         	8.075
MS.150         	12.747         	8.063
MS.151         	12.722         	8.075
MS.152         	12.697         	8.075
MS.153         	12.672         	8.085
MS.154         	12.645         	8.069
MS.155         	12.62          	8.063
MS.156         	12.595         	8.073
MS.157         	12.57          	8.075
MS.158         	12.545         	8.065
MS.159         	12.52          	8.069
MS.160         	12.495         	8.063
MS.161         	12.47          	8.081
MS.162         	12.445         	8.079
MS.163         	12.42          	8.077
MS.164         	12.395         	8.083
MS.165         	12.37          	8.081
MS.166         	12.347         	8.071
MS.167         	12.322         	8.087
MS.168         	12.297         	8.083
MS.169         	12.273         	8.077
MS.170         	12.247         	8.079
MS.171         	12.222         	8.073
MS.172         	12.2           	8.081
MS.173         	12.175         	8.085
MS.174         	12.15          	8.065
MS.175         	12.125         	8.073
MS.176         	12.102         	8.071
MS.177         	12.077         	8.081
MS.178         	12.052         	8.079
MS.179         	12.03          	8.079
MS.180         	12.005         	8.085
MS.181         	11.983         	8.089
MS.182         	11.957         	8.083
MS.183         	11.932         	8.085
MS.184         	11.91          	8.075
MS.185         	11.885         	8.093
MS.186         	11.863         	8.103
MS.187         	11.837         	8.095
MS.188         	11.815         	8.085
MS.189         	11.79          	8.085
MS.190         	11.767         	8.081
MS.191         	11.745         	8.079
MS.192         	11.72          	8.091
MS.193         	11.697         	8.075
MS.194         	11.675         	8.083
MS.195         	11.65          	8.079
MS.196         	11.627         	8.083
MS.197         	11.605         	8.081
MS.198         	11.58          	8.091
MS.199         	11.557         	8.087
MS.200         	11.535         	8.085
MS.201         	11.512         	8.079
MS.202         	11.488         	8.081
MS.203         	11.465         	8.083
MS.204         	11.443         	8.091
MS.205         	11.42          	8.073
MS.206         	11.398         	8.051
MS.207         	11.375         	8.063
MS.208         	11.352         	8.045
MS.209         	11.33          	8.079
MS.210         	11.307         	8.069
MS.211         	11.282         	8.071
MS.212         	11.26          	8.081
MS.213         	11.238         	8.049
MS.214         	11.215         	8.063
MS.215         	11.195         	8.061
MS.216         	11.172         	8.067
MS.217         	11.15          	8.059
MS.218         	11.127         	8.077
MS.219         	11.105         	8.045
MS.220         	11.082         	8.047
MS.221         	11.06          	8.055
MS.222         	11.037         	8.061
MS.223         	11.015         	8.103
MS.224         	10.995         	8.059
MS.225         	10.972         	8.073
MS.226         	10.95          	8.083
MS.227         	10.927         	8.083
MS.228         	10.907         	8.101
MS.229         	10.885         	8.057
MS.230         	10.863         	8.063
MS.231         	10.84          	8.105
MS.232         	10.82          	8.059
MS.233         	10.797         	8.083
MS.234         	10.778         	8.075
MS.235         	10.755         	8.077
MS.236         	10.733         	8.077
MS.237         	10.712         	8.087
MS.238         	10.69          	8.077
MS.239         	10.67          	8.071
MS.240         	10.648         	8.085
MS.241         	10.627         	8.099
MS.242         	10.605         	8.101
MS.243         	10.585         	8.097
MS.244         	10.562         	8.107
MS.245         	10.542         	8.099
MS.246         	10.52          	8.103
MS.247         	10.5           	8.089
MS.248         	10.48          	8.113
MS.249         	10.457         	8.123
MS.250         	10.438         	8.123
MS.251         	10.415         	8.121
MS.252         	10.395         	8.135
MS.253         	10.375         	8.131
MS.254         	10.355         	8.135
MS.255         	10.332         	8.123
MS.256         	10.312         	8.117
MS.257         	10.292         	8.109
MS.258         	10.273         	8.129
MS.259         	10.25          	8.115
MS.260         	10.23          	8.135
MS.261         	10.21          	8.137
MS.262         	10.19          	8.141
MS.263         	10.17          	8.135
MS.264         	10.15          	8.133
MS.265         	10.127         	8.137
MS.266         	10.108         	8.147
MS.267         	10.087         	8.141
MS.268         	10.068         	8.129
MS.269         	10.047         	8.153
MS.270         	10.028         	8.151
MS.271         	10.007         	8.159
MS.272         	9.988          	8.137
MS.273         	9.967          	8.145
MS.274         	9.948          	8.139
MS.275         	9.927          	8.165
MS.276         	9.907          	8.159
MS.277         	9.887          	8.169
MS.278         	9.867          	8.139
MS.279         	9.85           	8.186
MS.280         	9.83           	8.184
MS.281         	9.81           	8.2
MS.282         	9.79           	8.175
MS.283         	9.77           	8.196
MS.284         	9.75           	8.184
MS.285         	9.733          	8.188
MS.286         	9.712          	8.18
MS.287         	9.693          	8.173
MS.288         	9.672          	8.188
MS.289         	9.655          	8.177
MS.290         	9.635          	8.192
MS.291         	9.615          	8.192
MS.292         	9.595          	8.194
MS.293         	9.577          	8.19
MS.294         	9.557          	8.192
MS.295         	9.537          	8.19
MS.296         	9.52           	8.177
MS.297         	9.5            	8.19
MS.298         	9.483          	8.169
MS.299         	9.462          	8.198
MS.300         	9.445          	8.194
MS.301         	9.425          	8.204
MS.302         	9.405          	8.186
MS.303         	9.387          	8.186
MS.304         	9.367          	8.198
MS.305         	9.35           	8.194
MS.306         	9.33           	8.198
MS.307         	9.312          	8.196
MS.308         	9.295          	8.192
MS.309         	9.275          	8.196
MS.310         	9.257          	8.206
MS.311         	9.238          	8.2
MS.312         	9.22           	8.202
MS.313         	9.202          	8.212
MS.314         	9.182          	8.216
MS.315         	9.165          	8.22
MS.316         	9.148          	8.222
MS.317         	9.127          	8.222
MS.318         	9.11           	8.206
MS.319         	9.092          	8.216
MS.320         	9.073          	8.234
MS.321         	9.055          	8.212
MS.322         	9.037          	8.242
MS.323         	9.02           	8.224
MS.324         	9              	8.242
MS.325         	8.983          	8.238
MS.326         	8.965          	8.24
MS.327         	8.948          	8.23
MS.328         	8.93           	8.23
MS.329         	8.912          	8.242
MS.330         	8.895          	8.244
MS.331         	8.875          	8.234
MS.332         	8.858          	8.236
MS.333         	8.84           	8.222
MS.334         	8.823          	8.244
MS.335         	8.805          	8.24
MS.336         	8.787          	8.248
MS.337         	8.77           	8.226
MS.338         	8.752          	8.24
MS.339         	8.735          	8.238
MS.340         	8.717          	8.234
MS.341         	8.7            	8.232
MS.342         	8.682          	8.242
MS.343         	8.665          	8.25
MS.344         	8.648          	8.23
MS.345         	8.63           	8.228
MS.346         	8.613          	8.218
MS.347         	8.597          	8.224
MS.348         	8.58           	8.222
MS.349         	8.562          	8.228
MS.350         	8.545          	8.222
MS.351         	8.528          	8.216
MS.352         	8.51           	8.222
MS.353         	8.495          	8.216
MS.354         	8.477          	8.214
MS.355         	8.46           	8.236
MS.356         	8.443          	8.232
MS.357         	8.427          	8.228
MS.358         	8.41           	8.246
MS.359         	8.392          	8.234
MS.360         	8.375          	8.234
MS.361         	8.36           	8.25
MS.362         	8.342          	8.256
MS.363         	8.325          	8.248
MS.364         	8.31           	8.256
MS.365         	8.292          	8.256
MS.366         	8.275          	8.25
MS.367         	8.26           	8.244
MS.368         	8.242          	8.254
MS.369         	8.227          	8.248
MS.370         	8.21           	8.27
MS.371         	8.193          	8.26
MS.372         	8.177          	8.268
MS.373         	8.16           	8.264
MS.374         	8.145          	8.286
MS.375         	8.127          	8.266
MS.376         	8.113          	8.254
MS.377         	8.095          	8.266
MS.378         	8.08           	8.262
MS.379         	8.062          	8.274
MS.380         	8.047          	8.26
MS.381         	8.033          	8.284
MS.382         	8.015          	8.27
MS.383         	8              	8.254
MS.384         	7.982          	8.274
MS.385         	7.967          	8.276
MS.386         	7.952          	8.268
MS.387         	7.935          	8.274
MS.388         	7.92           	8.28
MS.389         	7.905          	8.286
MS.390         	7.887          	8.274
MS.391         	7.872          	8.272
MS.392         	7.857          	8.272
MS.393         	7.84           	8.256
MS.394         	7.825          	8.226
MS.395         	7.81           	8.272
MS.396         	7.795          	8.274
MS.397         	7.777          	8.28
MS.398         	7.762          	8.272
MS.399         	7.747          	8.246
MS.400         	7.732          	8.216
MS.401         	7.717          	8.252
MS.402         	7.7            	8.222
MS.403         	7.685          	8.238
MS.404         	7.67           	7.926
MS.405         	7.655          	8.196
MS.406         	7.64           	8.21
MS.407         	7.625          	8.228
MS.408         	7.61           	8.268
MS.409         	7.595          	8.232
MS.410         	7.58           	7.744
MS.411         	7.562          	7.976
MS.412         	7.547          	7.738
MS.413         	7.532          	7.918
MS.414         	7.517          	8.192
MS.415         	7.503          	7.934
MS.416         	7.487          	8.198
MS.417         	7.472          	7.706
MS.418         	7.457          	7.692
MS.419         	7.442          	7.97
MS.420         	7.427          	7.97
MS.421         	7.415          	7.207
MS.422         	7.4            	7.69
MS.423         	7.385          	7.684
MS.424         	7.37           	7.648
MS.425         	7.355          	7.658
MS.426         	7.34           	7.712
MS.427         	7.325          	7.708
MS.428         	7.31           	7.535
MS.429         	7.295          	7.505
MS.430         	7.282          	7.682
MS.431         	7.267          	7.507
MS.432         	7.253          	7.69
MS.433         	7.237          	7.15
MS.434         	7.222          	7.384
MS.435         	7.21           	7.215
MS.436         	7.195          	7.37
MS.437         	7.18           	7.037
MS.438         	7.165          	7.158
MS.439         	7.152          	7.114
MS.440         	7.137          	7.152
MS.441         	7.122          	7.108
MS.442         	7.11           	7.138
MS.443         	7.095          	7.11
MS.444         	7.08           	7.007
MS.445         	7.067          	7.112
MS.446         	7.052          	6.896
MS.447         	7.037          	7.084
MS.448         	7.025          	6.903
MS.449         	7.01           	6.86
MS.450         	6.995          	6.896
MS.451         	6.983          	6.772
MS.452         	6.967          	6.856
MS.453         	6.955          	6.711
MS.454         	6.94           	6.933
MS.455         	6.927          	7.042
MS.456         	6.912          	6.937
MS.457         	6.9            	6.671
MS.458         	6.885          	6.691
MS.459         	6.872          	6.709
MS.460         	6.858          	6.351
MS.461         	6.845          	6.854
MS.462         	6.83           	6.719
MS.463         	6.817          	6.703
MS.464         	6.802          	6.619
MS.465         	6.79           	6.699
MS.466         	6.775          	6.705
MS.467         	6.762          	6.693
MS.468         	6.747          	6.318
MS.469         	6.735          	6.316
MS.470         	6.722          	6.695
MS.471         	6.707          	6.635
MS.472         	6.695          	6.347
MS.473         	6.682          	6.552
MS.474         	6.668          	6.318
MS.475         	6.655          	6.322
MS.476         	6.642          	6.435
MS.477         	6.628          	6.194
MS.478         	6.615          	6.159
MS.479         	6.602          	6.099
MS.480         	6.587          	6.234
MS.481         	6.575          	6.252
MS.482         	6.562          	6.111
MS.483         	6.55           	6.073
MS.484         	6.535          	6.302
MS.485         	6.523          	6.183
MS.486         	6.51           	6.119
MS.487         	6.497          	6.012
MS.488         	6.485          	5.918
MS.489         	6.47           	5.998
MS.490         	6.457          	6.2
MS.491         	6.445          	5.698
MS.492         	6.432          	5.833
MS.493         	6.42           	5.934
MS.494         	6.407          	5.249
MS.495         	6.395          	5.468
MS.496         	6.38           	5.519
MS.497         	6.367          	5.311
MS.498         	6.355          	5.221
MS.499         	6.342          	5.172
MS.500         	6.33           	5.513
