File:              	C:\Qtrac\Data\Daniel M Sørensen\MScan multicentre study\Data from centres\Oslo\IronKey\Oslo_NC_first examination\SZC00429J.QZD
Name:              	NO.OSL.NC.4.1
Protocol:          	MSCAN-R2
Date:              	29/4/20
Start time:        	14:28:52
Age:               	39
Sex:               	F
Temperature:       	29.7
S/R sites:         	Ulnar ADM
NC/disease:        	NC4
Operator:          	SZ
Comments:          	Test1 *uln2
M-SCAN DATA (6.3-3m)
Scanpts: 45, 49, 322, 325
Stim. (mA)     	Amp. (mV)
MS.1           	20             	10.957
MS.2           	20             	10.949
MS.3           	20             	10.945
MS.4           	20             	10.973
MS.5           	20             	10.961
MS.6           	20             	10.977
MS.7           	20             	10.993
MS.8           	20             	10.989
MS.9           	20             	11.011
MS.10          	20             	11.056
MS.11          	20             	11.05
MS.12          	20             	11.056
MS.13          	20             	11.036
MS.14          	20             	11.148
MS.15          	20             	11.201
MS.16          	20             	11.185
MS.17          	20             	11.283
MS.18          	20             	11.261
MS.19          	20             	11.273
MS.20          	20             	11.307
MS.21          	20             	11.259
MS.22          	20             	11.37
MS.23          	20             	11.364
MS.24          	19.88          	11.36
MS.25          	19.84          	11.342
MS.26          	19.8           	11.35
MS.27          	19.762         	11.322
MS.28          	19.722         	11.372
MS.29          	19.682         	11.334
MS.30          	19.642         	11.253
MS.31          	19.605         	11.289
MS.32          	19.565         	11.277
MS.33          	19.525         	11.219
MS.34          	19.487         	11.193
MS.35          	19.448         	11.241
MS.36          	19.41          	11.173
MS.37          	19.37          	11.15
MS.38          	19.333         	11.126
MS.39          	19.292         	11.028
MS.40          	19.255         	11.158
MS.41          	19.215         	11.177
MS.42          	19.177         	11.285
MS.43          	19.14          	11.318
MS.44          	19.1           	11.305
MS.45          	19.062         	11.372
MS.46          	19.025         	11.372
MS.47          	18.987         	11.352
MS.48          	18.948         	11.334
MS.49          	18.91          	11.303
MS.50          	18.872         	11.33
MS.51          	18.835         	11.267
MS.52          	18.797         	11.314
MS.53          	18.76          	11.303
MS.54          	18.722         	11.279
MS.55          	18.685         	11.265
MS.56          	18.647         	11.291
MS.57          	18.61          	11.285
MS.58          	18.573         	11.253
MS.59          	18.535         	11.267
MS.60          	18.5           	11.249
MS.61          	18.462         	11.152
MS.62          	18.425         	11.175
MS.63          	18.387         	11.193
MS.64          	18.352         	11.092
MS.65          	18.315         	11.118
MS.66          	18.278         	11.074
MS.67          	18.243         	11.154
MS.68          	18.205         	11.12
MS.69          	18.17          	11.098
MS.70          	18.132         	11.088
MS.71          	18.097         	11.072
MS.72          	18.06          	10.999
MS.73          	18.025         	10.979
MS.74          	17.987         	10.915
MS.75          	17.952         	11.028
MS.76          	17.917         	10.878
MS.77          	17.88          	10.862
MS.78          	17.845         	10.818
MS.79          	17.81          	10.913
MS.80          	17.775         	10.854
MS.81          	17.737         	10.82
MS.82          	17.702         	10.889
MS.83          	17.667         	10.893
MS.84          	17.632         	10.901
MS.85          	17.597         	10.812
MS.86          	17.562         	10.836
MS.87          	17.528         	10.754
MS.88          	17.493         	10.824
MS.89          	17.458         	10.762
MS.90          	17.422         	10.709
MS.91          	17.387         	10.649
MS.92          	17.352         	10.695
MS.93          	17.317         	10.715
MS.94          	17.282         	10.719
MS.95          	17.247         	10.659
MS.96          	17.215         	10.725
MS.97          	17.18          	10.637
MS.98          	17.145         	10.677
MS.99          	17.11          	10.657
MS.100         	17.077         	10.603
MS.101         	17.042         	10.516
MS.102         	17.01          	10.631
MS.103         	16.975         	10.623
MS.104         	16.94          	10.516
MS.105         	16.907         	10.496
MS.106         	16.872         	10.484
MS.107         	16.84          	10.464
MS.108         	16.805         	10.427
MS.109         	16.772         	10.468
MS.110         	16.74          	10.323
MS.111         	16.705         	10.445
MS.112         	16.672         	10.347
MS.113         	16.637         	10.405
MS.114         	16.605         	10.357
MS.115         	16.573         	10.266
MS.116         	16.54          	10.3
MS.117         	16.505         	10.329
MS.118         	16.472         	10.286
MS.119         	16.44          	10.165
MS.120         	16.407         	10.272
MS.121         	16.375         	10.186
MS.122         	16.342         	10.282
MS.123         	16.31          	10.081
MS.124         	16.278         	9.966
MS.125         	16.245         	10.081
MS.126         	16.212         	10.071
MS.127         	16.18          	9.982
MS.128         	16.147         	9.881
MS.129         	16.115         	10.123
MS.130         	16.083         	9.972
MS.131         	16.05          	9.946
MS.132         	16.017         	9.799
MS.133         	15.985         	9.71
MS.134         	15.955         	9.749
MS.135         	15.922         	9.7
MS.136         	15.89          	9.618
MS.137         	15.86          	9.489
MS.138         	15.827         	9.352
MS.139         	15.795         	9.483
MS.140         	15.765         	9.475
MS.141         	15.733         	9.38
MS.142         	15.7           	9.221
MS.143         	15.67          	9.452
MS.144         	15.637         	9.426
MS.145         	15.608         	9.029
MS.146         	15.575         	9.416
MS.147         	15.545         	8.965
MS.148         	15.515         	8.931
MS.149         	15.483         	8.695
MS.150         	15.452         	8.804
MS.151         	15.42          	8.546
MS.152         	15.39          	8.725
MS.153         	15.36          	8.502
MS.154         	15.327         	8.615
MS.155         	15.297         	8.498
MS.156         	15.267         	8.331
MS.157         	15.237         	8.474
MS.158         	15.207         	8.437
MS.159         	15.175         	8.53
MS.160         	15.145         	8.314
MS.161         	15.115         	8.318
MS.162         	15.085         	8.337
MS.163         	15.055         	7.853
MS.164         	15.025         	8.051
MS.165         	14.995         	8.121
MS.166         	14.965         	7.914
MS.167         	14.935         	7.998
MS.168         	14.905         	7.902
MS.169         	14.875         	7.908
MS.170         	14.845         	7.759
MS.171         	14.818         	7.732
MS.172         	14.787         	7.837
MS.173         	14.757         	7.452
MS.174         	14.727         	7.692
MS.175         	14.697         	7.783
MS.176         	14.67          	7.491
MS.177         	14.64          	7.416
MS.178         	14.61          	7.084
MS.179         	14.58          	7.283
MS.180         	14.552         	7.281
MS.181         	14.523         	7.191
MS.182         	14.495         	7.225
MS.183         	14.465         	6.971
MS.184         	14.435         	7.138
MS.185         	14.407         	6.786
MS.186         	14.377         	6.937
MS.187         	14.35          	6.77
MS.188         	14.32          	6.878
MS.189         	14.292         	6.874
MS.190         	14.265         	6.542
MS.191         	14.235         	6.715
MS.192         	14.207         	6.55
MS.193         	14.177         	6.181
MS.194         	14.15          	6.542
MS.195         	14.122         	6.135
MS.196         	14.092         	6.328
MS.197         	14.065         	6.554
MS.198         	14.037         	6.212
MS.199         	14.01          	6.345
MS.200         	13.983         	5.984
MS.201         	13.952         	6.053
MS.202         	13.925         	5.769
MS.203         	13.898         	5.885
MS.204         	13.87          	5.861
MS.205         	13.842         	5.708
MS.206         	13.815         	5.466
MS.207         	13.787         	5.839
MS.208         	13.76          	5.873
MS.209         	13.733         	5.549
MS.210         	13.705         	5.658
MS.211         	13.677         	5.247
MS.212         	13.65          	5.71
MS.213         	13.622         	5.243
MS.214         	13.595         	5.446
MS.215         	13.568         	5.021
MS.216         	13.54          	5.217
MS.217         	13.515         	5.176
MS.218         	13.487         	5.392
MS.219         	13.46          	4.852
MS.220         	13.432         	4.931
MS.221         	13.407         	4.506
MS.222         	13.38          	4.54
MS.223         	13.352         	4.248
MS.224         	13.325         	4.343
MS.225         	13.3           	4.133
MS.226         	13.273         	4.296
MS.227         	13.247         	3.98
MS.228         	13.22          	4.113
MS.229         	13.193         	4.131
MS.230         	13.167         	4.125
MS.231         	13.14          	3.984
MS.232         	13.115         	3.823
MS.233         	13.087         	3.897
MS.234         	13.062         	4.129
MS.235         	13.035         	3.563
MS.236         	13.01          	4.123
MS.237         	12.985         	4.125
MS.238         	12.957         	3.642
MS.239         	12.932         	3.491
MS.240         	12.907         	3.358
MS.241         	12.88          	3.134
MS.242         	12.855         	3.174
MS.243         	12.83          	3.368
MS.244         	12.802         	3.092
MS.245         	12.778         	3.245
MS.246         	12.752         	3.366
MS.247         	12.727         	3.209
MS.248         	12.702         	3.005
MS.249         	12.675         	3.182
MS.250         	12.65          	3.158
MS.251         	12.625         	2.939
MS.252         	12.6           	2.908
MS.253         	12.575         	2.723
MS.254         	12.55          	2.657
MS.255         	12.525         	2.363
MS.256         	12.5           	1.984
MS.257         	12.475         	1.885
MS.258         	12.45          	2.252
MS.259         	12.425         	2.073
MS.260         	12.4           	2.145
MS.261         	12.375         	2.079
MS.262         	12.35          	2.195
MS.263         	12.325         	2.463
MS.264         	12.302         	1.942
MS.265         	12.278         	2.05
MS.266         	12.252         	2.153
MS.267         	12.227         	1.899
MS.268         	12.202         	1.915
MS.269         	12.18          	1.631
MS.270         	12.155         	1.793
MS.271         	12.13          	1.646
MS.272         	12.108         	1.766
MS.273         	12.082         	1.762
MS.274         	12.057         	1.664
MS.275         	12.035         	1.692
MS.276         	12.01          	1.688
MS.277         	11.985         	1.563
MS.278         	11.962         	1.551
MS.279         	11.938         	1.37
MS.280         	11.915         	1.563
MS.281         	11.89          	1.277
MS.282         	11.867         	1.215
MS.283         	11.842         	1.255
MS.284         	11.82          	1.184
MS.285         	11.795         	1.082
MS.286         	11.773         	0.872
MS.287         	11.747         	1.027
MS.288         	11.725         	1.112
MS.289         	11.702         	1.088
MS.290         	11.677         	1.061
MS.291         	11.655         	0.999
MS.292         	11.632         	0.699
MS.293         	11.608         	0.84
MS.294         	11.585         	0.86
MS.295         	11.562         	1.072
MS.296         	11.54          	0.83
MS.297         	11.515         	0.816
MS.298         	11.492         	0.564
MS.299         	11.47          	0.655
MS.300         	11.447         	0.489
MS.301         	11.425         	0.588
MS.302         	11.403         	0.489
MS.303         	11.377         	0.524
MS.304         	11.355         	0.278
MS.305         	11.332         	0.465
MS.306         	11.31          	0.23
MS.307         	11.287         	0.274
MS.308         	11.265         	0.332
MS.309         	11.242         	0.23
MS.310         	11.22          	0.246
MS.311         	11.197         	0.155
MS.312         	11.175         	0.117
MS.313         	11.153         	0.177
MS.314         	11.13          	0.081
MS.315         	11.108         	-0.01
MS.316         	11.087         	-0.002
MS.317         	11.065         	0.000
MS.318         	11.042         	-0.004
MS.319         	11.02          	-0.01
MS.320         	10.997         	0.01
MS.321         	10.975         	-0.01
MS.322         	10.955         	-0.002
MS.323         	10.932         	-0.01
MS.324         	10.91          	-0.008
MS.325         	10.887         	-0.006
MS.326         	10.867         	0.000
MS.327         	10.845         	-0.006
MS.328         	10.823         	-0.01
MS.329         	10.802         	-0.022
MS.330         	10.78          	0.000
MS.331         	10.76          	0.004
MS.332         	10.738         	0.002
MS.333         	10.715         	0.01
MS.334         	10.695         	-0.006
MS.335         	10.672         	0.004
MS.336         	10.653         	0.02
MS.337         	10.63          	0.000
MS.338         	10.61          	0.008
MS.339         	10.587         	0.01
MS.340         	10.568         	0.01
MS.341         	10.545         	0.008
MS.342         	10.525         	-0.006
MS.343         	10.502         	0.014
MS.344         	10.483         	0.014
MS.345         	10.462         	-0.002
MS.346         	10.44          	0.008
MS.347         	10.42          	0.026
MS.348         	10.4           	0.032
MS.349         	10.377         	0.036
MS.350         	10.358         	0.026
MS.351         	10.337         	0.042
MS.352         	10.318         	0.002
MS.353         	10.295         	0.026
MS.354         	10.275         	0.048
MS.355         	10.255         	0.038
MS.356         	10.235         	0.054
MS.357         	10.212         	0.06
MS.358         	10.193         	0.05
MS.359         	10.172         	0.062
MS.360         	10.153         	0.05
MS.361         	10.132         	0.056
MS.362         	10.113         	0.091
MS.363         	10.092         	0.095
MS.364         	10.073         	0.054
MS.365         	10.052         	0.079
MS.366         	10.032         	0.04
MS.367         	10.012         	0.07
MS.368         	9.992          	0.123
MS.369         	9.972          	0.109
MS.370         	9.952          	0.073
MS.371         	9.932          	0.123
MS.372         	9.912          	0.103
MS.373         	9.892          	0.123
MS.374         	9.872          	0.066
MS.375         	9.852          	0.149
MS.376         	9.832          	0.133
MS.377         	9.812          	0.135
MS.378         	9.792          	0.109
MS.379         	9.775          	0.117
DERIVED EXCITABILITY VARIABLES
Program = QTracP 3/4/2020
Threshold method = 6 (optimised for CAP, using data for present condition only)
SR method = 1 (using actual data values)
6.                 	0.000               	Peak response\(mV)
9.                 	29.7                	Temperature ( C)
17.                	39                  	Age (years)
18.                	2                   	Sex (M=1, F=2)

EXTRA VARIABLES

MScPeak(mV) = 11.01
MScS5(mA) = 11.44
MScS50(mA) = 13.73
MScS95(mA) = 16.8
MScNSteps = 1
MScSteps(%) = 2.8
MScStepMax(%) = 2.8
MScD50 = 44
MScSlope = 5.49
MSFPeakAmp(mV) = 11.4
MSFNUnits = 149
MSFMeanUnitAmp(uV) = 76.2
MSFHuntTime(m) = 1.68
MSFError(%) = 7.96
MSFNLarge = 46.35
MSFMedianAmp(%) = 0.556
MSFMedianAmp(mV) = 0.0632
MSFHalfAmpAmp(%) = 0.67
MSFHalfAmpAmp(mV) = 0.076
MSFLargestAmp(%) = 3.62
MSFLargestAmp(mV) = 0.411
MSFMeanRS(%) = 2
MSFOpts = 10106121
MScDuration(min) = 3.3
MSFTraces = 281
MSFSizeLimit(uV) = 28.4
MSFLimitType = 1
MSFSmallestAmp(uV) = 30.5

EXTRA WAVEFORMS


!MScan Model
!149
	1	11.09	0.7	2
	2	11.14	0.47	2
	3	11.18	0.4	2
	4	11.22	0.5	2
	5	11.27	0.62	2
	6	11.29	0.27	2
	7	11.31	0.29	2
	8	11.33	0.3	2
	9	11.35	0.3	2
	10	11.39	0.58	2
	11	11.43	0.72	2
	12	11.47	0.69	2
	13	11.51	0.63	2
	14	11.55	0.68	2
	15	11.61	0.93	2
	16	11.73	1.43	2
	17	11.77	0.53	2
	18	11.8	0.47	2
	19	11.82	0.38	2
	20	11.85	0.46	2
	21	11.88	0.47	2
	22	11.89	0.34	2
	23	11.91	0.32	2
	24	11.93	0.36	2
	25	11.95	0.46	2
	26	12	0.82	2
	27	12.06	0.82	2
	28	12.11	0.52	2
	29	12.16	0.94	2
	30	12.23	1.25	2
	31	12.38	1.63	2
	32	12.46	1.3	2
	33	12.48	0.32	2
	34	12.49	0.37	2
	35	12.51	0.37	2
	36	12.53	0.48	2
	37	12.55	0.69	2
	38	12.66	3.62	2
	39	12.74	1.39	2
	40	12.8	1.46	2
	41	12.86	1.39	2
	42	12.91	0.63	2
	43	12.99	1.55	2
	44	13.13	1.65	2
	45	13.13	1.1	2
	46	13.15	0.35	2
	47	13.2	0.93	2
	48	13.23	0.47	2
	49	13.26	0.46	2
	50	13.3	0.49	2
	51	13.31	0.52	2
	52	13.33	0.54	2
	53	13.35	0.57	2
	54	13.36	0.57	2
	55	13.38	0.59	2
	56	13.41	0.92	2
	57	13.44	0.64	2
	58	13.46	0.61	2
	59	13.5	1.1	2
	60	13.58	2.61	2
	61	13.67	1.64	2
	62	13.76	1.47	2
	63	13.79	0.54	2
	64	13.83	0.62	2
	65	13.87	0.77	2
	66	13.9	0.74	2
	67	13.94	0.82	2
	68	13.99	0.66	2
	69	14.04	0.8	2
	70	14.1	1.16	2
	71	14.16	1.37	2
	72	14.21	0.86	2
	73	14.24	0.44	2
	74	14.27	0.41	2
	75	14.3	0.47	2
	76	14.33	0.57	2
	77	14.36	0.67	2
	78	14.4	0.66	2
	79	14.43	0.68	2
	80	14.47	0.52	2
	81	14.5	0.51	2
	82	14.54	0.59	2
	83	14.57	0.73	2
	84	14.6	0.62	2
	85	14.64	0.55	2
	86	14.67	0.54	2
	87	14.7	0.45	2
	88	14.73	0.41	2
	89	14.76	0.53	2
	90	14.79	0.55	2
	91	14.83	0.64	2
	92	14.87	0.56	2
	93	14.91	0.55	2
	94	14.95	0.54	2
	95	14.98	0.58	2
	96	15.02	0.62	1.6
	97	15.06	0.55	2
	98	15.1	0.63	2
	99	15.16	0.72	2
	100	15.22	0.68	2
	101	15.26	0.51	2
	102	15.3	0.7	2
	103	15.34	0.73	2
	104	15.38	0.65	2
	105	15.41	0.5	2
	106	15.44	0.42	2
	107	15.46	0.41	2
	108	15.49	0.45	2
	109	15.52	0.59	2
	110	15.57	1.07	2
	111	15.62	0.82	2
	112	15.67	0.79	2
	113	15.72	0.7	2
	114	15.76	0.7	2
	115	15.8	0.78	2
	116	15.83	0.52	2
	117	15.89	0.56	2
	118	15.93	0.41	2
	119	15.96	0.44	2
	120	15.98	0.27	2
	121	16	0.27	2
	122	16.03	0.35	2
	123	16.07	0.57	2
	124	16.11	0.51	2
	125	16.16	0.44	2
	126	16.22	0.55	2
	127	16.28	0.53	2
	128	16.34	0.45	2
	129	16.42	0.51	2
	130	16.49	0.47	2
	131	16.59	0.65	2
	132	16.71	0.49	2
	133	16.8	0.45	2
	134	16.88	0.41	2
	135	16.93	0.29	2
	136	17.07	0.71	2
	137	17.24	0.54	2
	138	17.31	0.31	2
	139	17.47	0.51	2
	140	17.58	0.43	2
	141	17.79	0.65	2
	142	17.91	0.46	2
	143	18.04	0.6	2
	144	18.17	0.57	2
	145	18.26	0.37	2
	146	18.37	0.43	2
	147	18.44	0.3	2
	148	18.55	0.36	2
	149	18.7	0.41	2

