File:              	C:\Qtrac\Data\Daniel M Sørensen\MScan multicentre study\Data from centres\Oslo\IronKey\Oslo_NC_first examination\SZC00701A.QZD
Name:              	NO.OSL.NC.23.1
Protocol:          	MSCAN-R2
Date:              	1/7/20
Start time:        	15:31:50
Age:               	35
Sex:               	F
Temperature:       	30.1
S/R sites:         	Median Wr-APB
NC/disease:        	NC23
Operator:          	SZ
Comments:          	Test1
M-SCAN DATA (7.5-3m)
Scanpts: 42, 48, 468, 489
Stim. (mA)     	Amp. (mV)
MS.1           	7.5            	13.434
MS.2           	7.5            	13.424
MS.3           	7.5            	13.418
MS.4           	7.5            	13.422
MS.5           	7.5            	13.445
MS.6           	7.5            	13.453
MS.7           	7.5            	13.453
MS.8           	7.5            	13.44
MS.9           	7.5            	13.432
MS.10          	7.5            	13.453
MS.11          	7.5            	13.461
MS.12          	7.5            	13.455
MS.13          	7.5            	13.467
MS.14          	7.5            	13.463
MS.15          	7.5            	13.451
MS.16          	7.5            	13.461
MS.17          	7.5            	13.445
MS.18          	7.5            	13.455
MS.19          	7.5            	13.467
MS.20          	7.5            	13.469
MS.21          	7.5            	13.473
MS.22          	7.5            	13.477
MS.23          	7.5            	13.477
MS.24          	7.47           	13.483
MS.25          	7.455          	13.479
MS.26          	7.44           	13.471
MS.27          	7.425          	13.487
MS.28          	7.41           	13.489
MS.29          	7.395          	13.499
MS.30          	7.38           	13.491
MS.31          	7.365          	13.503
MS.32          	7.352          	13.495
MS.33          	7.337          	13.485
MS.34          	7.322          	13.501
MS.35          	7.307          	13.505
MS.36          	7.293          	13.493
MS.37          	7.277          	13.523
MS.38          	7.265          	13.499
MS.39          	7.25           	13.513
MS.40          	7.235          	13.523
MS.41          	7.22           	13.497
MS.42          	7.205          	13.505
MS.43          	7.192          	13.513
MS.44          	7.177          	13.511
MS.45          	7.162          	13.495
MS.46          	7.148          	13.503
MS.47          	7.135          	13.487
MS.48          	7.12           	13.515
MS.49          	7.105          	13.489
MS.50          	7.092          	13.499
MS.51          	7.077          	13.511
MS.52          	7.062          	13.505
MS.53          	7.05           	13.499
MS.54          	7.035          	13.461
MS.55          	7.02           	13.271
MS.56          	7.007          	13.507
MS.57          	6.992          	13.479
MS.58          	6.98           	13.481
MS.59          	6.965          	13.203
MS.60          	6.95           	13.509
MS.61          	6.938          	13.249
MS.62          	6.922          	13.217
MS.63          	6.91           	13.154
MS.64          	6.895          	12.963
MS.65          	6.882          	13.183
MS.66          	6.867          	13.173
MS.67          	6.855          	12.997
MS.68          	6.84           	13.189
MS.69          	6.827          	12.995
MS.70          	6.812          	13.203
MS.71          	6.8            	12.965
MS.72          	6.787          	12.943
MS.73          	6.773          	13.148
MS.74          	6.76           	12.78
MS.75          	6.745          	13.187
MS.76          	6.733          	12.877
MS.77          	6.717          	13.15
MS.78          	6.705          	13.142
MS.79          	6.692          	12.784
MS.80          	6.677          	12.899
MS.81          	6.665          	12.709
MS.82          	6.652          	12.699
MS.83          	6.637          	12.734
MS.84          	6.625          	12.395
MS.85          	6.612          	12.75
MS.86          	6.6            	12.441
MS.87          	6.585          	12.742
MS.88          	6.572          	12.391
MS.89          	6.56           	12.395
MS.90          	6.547          	12.369
MS.91          	6.532          	12.24
MS.92          	6.52           	12.224
MS.93          	6.507          	12.26
MS.94          	6.495          	12.264
MS.95          	6.48           	12.184
MS.96          	6.467          	12.313
MS.97          	6.455          	12.25
MS.98          	6.442          	12.2
MS.99          	6.43           	12.168
MS.100         	6.418          	12.266
MS.101         	6.405          	12.139
MS.102         	6.39           	12.18
MS.103         	6.378          	12.23
MS.104         	6.365          	12.081
MS.105         	6.352          	11.886
MS.106         	6.34           	11.888
MS.107         	6.327          	11.886
MS.108         	6.315          	11.666
MS.109         	6.302          	11.867
MS.110         	6.29           	11.867
MS.111         	6.277          	11.769
MS.112         	6.265          	11.68
MS.113         	6.253          	11.912
MS.114         	6.24           	11.563
MS.115         	6.227          	11.539
MS.116         	6.215          	11.567
MS.117         	6.202          	11.243
MS.118         	6.19           	11.366
MS.119         	6.177          	11.293
MS.120         	6.165          	11.551
MS.121         	6.152          	10.713
MS.122         	6.14           	11.032
MS.123         	6.128          	11.259
MS.124         	6.115          	11.211
MS.125         	6.102          	10.625
MS.126         	6.092          	11.173
MS.127         	6.08           	10.689
MS.128         	6.067          	10.731
MS.129         	6.055          	10.629
MS.130         	6.043          	10.361
MS.131         	6.03           	10.52
MS.132         	6.02           	10.556
MS.133         	6.007          	10.413
MS.134         	5.995          	10.264
MS.135         	5.983          	10.2
MS.136         	5.97           	10.182
MS.137         	5.96           	10.029
MS.138         	5.947          	10.137
MS.139         	5.935          	10.174
MS.140         	5.922          	9.972
MS.141         	5.912          	9.285
MS.142         	5.9            	9.94
MS.143         	5.887          	9.736
MS.144         	5.875          	9.422
MS.145         	5.865          	9.235
MS.146         	5.852          	9.001
MS.147         	5.84           	9.473
MS.148         	5.83           	9.245
MS.149         	5.817          	8.884
MS.150         	5.805          	8.961
MS.151         	5.795          	8.703
MS.152         	5.782          	8.86
MS.153         	5.773          	8.224
MS.154         	5.76           	8.296
MS.155         	5.747          	8.363
MS.156         	5.737          	8.252
MS.157         	5.725          	8.441
MS.158         	5.715          	8.075
MS.159         	5.702          	8.032
MS.160         	5.69           	7.551
MS.161         	5.68           	7.41
MS.162         	5.668          	6.975
MS.163         	5.657          	7.328
MS.164         	5.645          	7.108
MS.165         	5.635          	6.939
MS.166         	5.622          	6.365
MS.167         	5.612          	6.413
MS.168         	5.6            	6.526
MS.169         	5.59           	6.514
MS.170         	5.577          	6.278
MS.171         	5.567          	6.238
MS.172         	5.555          	6.258
MS.173         	5.545          	6.087
MS.174         	5.535          	5.519
MS.175         	5.523          	5.835
MS.176         	5.512          	5.454
MS.177         	5.5            	6.202
MS.178         	5.49           	5.499
MS.179         	5.48           	5.662
MS.180         	5.467          	5.112
MS.181         	5.457          	5.311
MS.182         	5.445          	4.987
MS.183         	5.435          	4.721
MS.184         	5.425          	4.614
MS.185         	5.412          	4.778
MS.186         	5.402          	4.868
MS.187         	5.392          	4.582
MS.188         	5.38           	4.482
MS.189         	5.37           	3.936
MS.190         	5.36           	3.887
MS.191         	5.35           	4.278
MS.192         	5.338          	4.572
MS.193         	5.327          	3.676
MS.194         	5.318          	4.391
MS.195         	5.307          	3.615
MS.196         	5.295          	3.758
MS.197         	5.285          	3.392
MS.198         	5.275          	3.426
MS.199         	5.265          	3.922
MS.200         	5.253          	3.249
MS.201         	5.242          	3.072
MS.202         	5.233          	3.718
MS.203         	5.222          	3.14
MS.204         	5.213          	2.981
MS.205         	5.2            	2.828
MS.206         	5.19           	2.977
MS.207         	5.18           	3.082
MS.208         	5.17           	3.019
MS.209         	5.16           	2.695
MS.210         	5.15           	2.792
MS.211         	5.14           	2.759
MS.212         	5.13           	2.427
MS.213         	5.117          	2.896
MS.214         	5.108          	2.747
MS.215         	5.097          	2.689
MS.216         	5.088          	2.655
MS.217         	5.077          	2.296
MS.218         	5.068          	2.246
MS.219         	5.057          	1.917
MS.220         	5.047          	2.197
MS.221         	5.037          	2.185
MS.222         	5.027          	2.105
MS.223         	5.017          	2.165
MS.224         	5.007          	1.648
MS.225         	4.997          	1.503
MS.226         	4.987          	1.644
MS.227         	4.977          	1.418
MS.228         	4.967          	1.551
MS.229         	4.957          	1.245
MS.230         	4.947          	1.46
MS.231         	4.938          	1.019
MS.232         	4.927          	1.122
MS.233         	4.918          	1.049
MS.234         	4.907          	1.116
MS.235         	4.898          	1.013
MS.236         	4.887          	1.18
MS.237         	4.88           	1.049
MS.238         	4.87           	1.293
MS.239         	4.86           	0.898
MS.240         	4.85           	0.939
MS.241         	4.84           	0.929
MS.242         	4.83           	1.023
MS.243         	4.82           	0.796
MS.244         	4.81           	0.983
MS.245         	4.802          	0.929
MS.246         	4.793          	0.779
MS.247         	4.782          	0.775
MS.248         	4.773          	0.84
MS.249         	4.762          	0.753
MS.250         	4.753          	0.814
MS.251         	4.745          	0.727
MS.252         	4.735          	0.717
MS.253         	4.725          	0.868
MS.254         	4.715          	0.723
MS.255         	4.707          	0.755
MS.256         	4.697          	0.715
MS.257         	4.688          	0.749
MS.258         	4.677          	0.749
MS.259         	4.67           	0.723
MS.260         	4.66           	0.697
MS.261         	4.65           	0.796
MS.262         	4.64           	0.832
MS.263         	4.632          	0.775
MS.264         	4.622          	0.725
MS.265         	4.612          	0.63
MS.266         	4.605          	0.643
MS.267         	4.595          	0.655
MS.268         	4.585          	0.655
MS.269         	4.577          	0.703
MS.270         	4.568          	0.657
MS.271         	4.557          	0.659
MS.272         	4.55           	0.618
MS.273         	4.54           	0.578
MS.274         	4.53           	0.628
MS.275         	4.523          	0.61
MS.276         	4.512          	0.628
MS.277         	4.503          	0.618
MS.278         	4.495          	0.614
MS.279         	4.485          	0.608
MS.280         	4.477          	0.638
MS.281         	4.467          	0.61
MS.282         	4.46           	0.616
MS.283         	4.45           	0.641
MS.284         	4.44           	0.612
MS.285         	4.432          	0.634
MS.286         	4.423          	0.57
MS.287         	4.415          	0.61
MS.288         	4.405          	0.61
MS.289         	4.398          	0.612
MS.290         	4.387          	0.61
MS.291         	4.38           	0.643
MS.292         	4.37           	0.618
MS.293         	4.362          	0.622
MS.294         	4.352          	0.618
MS.295         	4.345          	0.562
MS.296         	4.335          	0.608
MS.297         	4.327          	0.564
MS.298         	4.318          	0.568
MS.299         	4.31           	0.55
MS.300         	4.3            	0.554
MS.301         	4.293          	0.614
MS.302         	4.285          	0.612
MS.303         	4.275          	0.6
MS.304         	4.267          	0.552
MS.305         	4.257          	0.57
MS.306         	4.25           	0.612
MS.307         	4.242          	0.596
MS.308         	4.233          	0.568
MS.309         	4.225          	0.606
MS.310         	4.215          	0.552
MS.311         	4.207          	0.548
MS.312         	4.2            	0.477
MS.313         	4.19           	0.526
MS.314         	4.182          	0.554
MS.315         	4.175          	0.558
MS.316         	4.165          	0.479
MS.317         	4.157          	0.433
MS.318         	4.15           	0.502
MS.319         	4.14           	0.477
MS.320         	4.132          	0.508
MS.321         	4.125          	0.572
MS.322         	4.115          	0.493
MS.323         	4.108          	0.514
MS.324         	4.1            	0.504
MS.325         	4.092          	0.489
MS.326         	4.082          	0.516
MS.327         	4.075          	0.568
MS.328         	4.068          	0.491
MS.329         	4.06           	0.443
MS.330         	4.05           	0.439
MS.331         	4.043          	0.437
MS.332         	4.035          	0.439
MS.333         	4.027          	0.433
MS.334         	4.017          	0.435
MS.335         	4.01           	0.431
MS.336         	4.003          	0.431
MS.337         	3.995          	0.443
MS.338         	3.987          	0.437
MS.339         	3.977          	0.433
MS.340         	3.97           	0.441
MS.341         	3.962          	0.449
MS.342         	3.955          	0.435
MS.343         	3.947          	0.435
MS.344         	3.94           	0.433
MS.345         	3.93           	0.437
MS.346         	3.922          	0.437
MS.347         	3.915          	0.439
MS.348         	3.908          	0.443
MS.349         	3.9            	0.445
MS.350         	3.892          	0.439
MS.351         	3.885          	0.304
MS.352         	3.877          	0.429
MS.353         	3.867          	0.441
MS.354         	3.86           	0.431
MS.355         	3.852          	0.439
MS.356         	3.845          	0.306
MS.357         	3.837          	0.445
MS.358         	3.83           	0.441
MS.359         	3.822          	0.441
MS.360         	3.815          	0.308
MS.361         	3.807          	0.302
MS.362         	3.8            	0.298
MS.363         	3.793          	0.443
MS.364         	3.785          	0.298
MS.365         	3.777          	0.449
MS.366         	3.77           	0.302
MS.367         	3.762          	0.3
MS.368         	3.755          	0.3
MS.369         	3.747          	0.3
MS.370         	3.74           	0.439
MS.371         	3.732          	0.306
MS.372         	3.725          	0.449
MS.373         	3.717          	0.304
MS.374         	3.71           	0.441
MS.375         	3.702          	0.3
MS.376         	3.695          	0.294
MS.377         	3.688          	0.3
MS.378         	3.68           	0.302
MS.379         	3.672          	0.306
MS.380         	3.665          	0.308
MS.381         	3.658          	0.29
MS.382         	3.65           	0.3
MS.383         	3.642          	0.443
MS.384         	3.635          	0.29
MS.385         	3.63           	0.302
MS.386         	3.622          	0.302
MS.387         	3.615          	0.292
MS.388         	3.607          	0.29
MS.389         	3.6            	0.29
MS.390         	3.592          	0.294
MS.391         	3.585          	0.302
MS.392         	3.577          	0.292
MS.393         	3.57           	0.288
MS.394         	3.565          	0.3
MS.395         	3.557          	0.304
MS.396         	3.55           	0.292
MS.397         	3.543          	0.296
MS.398         	3.535          	0.296
MS.399         	3.527          	0.29
MS.400         	3.523          	0.29
MS.401         	3.515          	0.3
MS.402         	3.507          	0.238
MS.403         	3.5            	0.242
MS.404         	3.492          	0.248
MS.405         	3.487          	0.244
MS.406         	3.48           	0.306
MS.407         	3.472          	0.24
MS.408         	3.465          	0.29
MS.409         	3.457          	0.236
MS.410         	3.452          	0.238
MS.411         	3.445          	0.24
MS.412         	3.438          	0.242
MS.413         	3.43           	0.24
MS.414         	3.425          	0.298
MS.415         	3.418          	0.242
MS.416         	3.41           	0.246
MS.417         	3.405          	0.242
MS.418         	3.398          	0.302
MS.419         	3.39           	0.3
MS.420         	3.382          	0.24
MS.421         	3.377          	0.242
MS.422         	3.37           	0.242
MS.423         	3.362          	0.242
MS.424         	3.357          	0.171
MS.425         	3.35           	0.242
MS.426         	3.342          	0.173
MS.427         	3.337          	0.179
MS.428         	3.33           	0.248
MS.429         	3.322          	0.244
MS.430         	3.317          	0.234
MS.431         	3.31           	0.246
MS.432         	3.303          	0.24
MS.433         	3.297          	0.087
MS.434         	3.29           	0.24
MS.435         	3.283          	0.028
MS.436         	3.277          	0.179
MS.437         	3.27           	0.236
MS.438         	3.265          	0.026
MS.439         	3.257          	0.244
MS.440         	3.25           	0.028
MS.441         	3.245          	0.179
MS.442         	3.237          	0.022
MS.443         	3.232          	0.024
MS.444         	3.225          	0.024
MS.445         	3.217          	0.022
MS.446         	3.212          	0.177
MS.447         	3.205          	0.024
MS.448         	3.2            	0.169
MS.449         	3.192          	0.024
MS.450         	3.188          	0.026
MS.451         	3.18           	0.024
MS.452         	3.172          	0.024
MS.453         	3.168          	0.022
MS.454         	3.16           	0.022
MS.455         	3.155          	0.022
MS.456         	3.148          	0.024
MS.457         	3.142          	0.022
MS.458         	3.135          	0.022
MS.459         	3.13           	0.024
MS.460         	3.122          	0.024
MS.461         	3.117          	0.022
MS.462         	3.11           	0.022
MS.463         	3.105          	0.171
MS.464         	3.097          	0.02
MS.465         	3.092          	0.022
MS.466         	3.085          	0.024
MS.467         	3.08           	0.024
MS.468         	3.075          	0.024
MS.469         	3.067          	0.028
MS.470         	3.062          	0.022
MS.471         	3.055          	0.024
MS.472         	3.05           	0.026
MS.473         	3.043          	0.026
MS.474         	3.037          	0.022
MS.475         	3.03           	0.026
MS.476         	3.025          	0.02
MS.477         	3.02           	0.02
MS.478         	3.013          	0.026
MS.479         	3.007          	0.026
MS.480         	3              	0.022
MS.481         	2.995          	0.022
MS.482         	2.99           	0.022
MS.483         	2.982          	0.022
MS.484         	2.977          	0.02
MS.485         	2.97           	0.024
MS.486         	2.965          	0.02
MS.487         	2.96           	0.022
MS.488         	2.952          	0.026
MS.489         	2.947          	0.024
DERIVED EXCITABILITY VARIABLES
Program = QTracP 3/4/2020
Threshold method = 6 (optimised for CAP, using data for present condition only)
SR method = 1 (using actual data values)
6.                 	0.000               	Peak response\(mV)
9.                 	30.1                	Temperature ( C)
