File:              	C:\Qtrac\Data\Daniel M Sørensen\MScan multicentre study\Data from centres\Oslo\IronKey\Oslo_NC_first examination\SZC00527A.QZD
Name:              	NO.OSL.NC.13.1
Protocol:          	MSCAN-R2
Date:              	27/5/20
Start time:        	16:18:30
Age:               	33
Sex:               	M
Temperature:       	32.8
S/R sites:         	Median Wr-APB
NC/disease:        	NC13
Operator:          	SZ
Comments:          	Test1
M-SCAN DATA (9.7-5.7m)
Scanpts: 49, 53, 398, 403
Stim. (mA)     	Amp. (mV)
MS.1           	22.5           	13.976
MS.2           	22.5           	13.996
MS.3           	22.5           	14.01
MS.4           	22.5           	13.996
MS.5           	22.5           	13.892
MS.6           	22.5           	14.015
MS.7           	22.5           	14.013
MS.8           	22.5           	14.039
MS.9           	22.5           	14.047
MS.10          	22.5           	14.071
MS.11          	22.5           	14.073
MS.12          	22.5           	14.083
MS.13          	22.5           	14.091
MS.14          	22.5           	14.101
MS.15          	22.5           	14.081
MS.16          	22.5           	14.107
MS.17          	22.5           	14.103
MS.18          	22.5           	14.129
MS.19          	22.5           	14.151
MS.20          	22.5           	14.145
MS.21          	22.5           	14.164
MS.22          	22.5           	14.149
MS.23          	22.5           	14.18
MS.24          	22.41          	14.156
MS.25          	22.365         	14.18
MS.26          	22.32          	14.075
MS.27          	22.275         	14.069
MS.28          	22.233         	14.089
MS.29          	22.188         	14.089
MS.30          	22.142         	14.107
MS.31          	22.097         	14.097
MS.32          	22.055         	14.089
MS.33          	22.01          	14.127
MS.34          	21.967         	14.131
MS.35          	21.922         	14.172
MS.36          	21.877         	14.151
MS.37          	21.835         	14.164
MS.38          	21.792         	14.156
MS.39          	21.747         	14.16
MS.40          	21.705         	14.158
MS.41          	21.66          	14.176
MS.42          	21.618         	14.164
MS.43          	21.575         	14.192
MS.44          	21.532         	14.19
MS.45          	21.487         	14.174
MS.46          	21.445         	14.184
MS.47          	21.403         	14.208
MS.48          	21.36          	14.196
MS.49          	21.317         	14.206
MS.50          	21.275         	14.204
MS.51          	21.233         	14.216
MS.52          	21.19          	14.202
MS.53          	21.147         	14.214
MS.54          	21.105         	14.226
MS.55          	21.062         	14.216
MS.56          	21.02          	14.222
MS.57          	20.98          	14.25
MS.58          	20.938         	14.051
MS.59          	20.895         	14.236
MS.60          	20.852         	14.266
MS.61          	20.812         	14.26
MS.62          	20.77          	14.256
MS.63          	20.727         	13.928
MS.64          	20.688         	14.008
MS.65          	20.645         	14.147
MS.66          	20.605         	14.137
MS.67          	20.562         	13.928
MS.68          	20.522         	13.96
MS.69          	20.483         	14.301
MS.70          	20.44          	14.017
MS.71          	20.4           	14.16
MS.72          	20.36          	13.839
MS.73          	20.317         	13.628
MS.74          	20.278         	13.847
MS.75          	20.237         	13.849
MS.76          	20.198         	13.797
MS.77          	20.155         	13.843
MS.78          	20.115         	13.831
MS.79          	20.075         	13.841
MS.80          	20.035         	13.636
MS.81          	19.995         	13.638
MS.82          	19.955         	14.033
MS.83          	19.915         	13.753
MS.84          	19.875         	13.835
MS.85          	19.837         	13.829
MS.86          	19.797         	13.769
MS.87          	19.757         	13.6
MS.88          	19.717         	13.577
MS.89          	19.677         	13.64
MS.90          	19.64          	13.608
MS.91          	19.6           	13.602
MS.92          	19.56          	13.537
MS.93          	19.522         	13.577
MS.94          	19.483         	13.596
MS.95          	19.442         	13.551
MS.96          	19.405         	13.497
MS.97          	19.365         	13.503
MS.98          	19.327         	13.535
MS.99          	19.288         	13.517
MS.100         	19.25          	13.515
MS.101         	19.212         	13.511
MS.102         	19.172         	13.471
MS.103         	19.135         	13.489
MS.104         	19.097         	13.539
MS.105         	19.057         	13.519
MS.106         	19.02          	13.489
MS.107         	18.983         	13.475
MS.108         	18.945         	13.43
MS.109         	18.907         	13.082
MS.110         	18.87          	13.422
MS.111         	18.83          	13.453
MS.112         	18.792         	13.507
MS.113         	18.755         	12.921
MS.114         	18.717         	13.124
MS.115         	18.68          	13.465
MS.116         	18.645         	13.092
MS.117         	18.608         	13.005
MS.118         	18.57          	12.999
MS.119         	18.532         	13.152
MS.120         	18.495         	12.766
MS.121         	18.458         	12.685
MS.122         	18.422         	12.939
MS.123         	18.385         	12.568
MS.124         	18.347         	12.403
MS.125         	18.31          	12.836
MS.126         	18.275         	12.54
MS.127         	18.237         	12.347
MS.128         	18.202         	12.258
MS.129         	18.165         	11.93
MS.130         	18.13          	12.254
MS.131         	18.092         	12.075
MS.132         	18.057         	11.98
MS.133         	18.02          	12.141
MS.134         	17.985         	11.523
MS.135         	17.948         	11.662
MS.136         	17.913         	11.559
MS.137         	17.878         	11.807
MS.138         	17.84          	11.662
MS.139         	17.805         	11.491
MS.140         	17.77          	11.406
MS.141         	17.735         	11.169
MS.142         	17.7           	11.052
MS.143         	17.663         	11.406
MS.144         	17.628         	10.951
MS.145         	17.592         	10.52
MS.146         	17.557         	11.271
MS.147         	17.522         	10.494
MS.148         	17.487         	10.679
MS.149         	17.452         	10.355
MS.150         	17.417         	10.147
MS.151         	17.382         	10.323
MS.152         	17.347         	10.466
MS.153         	17.315         	9.863
MS.154         	17.28          	10.041
MS.155         	17.245         	9.873
MS.156         	17.21          	9.652
MS.157         	17.175         	9.624
MS.158         	17.142         	9.283
MS.159         	17.108         	9.285
MS.160         	17.073         	8.993
MS.161         	17.04          	9.021
MS.162         	17.005         	8.84
MS.163         	16.97          	8.923
MS.164         	16.938         	8.78
MS.165         	16.903         	8.683
MS.166         	16.87          	7.996
MS.167         	16.835         	8.689
MS.168         	16.802         	8.182
MS.169         	16.767         	8.173
MS.170         	16.735         	8.081
MS.171         	16.702         	7.839
MS.172         	16.667         	7.309
MS.173         	16.635         	7.914
MS.174         	16.602         	7.481
MS.175         	16.567         	7.481
MS.176         	16.535         	6.842
MS.177         	16.503         	7.191
MS.178         	16.47          	6.991
MS.179         	16.438         	7.039
MS.180         	16.405         	6.621
MS.181         	16.37          	6.637
MS.182         	16.337         	6.202
MS.183         	16.305         	6.953
MS.184         	16.272         	5.998
MS.185         	16.24          	6.445
MS.186         	16.208         	5.841
MS.187         	16.175         	5.793
MS.188         	16.142         	5.325
MS.189         	16.11          	5.704
MS.190         	16.08          	5.45
MS.191         	16.047         	5.098
MS.192         	16.015         	5.257
MS.193         	15.983         	5.197
MS.194         	15.95          	5.221
MS.195         	15.92          	4.965
MS.196         	15.887         	5.033
MS.197         	15.855         	5.029
MS.198         	15.822         	4.776
MS.199         	15.792         	4.633
MS.200         	15.76          	4.747
MS.201         	15.73          	4.457
MS.202         	15.697         	4.719
MS.203         	15.667         	4.6
MS.204         	15.635         	4.355
MS.205         	15.602         	4.318
MS.206         	15.572         	4.336
MS.207         	15.542         	4.369
MS.208         	15.51          	4.286
MS.209         	15.48          	4.161
MS.210         	15.447         	4.153
MS.211         	15.417         	4.097
MS.212         	15.387         	4.024
MS.213         	15.355         	3.704
MS.214         	15.325         	3.664
MS.215         	15.295         	3.706
MS.216         	15.265         	3.458
MS.217         	15.233         	3.595
MS.218         	15.202         	3.579
MS.219         	15.172         	3.484
MS.220         	15.142         	3.559
MS.221         	15.112         	3.162
MS.222         	15.082         	3.166
MS.223         	15.052         	2.898
MS.224         	15.023         	3.013
MS.225         	14.992         	3.116
MS.226         	14.962         	3.041
MS.227         	14.932         	3.078
MS.228         	14.902         	3.116
MS.229         	14.872         	2.699
MS.230         	14.842         	2.635
MS.231         	14.812         	2.628
MS.232         	14.782         	2.516
MS.233         	14.755         	2.377
MS.234         	14.725         	2.417
MS.235         	14.695         	2.387
MS.236         	14.665         	2.214
MS.237         	14.637         	2.201
MS.238         	14.608         	2.282
MS.239         	14.577         	2.359
MS.240         	14.55          	2.26
MS.241         	14.52          	1.956
MS.242         	14.49          	2.232
MS.243         	14.462         	2.006
MS.244         	14.432         	1.847
MS.245         	14.405         	1.791
MS.246         	14.375         	1.754
MS.247         	14.347         	1.889
MS.248         	14.318         	1.72
MS.249         	14.29          	1.601
MS.250         	14.26          	1.754
MS.251         	14.233         	1.48
MS.252         	14.205         	1.503
MS.253         	14.175         	1.412
MS.254         	14.148         	1.382
MS.255         	14.12          	1.503
MS.256         	14.09          	1.337
MS.257         	14.062         	1.309
MS.258         	14.035         	1.452
MS.259         	14.007         	1.309
MS.260         	13.977         	1.354
MS.261         	13.95          	1.164
MS.262         	13.922         	1.243
MS.263         	13.895         	1.196
MS.264         	13.867         	1.17
MS.265         	13.84          	1.146
MS.266         	13.812         	1.118
MS.267         	13.785         	1.098
MS.268         	13.757         	1.015
MS.269         	13.73          	1.045
MS.270         	13.702         	0.957
MS.271         	13.675         	1.041
MS.272         	13.648         	0.943
MS.273         	13.62          	0.924
MS.274         	13.592         	0.864
MS.275         	13.565         	0.945
MS.276         	13.537         	0.868
MS.277         	13.51          	1.108
MS.278         	13.485         	0.82
MS.279         	13.457         	0.894
MS.280         	13.43          	0.824
MS.281         	13.403         	0.888
MS.282         	13.377         	0.866
MS.283         	13.35          	0.767
MS.284         	13.322         	0.703
MS.285         	13.297         	0.751
MS.286         	13.27          	0.757
MS.287         	13.242         	0.775
MS.288         	13.217         	0.745
MS.289         	13.19          	0.757
MS.290         	13.165         	0.802
MS.291         	13.137         	0.713
MS.292         	13.112         	0.808
MS.293         	13.085         	0.757
MS.294         	13.06          	0.681
MS.295         	13.032         	0.6
MS.296         	13.007         	0.6
MS.297         	12.983         	0.715
MS.298         	12.955         	0.701
MS.299         	12.93          	0.749
MS.300         	12.903         	0.584
MS.301         	12.877         	0.624
MS.302         	12.852         	0.679
MS.303         	12.827         	0.663
MS.304         	12.8           	0.479
MS.305         	12.775         	0.628
MS.306         	12.75          	0.57
MS.307         	12.725         	0.508
MS.308         	12.7           	0.457
MS.309         	12.672         	0.369
MS.310         	12.648         	0.647
MS.311         	12.622         	0.485
MS.312         	12.597         	0.423
MS.313         	12.572         	0.306
MS.314         	12.547         	0.504
MS.315         	12.523         	0.28
MS.316         	12.497         	0.278
MS.317         	12.472         	0.28
MS.318         	12.447         	0.254
MS.319         	12.422         	0.26
MS.320         	12.398         	0.3
MS.321         	12.372         	0.276
MS.322         	12.347         	0.383
MS.323         	12.322         	0.246
MS.324         	12.3           	0.276
MS.325         	12.275         	0.296
MS.326         	12.25          	0.173
MS.327         	12.225         	0.183
MS.328         	12.2           	0.185
MS.329         	12.177         	0.183
MS.330         	12.153         	0.129
MS.331         	12.127         	0.199
MS.332         	12.102         	0.183
MS.333         	12.08          	0.127
MS.334         	12.055         	0.123
MS.335         	12.032         	0.131
MS.336         	12.007         	0.185
MS.337         	11.983         	0.137
MS.338         	11.96          	0.187
MS.339         	11.935         	0.133
MS.340         	11.912         	0.131
MS.341         	11.887         	0.117
MS.342         	11.865         	0.135
MS.343         	11.84          	0.135
MS.344         	11.818         	0.107
MS.345         	11.792         	0.127
MS.346         	11.77          	0.109
MS.347         	11.745         	0.133
MS.348         	11.722         	0.089
MS.349         	11.7           	0.099
MS.350         	11.675         	0.087
MS.351         	11.653         	0.097
MS.352         	11.63          	0.109
MS.353         	11.605         	0.087
MS.354         	11.582         	0.097
MS.355         	11.56          	0.062
MS.356         	11.537         	0.083
MS.357         	11.512         	0.107
MS.358         	11.49          	0.101
MS.359         	11.467         	0.117
MS.360         	11.445         	0.066
MS.361         	11.422         	0.042
MS.362         	11.4           	0.062
MS.363         	11.375         	0.095
MS.364         	11.352         	0.066
MS.365         	11.33          	0.068
MS.366         	11.307         	0.091
MS.367         	11.285         	0.038
MS.368         	11.262         	0.034
MS.369         	11.24          	0.042
MS.370         	11.217         	0.042
MS.371         	11.195         	0.073
MS.372         	11.172         	0.038
MS.373         	11.15          	0.032
MS.374         	11.127         	0.034
MS.375         	11.108         	0.062
MS.376         	11.085         	0.036
MS.377         	11.062         	0.038
MS.378         	11.04          	0.024
MS.379         	11.017         	0.046
MS.380         	10.995         	0.044
MS.381         	10.975         	0.032
MS.382         	10.952         	0.026
MS.383         	10.93          	0.044
MS.384         	10.907         	0.036
MS.385         	10.887         	0.032
MS.386         	10.865         	0.044
MS.387         	10.842         	0.04
MS.388         	10.82          	0.026
MS.389         	10.8           	0.03
MS.390         	10.778         	0.038
MS.391         	10.757         	0.038
MS.392         	10.735         	0.03
MS.393         	10.712         	0.034
MS.394         	10.693         	0.036
MS.395         	10.67          	0.03
MS.396         	10.65          	0.034
MS.397         	10.627         	0.036
MS.398         	10.608         	0.028
MS.399         	10.585         	0.036
MS.400         	10.565         	0.036
MS.401         	10.542         	0.036
MS.402         	10.523         	0.036
MS.403         	10.502         	0.032
MS.404         	10.48          	0.034
MS.405         	10.46          	0.032
MS.406         	10.438         	0.034
MS.407         	10.417         	0.032
MS.408         	10.398         	0.038
MS.409         	10.375         	0.036
MS.410         	10.355         	0.028
MS.411         	10.335         	0.038
MS.412         	10.315         	0.04
MS.413         	10.292         	0.034
MS.414         	10.273         	0.036
MS.415         	10.252         	0.032
MS.416         	10.233         	0.032
MS.417         	10.212         	0.03
MS.418         	10.19          	0.034
MS.419         	10.17          	0.032
MS.420         	10.15          	0.038
MS.421         	10.13          	0.038
MS.422         	10.11          	0.038
MS.423         	10.09          	0.042
MS.424         	10.07          	0.04
MS.425         	10.05          	0.034
MS.426         	10.03          	0.042
MS.427         	10.01          	0.04
MS.428         	9.99           	0.032
MS.429         	9.97           	0.036
MS.430         	9.95           	0.034
MS.431         	9.93           	0.034
MS.432         	9.91           	0.032
MS.433         	9.89           	0.038
MS.434         	9.87           	0.034
MS.435         	9.85           	0.032
MS.436         	9.83           	0.038
MS.437         	9.81           	0.034
MS.438         	9.792          	0.038
MS.439         	9.773          	0.04
MS.440         	9.752          	0.04
MS.441         	9.733          	0.034
MS.442         	9.712          	0.038
MS.443         	9.695          	0.038
MS.444         	9.675          	0.038
MS.445         	9.655          	0.038
MS.446         	9.635          	0.042
DERIVED EXCITABILITY VARIABLES
Program = QTracP 3/4/2020
Threshold method = 6 (optimised for CAP, using data for present condition only)
SR method = 1 (using actual data values)
6.                 	0.000               	Peak response\(mV)
9.                 	32.8                	Temperature ( C)
17.                	33                  	Age (years)
18.                	1                   	Sex (M=1, F=2)

EXTRA VARIABLES

MScPeak(mV) = 14.03
MScS5(mA) = 12.98
MScS50(mA) = 16.49
MScS95(mA) = 18.79
MScNSteps = 5
MScSteps(%) = 12.9
MScStepMax(%) = 3.6
MScD50 = 37
MScSlope = 7.05
MSFPeakAmp(mV) = 14.2
MSFNUnits = 166
MSFMeanUnitAmp(uV) = 85.4
MSFHuntTime(m) = 2.66
MSFError(%) = 4.18
MSFNLarge = 53.69
MSFMedianAmp(%) = 0.557
MSFMedianAmp(mV) = 0.079
MSFHalfAmpAmp(%) = 0.671
MSFHalfAmpAmp(mV) = 0.0951
MSFLargestAmp(%) = 2.6
MSFLargestAmp(mV) = 0.369
MSFMeanRS(%) = 2
MSFOpts = 10106121
MScDuration(min) = 4
MSFTraces = 355
MSFSizeLimit(uV) = 35.4
MSFLimitType = 1
MSFSmallestAmp(uV) = 36.3

EXTRA WAVEFORMS


!MScan Model
!166
	1	11.41	0.28	2
	2	12.01	0.53	2
	3	12.21	0.41	2
	4	12.36	0.41	2
	5	12.48	0.6	2
	6	12.64	0.8	2
	7	12.75	0.79	2
	8	12.97	0.94	2
	9	13.28	0.59	2
	10	13.37	0.3	2
	11	13.57	0.74	2
	12	13.65	0.41	2
	13	13.73	0.38	2
	14	13.81	0.53	2
	15	13.86	0.32	2
	16	13.92	0.49	2
	17	13.97	0.36	2
	18	14.01	0.31	2
	19	14.06	0.34	2
	20	14.1	0.33	2
	21	14.14	0.29	2
	22	14.17	0.32	2
	23	14.21	0.34	2
	24	14.25	0.48	2
	25	14.28	0.26	2
	26	14.3	0.28	2
	27	14.33	0.31	2
	28	14.35	0.34	2
	29	14.37	0.34	2
	30	14.41	0.47	2
	31	14.44	0.44	2
	32	14.47	0.41	2
	33	14.52	0.5	2
	34	14.56	0.62	2
	35	14.61	0.66	2
	36	14.66	0.48	2
	37	14.7	0.42	2
	38	14.71	0.26	2
	39	14.73	0.26	2
	40	14.75	0.26	2
	41	14.77	0.31	2
	42	14.79	0.38	2
	43	14.82	0.7	2
	44	14.86	0.55	2
	45	14.9	0.41	2
	46	14.94	0.59	2
	47	14.98	0.62	2
	48	15.02	0.64	2
	49	15.06	0.63	2
	50	15.1	0.65	2
