File:              	C:\Qtrac\Data\Daniel M Sørensen\MScan multicentre study\Data from centres\Oslo\Processed data\SZC00505A.QZD
Name:              	NO.OSL.NC.2.2
Protocol:          	MSCAN-R2
Date:              	5/5/20
Start time:        	15:59:42
Age:               	41
Sex:               	F
Temperature:       	34.4
S/R sites:         	APB
NC/disease:        	NC2
Operator:          	SZ
Comments:          	test2
M-SCAN DATA (7.5-2.9m)
Scanpts: 108, 117, 450, 456
Stim. (mA)     	Amp. (mV)
MS.1           	11             	8.953
MS.2           	11             	8.957
MS.3           	11             	8.967
MS.4           	11             	8.939
MS.5           	11             	8.935
MS.6           	11             	8.905
MS.7           	11             	8.941
MS.8           	11             	8.945
MS.9           	11             	8.905
MS.10          	11             	8.935
MS.11          	11             	8.941
MS.12          	11             	8.939
MS.13          	11             	8.949
MS.14          	11             	8.937
MS.15          	11             	8.955
MS.16          	11             	8.941
MS.17          	11             	8.945
MS.18          	11             	8.949
MS.19          	11             	8.931
MS.20          	11             	8.959
MS.21          	11             	8.953
MS.22          	11             	8.941
MS.23          	11             	8.961
MS.24          	10.955         	8.937
MS.25          	10.935         	8.913
MS.26          	10.912         	8.933
MS.27          	10.89          	8.929
MS.28          	10.867         	8.927
MS.29          	10.847         	8.901
MS.30          	10.825         	8.933
MS.31          	10.802         	8.913
MS.32          	10.782         	8.899
MS.33          	10.76          	8.886
MS.34          	10.74          	8.878
MS.35          	10.717         	8.884
MS.36          	10.695         	8.872
MS.37          	10.675         	8.893
MS.38          	10.653         	8.897
MS.39          	10.632         	8.888
MS.40          	10.61          	8.888
MS.41          	10.59          	8.895
MS.42          	10.568         	8.897
MS.43          	10.547         	8.927
MS.44          	10.528         	8.886
MS.45          	10.505         	8.893
MS.46          	10.485         	8.888
MS.47          	10.462         	8.891
MS.48          	10.443         	8.897
MS.49          	10.422         	8.891
MS.50          	10.4           	8.899
MS.51          	10.38          	8.899
MS.52          	10.36          	8.895
MS.53          	10.337         	8.888
MS.54          	10.318         	8.897
MS.55          	10.297         	8.884
MS.56          	10.278         	8.893
MS.57          	10.257         	8.891
MS.58          	10.235         	8.893
MS.59          	10.215         	8.878
MS.60          	10.195         	8.884
MS.61          	10.175         	8.891
MS.62          	10.155         	8.895
MS.63          	10.135         	8.888
MS.64          	10.113         	8.882
MS.65          	10.092         	8.884
MS.66          	10.073         	8.884
MS.67          	10.052         	8.891
MS.68          	10.032         	8.878
MS.69          	10.012         	8.774
MS.70          	9.992          	8.874
MS.71          	9.972          	8.864
MS.72          	9.952          	8.87
MS.73          	9.932          	8.878
MS.74          	9.912          	8.878
MS.75          	9.892          	8.876
MS.76          	9.875          	8.766
MS.77          	9.855          	8.874
MS.78          	9.835          	8.878
MS.79          	9.815          	8.766
MS.80          	9.795          	8.77
MS.81          	9.775          	8.878
MS.82          	9.755          	8.884
MS.83          	9.738          	8.788
MS.84          	9.717          	8.77
MS.85          	9.698          	8.772
MS.86          	9.677          	8.88
MS.87          	9.66           	8.78
MS.88          	9.64           	8.774
MS.89          	9.62           	8.764
MS.90          	9.6            	8.88
MS.91          	9.582          	8.895
MS.92          	9.562          	8.764
MS.93          	9.545          	8.768
MS.94          	9.525          	8.788
MS.95          	9.505          	8.776
MS.96          	9.488          	8.782
MS.97          	9.467          	8.772
MS.98          	9.45           	8.772
MS.99          	9.43           	8.774
MS.100         	9.41           	8.772
MS.101         	9.392          	8.76
MS.102         	9.372          	8.794
MS.103         	9.355          	8.772
MS.104         	9.335          	8.768
MS.105         	9.318          	8.79
MS.106         	9.3            	8.778
MS.107         	9.28           	8.778
MS.108         	9.262          	8.782
MS.109         	9.242          	8.782
MS.110         	9.225          	8.786
MS.111         	9.207          	8.77
MS.112         	9.188          	8.812
MS.113         	9.17           	8.768
MS.114         	9.153          	8.774
MS.115         	9.132          	8.768
MS.116         	9.115          	8.77
MS.117         	9.097          	8.78
MS.118         	9.077          	8.78
MS.119         	9.06           	8.79
MS.120         	9.042          	8.778
MS.121         	9.025          	8.786
MS.122         	9.005          	8.768
MS.123         	8.988          	8.76
MS.124         	8.97           	8.717
MS.125         	8.952          	8.798
MS.126         	8.935          	8.772
MS.127         	8.917          	8.798
MS.128         	8.898          	8.725
MS.129         	8.88           	8.699
MS.130         	8.863          	8.705
MS.131         	8.845          	8.758
MS.132         	8.827          	8.778
MS.133         	8.81           	8.774
MS.134         	8.792          	8.8
MS.135         	8.775          	8.788
MS.136         	8.757          	8.8
MS.137         	8.74           	8.705
MS.138         	8.722          	8.717
MS.139         	8.705          	8.8
MS.140         	8.688          	8.713
MS.141         	8.67           	8.782
MS.142         	8.653          	8.79
MS.143         	8.635          	8.796
MS.144         	8.617          	8.697
MS.145         	8.6            	8.693
MS.146         	8.585          	8.655
MS.147         	8.568          	8.665
MS.148         	8.55           	8.681
MS.149         	8.533          	8.715
MS.150         	8.515          	8.675
MS.151         	8.497          	8.693
MS.152         	8.483          	8.715
MS.153         	8.465          	8.687
MS.154         	8.448          	8.667
MS.155         	8.43           	8.683
MS.156         	8.415          	8.693
MS.157         	8.398          	8.701
MS.158         	8.38           	8.691
MS.159         	8.363          	8.695
MS.160         	8.347          	8.697
MS.161         	8.33           	8.689
MS.162         	8.312          	8.679
MS.163         	8.297          	8.675
MS.164         	8.28           	8.673
MS.165         	8.265          	8.683
MS.166         	8.247          	8.639
MS.167         	8.23           	8.631
MS.168         	8.215          	8.645
MS.169         	8.198          	8.659
MS.170         	8.182          	8.615
MS.171         	8.165          	8.645
MS.172         	8.15           	8.637
MS.173         	8.132          	8.643
MS.174         	8.117          	8.586
MS.175         	8.1            	8.653
MS.176         	8.085          	8.582
MS.177         	8.068          	8.663
MS.178         	8.052          	8.578
MS.179         	8.035          	8.57
MS.180         	8.02           	8.584
MS.181         	8.002          	8.548
MS.182         	7.987          	8.665
MS.183         	7.972          	8.643
MS.184         	7.955          	8.655
MS.185         	7.94           	8.625
MS.186         	7.925          	8.522
MS.187         	7.907          	8.468
MS.188         	7.892          	8.607
MS.189         	7.878          	8.582
MS.190         	7.86           	8.6
MS.191         	7.845          	8.655
MS.192         	7.83           	8.52
MS.193         	7.815          	8.484
MS.194         	7.797          	8.671
MS.195         	7.782          	8.484
MS.196         	7.767          	8.516
MS.197         	7.753          	8.56
MS.198         	7.735          	8.49
MS.199         	7.72           	8.476
MS.200         	7.705          	8.54
MS.201         	7.69           	8.459
MS.202         	7.675          	8.478
MS.203         	7.66           	8.329
MS.204         	7.645          	8.496
MS.205         	7.628          	8.504
MS.206         	7.612          	8.375
MS.207         	7.597          	8.492
MS.208         	7.582          	8.492
MS.209         	7.567          	8.516
MS.210         	7.552          	8.496
MS.211         	7.537          	8.498
MS.212         	7.523          	8.512
MS.213         	7.507          	8.484
MS.214         	7.492          	8.488
MS.215         	7.477          	8.506
MS.216         	7.462          	8.478
MS.217         	7.447          	8.347
MS.218         	7.432          	8.486
MS.219         	7.418          	8.49
MS.220         	7.402          	8.498
MS.221         	7.387          	8.341
MS.222         	7.372          	8.284
MS.223         	7.36           	8.119
MS.224         	7.345          	8.29
MS.225         	7.33           	8.325
MS.226         	7.315          	7.978
MS.227         	7.3            	8.173
MS.228         	7.285          	8.361
MS.229         	7.27           	8.103
MS.230         	7.257          	8.27
MS.231         	7.242          	8.298
MS.232         	7.227          	8.145
MS.233         	7.212          	8.143
MS.234         	7.197          	8.196
MS.235         	7.185          	7.817
MS.236         	7.17           	7.815
MS.237         	7.155          	7.839
MS.238         	7.142          	8.041
MS.239         	7.128          	7.684
MS.240         	7.112          	7.781
MS.241         	7.097          	7.736
MS.242         	7.085          	7.628
MS.243         	7.07           	7.839
MS.244         	7.055          	7.473
MS.245         	7.043          	7.718
MS.246         	7.027          	7.632
MS.247         	7.015          	7.384
MS.248         	7              	7.515
MS.249         	6.985          	7.702
MS.250         	6.972          	7.303
MS.251         	6.957          	7.775
MS.252         	6.945          	7.348
MS.253         	6.93           	6.892
MS.254         	6.918          	7.346
MS.255         	6.902          	7.319
MS.256         	6.89           	7.527
MS.257         	6.875          	7.16
MS.258         	6.862          	7.295
MS.259         	6.847          	6.623
MS.260         	6.835          	7.342
MS.261         	6.82           	6.822
MS.262         	6.807          	6.073
MS.263         	6.793          	6.401
MS.264         	6.78           	6.208
MS.265         	6.765          	6.097
MS.266         	6.753          	6.455
MS.267         	6.74           	5.769
MS.268         	6.725          	6.435
MS.269         	6.712          	6.324
MS.270         	6.697          	6.151
MS.271         	6.685          	6.21
MS.272         	6.672          	5.656
MS.273         	6.657          	5.69
MS.274         	6.645          	5.579
MS.275         	6.632          	5.7
MS.276         	6.617          	5.847
MS.277         	6.605          	5.567
MS.278         	6.592          	5.67
MS.279         	6.58           	5.652
MS.280         	6.565          	5.36
MS.281         	6.552          	5.45
MS.282         	6.54           	5.487
MS.283         	6.527          	5.303
MS.284         	6.512          	5.311
MS.285         	6.5            	5.209
MS.286         	6.487          	5.404
MS.287         	6.475          	5.074
MS.288         	6.462          	4.749
MS.289         	6.45           	4.737
MS.290         	6.435          	4.804
MS.291         	6.422          	4.927
MS.292         	6.41           	4.518
MS.293         	6.398          	4.792
MS.294         	6.385          	4.6
MS.295         	6.372          	4.735
MS.296         	6.36           	4.002
MS.297         	6.347          	4.272
MS.298         	6.332          	4.701
MS.299         	6.32           	4.411
MS.300         	6.307          	3.974
MS.301         	6.295          	3.587
MS.302         	6.282          	3.783
MS.303         	6.27           	3.797
MS.304         	6.257          	3.384
MS.305         	6.245          	3.642
MS.306         	6.233          	3.317
MS.307         	6.22           	3.317
MS.308         	6.207          	3.289
MS.309         	6.195          	3.319
MS.310         	6.182          	3.247
MS.311         	6.17           	3.382
MS.312         	6.16           	3.406
MS.313         	6.148          	3.114
MS.314         	6.135          	3.12
MS.315         	6.122          	2.947
MS.316         	6.11           	3.17
MS.317         	6.097          	2.997
MS.318         	6.085          	3.029
MS.319         	6.072          	2.82
MS.320         	6.06           	2.693
MS.321         	6.05           	2.665
MS.322         	6.037          	2.985
MS.323         	6.025          	2.594
MS.324         	6.012          	2.834
MS.325         	6              	3.118
MS.326         	5.99           	2.342
MS.327         	5.977          	2.544
MS.328         	5.965          	2.812
MS.329         	5.952          	2.326
MS.330         	5.94           	2.234
MS.331         	5.93           	2.28
MS.332         	5.918          	2.355
MS.333         	5.905          	2.393
MS.334         	5.892          	2.22
MS.335         	5.882          	2.179
MS.336         	5.87           	2.107
MS.337         	5.858          	2.173
MS.338         	5.847          	2.018
MS.339         	5.835          	2.288
MS.340         	5.822          	2.117
MS.341         	5.812          	1.821
MS.342         	5.8            	2.179
MS.343         	5.787          	1.883
MS.344         	5.777          	2.028
MS.345         	5.765          	1.75
MS.346         	5.755          	1.73
MS.347         	5.742          	1.913
MS.348         	5.73           	1.867
MS.349         	5.72           	1.664
MS.350         	5.707          	1.772
MS.351         	5.697          	1.366
MS.352         	5.685          	1.682
MS.353         	5.675          	1.714
MS.354         	5.662          	1.623
MS.355         	5.652          	1.577
MS.356         	5.64           	1.597
MS.357         	5.63           	1.347
MS.358         	5.617          	1.076
MS.359         	5.608          	1.627
MS.360         	5.595          	1.547
MS.361         	5.585          	1.422
MS.362         	5.572          	1.078
MS.363         	5.562          	1.126
MS.364         	5.55           	1.164
MS.365         	5.54           	1.186
MS.366         	5.527          	1.017
MS.367         	5.517          	0.979
MS.368         	5.507          	1.295
MS.369         	5.495          	0.973
MS.370         	5.485          	0.918
MS.371         	5.472          	1.132
MS.372         	5.463          	0.943
MS.373         	5.452          	0.999
MS.374         	5.44           	0.858
MS.375         	5.43           	0.846
MS.376         	5.42           	0.922
MS.377         	5.407          	0.733
MS.378         	5.398          	0.838
MS.379         	5.387          	0.741
MS.380         	5.375          	0.781
MS.381         	5.365          	0.816
MS.382         	5.355          	0.667
MS.383         	5.342          	0.677
MS.384         	5.332          	0.771
MS.385         	5.322          	0.703
MS.386         	5.312          	0.636
MS.387         	5.3            	0.713
MS.388         	5.29           	0.657
MS.389         	5.28           	0.598
MS.390         	5.27           	0.475
MS.391         	5.257          	0.671
MS.392         	5.247          	0.685
MS.393         	5.237          	0.822
MS.394         	5.227          	0.532
MS.395         	5.217          	0.576
MS.396         	5.207          	0.506
MS.397         	5.195          	0.51
MS.398         	5.185          	0.361
MS.399         	5.175          	0.445
MS.400         	5.165          	0.622
MS.401         	5.155          	0.485
MS.402         	5.145          	0.483
MS.403         	5.135          	0.379
MS.404         	5.125          	0.304
MS.405         	5.112          	0.407
MS.406         	5.102          	0.497
MS.407         	5.092          	0.292
MS.408         	5.082          	0.413
MS.409         	5.072          	0.205
MS.410         	5.062          	0.403
MS.411         	5.052          	0.232
MS.412         	5.043          	0.308
MS.413         	5.032          	0.27
MS.414         	5.023          	0.278
MS.415         	5.012          	0.228
MS.416         	5.003          	0.276
MS.417         	4.992          	0.24
MS.418         	4.983          	0.27
MS.419         	4.972          	0.25
MS.420         	4.963          	0.252
MS.421         	4.952          	0.228
MS.422         	4.943          	0.268
MS.423         	4.932          	0.169
MS.424         	4.922          	0.151
MS.425         	4.912          	0.177
MS.426         	4.902          	0.147
MS.427         	4.892          	0.155
MS.428         	4.882          	0.149
MS.429         	4.875          	0.183
MS.430         	4.865          	0.155
MS.431         	4.855          	0.149
MS.432         	4.845          	0.018
MS.433         	4.835          	0.155
MS.434         	4.825          	0.181
MS.435         	4.815          	0.022
MS.436         	4.805          	0.143
MS.437         	4.797          	0.149
MS.438         	4.787          	0.147
MS.439         	4.777          	0.149
MS.440         	4.767          	0.02
MS.441         	4.757          	0.155
MS.442         	4.75           	0.018
MS.443         	4.74           	0.145
MS.444         	4.73           	0.147
MS.445         	4.72           	0.02
MS.446         	4.71           	0.016
MS.447         	4.702          	0.018
MS.448         	4.693          	0.02
MS.449         	4.682          	0.018
MS.450         	4.673          	0.018
MS.451         	4.665          	0.016
MS.452         	4.655          	0.02
MS.453         	4.645          	0.016
MS.454         	4.635          	0.02
MS.455         	4.628          	0.02
MS.456         	4.617          	0.006
MS.457         	4.608          	0.006
MS.458         	4.6            	0.02
MS.459         	4.59           	0.018
MS.460         	4.58           	0.018
MS.461         	4.572          	0.004
MS.462         	4.562          	0.02
MS.463         	4.552          	0.004
MS.464         	4.545          	0.018
MS.465         	4.535          	0.004
MS.466         	4.525          	0.004
MS.467         	4.517          	0.024
MS.468         	4.507          	0.006
MS.469         	4.5            	0.006
MS.470         	4.49           	0.018
MS.471         	4.48           	0.002
MS.472         	4.472          	0.008
MS.473         	4.463          	0.018
MS.474         	4.455          	0.006
MS.475         	4.445          	0.02
MS.476         	4.438          	0.004
MS.477         	4.427          	0.004
MS.478         	4.42           	0.004
MS.479         	4.41           	0.004
MS.480         	4.402          	0.006
MS.481         	4.392          	0.004
MS.482         	4.382          	0.006
MS.483         	4.375          	0.006
MS.484         	4.365          	0.006
MS.485         	4.358          	0.008
MS.486         	4.35           	0.006
MS.487         	4.34           	0.006
MS.488         	4.332          	0.006
MS.489         	4.322          	0.006
MS.490         	4.315          	0.006
MS.491         	4.305          	0.004
MS.492         	4.298          	0.002
MS.493         	4.287          	0.022
MS.494         	4.28           	0.004
MS.495         	4.27           	0.004
MS.496         	4.262          	0.008
MS.497         	4.255          	0.004
MS.498         	4.245          	0.006
MS.499         	4.237          	0.006
MS.500         	4.227          	0.006
MS.501         	4.22           	0.006
