File:              	C:\Qtrac\Data\Daniel M Sørensen\MScan multicentre study\Data from centres\Oslo\IronKey\Oslo_NC_first examination\SZC00507A.QZD
Name:              	NO.OSL.NC.7.1
Protocol:          	MSCAN-R2
Date:              	7/5/20
Start time:        	15:32:19
Age:               	30
Sex:               	F
Temperature:       	33.9
S/R sites:         	Median Wr-APB
NC/disease:        	NC7
Operator:          	SZ
Comments:          	Test1
M-SCAN DATA (15.6-6.9m)
Scanpts: 227, 237, 889, 910
Stim. (mA)     	Amp. (mV)
MS.1           	24             	10.82
MS.2           	24             	10.824
MS.3           	24             	10.822
MS.4           	24             	10.81
MS.5           	24             	10.804
MS.6           	24             	10.806
MS.7           	24             	10.816
MS.8           	24             	10.802
MS.9           	24             	10.794
MS.10          	24             	10.792
MS.11          	24             	10.778
MS.12          	24             	10.76
MS.13          	24             	10.782
MS.14          	24             	10.776
MS.15          	24             	10.762
MS.16          	24             	10.752
MS.17          	24             	10.748
MS.18          	24             	10.748
MS.19          	24             	10.762
MS.20          	24             	10.766
MS.21          	24             	10.764
MS.22          	24             	10.766
MS.23          	24             	10.77
MS.24          	23.905         	10.76
MS.25          	23.858         	10.74
MS.26          	23.807         	10.754
MS.27          	23.76          	10.77
MS.28          	23.712         	10.776
MS.29          	23.665         	10.748
MS.30          	23.62          	10.778
MS.31          	23.573         	10.77
MS.32          	23.525         	10.77
MS.33          	23.477         	10.77
MS.34          	23.43          	10.746
MS.35          	23.385         	10.74
MS.36          	23.337         	10.742
MS.37          	23.29          	10.729
MS.38          	23.245         	10.742
MS.39          	23.198         	10.725
MS.40          	23.153         	10.719
MS.41          	23.105         	10.723
MS.42          	23.06          	10.731
MS.43          	23.012         	10.731
MS.44          	22.967         	10.74
MS.45          	22.92          	10.754
MS.46          	22.875         	10.735
MS.47          	22.83          	10.746
MS.48          	22.785         	10.742
MS.49          	22.737         	10.735
MS.50          	22.692         	10.744
MS.51          	22.647         	10.735
MS.52          	22.602         	10.746
MS.53          	22.557         	10.735
MS.54          	22.512         	10.74
MS.55          	22.467         	10.742
MS.56          	22.422         	10.744
MS.57          	22.377         	10.74
MS.58          	22.332         	10.733
MS.59          	22.288         	10.735
MS.60          	22.243         	10.731
MS.61          	22.2           	10.725
MS.62          	22.155         	10.721
MS.63          	22.11          	10.727
MS.64          	22.067         	10.727
MS.65          	22.022         	10.715
MS.66          	21.977         	10.723
MS.67          	21.935         	10.707
MS.68          	21.89          	10.705
MS.69          	21.847         	10.701
MS.70          	21.802         	10.701
MS.71          	21.76          	10.707
MS.72          	21.715         	10.701
MS.73          	21.672         	10.703
MS.74          	21.63          	10.705
MS.75          	21.585         	10.699
MS.76          	21.542         	10.699
MS.77          	21.5           	10.707
MS.78          	21.458         	10.705
MS.79          	21.415         	10.719
MS.80          	21.372         	10.731
MS.81          	21.327         	10.723
MS.82          	21.285         	10.713
MS.83          	21.243         	10.727
MS.84          	21.2           	10.727
MS.85          	21.157         	10.723
MS.86          	21.118         	10.731
MS.87          	21.075         	10.729
MS.88          	21.032         	10.735
MS.89          	20.99          	10.742
MS.90          	20.948         	10.737
MS.91          	20.907         	10.733
MS.92          	20.865         	10.729
MS.93          	20.823         	10.723
MS.94          	20.78          	10.731
MS.95          	20.74          	10.723
MS.96          	20.698         	10.731
MS.97          	20.657         	10.742
MS.98          	20.615         	10.744
MS.99          	20.575         	10.756
MS.100         	20.532         	10.746
MS.101         	20.493         	10.75
MS.102         	20.452         	10.746
MS.103         	20.41          	10.744
MS.104         	20.37          	10.748
MS.105         	20.33          	10.744
MS.106         	20.288         	10.742
MS.107         	20.247         	10.74
MS.108         	20.208         	10.737
MS.109         	20.167         	10.731
MS.110         	20.127         	10.737
MS.111         	20.087         	10.727
MS.112         	20.047         	10.735
MS.113         	20.007         	10.733
MS.114         	19.967         	10.735
MS.115         	19.927         	10.737
MS.116         	19.887         	10.737
MS.117         	19.847         	10.723
MS.118         	19.807         	10.735
MS.119         	19.767         	10.721
MS.120         	19.727         	10.74
MS.121         	19.69          	10.735
MS.122         	19.65          	10.735
MS.123         	19.61          	10.742
MS.124         	19.57          	10.737
MS.125         	19.532         	10.746
MS.126         	19.493         	10.756
MS.127         	19.455         	10.752
MS.128         	19.415         	10.75
MS.129         	19.377         	10.754
MS.130         	19.337         	10.75
MS.131         	19.3           	10.76
MS.132         	19.26          	10.758
MS.133         	19.222         	10.748
MS.134         	19.182         	10.76
MS.135         	19.145         	10.764
MS.136         	19.108         	10.744
MS.137         	19.067         	10.754
MS.138         	19.03          	10.74
MS.139         	18.993         	10.742
MS.140         	18.955         	10.754
MS.141         	18.917         	10.74
MS.142         	18.88          	10.742
MS.143         	18.842         	10.729
MS.144         	18.802         	10.727
MS.145         	18.765         	10.727
MS.146         	18.727         	10.729
MS.147         	18.69          	10.719
MS.148         	18.655         	10.725
MS.149         	18.618         	10.727
MS.150         	18.58          	10.733
MS.151         	18.542         	10.727
MS.152         	18.505         	10.725
MS.153         	18.467         	10.713
MS.154         	18.432         	10.719
MS.155         	18.395         	10.721
MS.156         	18.358         	10.727
MS.157         	18.32          	10.731
MS.158         	18.285         	10.744
MS.159         	18.247         	10.737
MS.160         	18.212         	10.744
MS.161         	18.175         	10.748
MS.162         	18.137         	10.748
MS.163         	18.102         	10.731
MS.164         	18.067         	10.746
MS.165         	18.03          	10.727
MS.166         	17.995         	10.729
MS.167         	17.958         	10.75
MS.168         	17.922         	10.742
MS.169         	17.887         	10.746
MS.170         	17.85          	10.748
MS.171         	17.815         	10.742
MS.172         	17.78          	10.733
MS.173         	17.745         	10.742
MS.174         	17.708         	10.737
MS.175         	17.672         	10.737
MS.176         	17.637         	10.74
MS.177         	17.602         	10.735
MS.178         	17.567         	10.735
MS.179         	17.532         	10.74
MS.180         	17.497         	10.723
MS.181         	17.462         	10.725
MS.182         	17.427         	10.719
MS.183         	17.392         	10.727
MS.184         	17.358         	10.717
MS.185         	17.323         	10.715
MS.186         	17.288         	10.717
MS.187         	17.255         	10.701
MS.188         	17.22          	10.715
MS.189         	17.185         	10.709
MS.190         	17.15          	10.713
MS.191         	17.118         	10.711
MS.192         	17.083         	10.703
MS.193         	17.047         	10.709
MS.194         	17.015         	10.705
MS.195         	16.98          	10.699
MS.196         	16.948         	10.699
MS.197         	16.913         	10.715
MS.198         	16.878         	10.707
MS.199         	16.845         	10.705
MS.200         	16.812         	10.705
MS.201         	16.778         	10.711
MS.202         	16.745         	10.687
MS.203         	16.71          	10.697
MS.204         	16.677         	10.689
MS.205         	16.645         	10.677
MS.206         	16.61          	10.685
MS.207         	16.577         	10.683
MS.208         	16.545         	10.691
MS.209         	16.512         	10.695
MS.210         	16.477         	10.705
MS.211         	16.445         	10.697
MS.212         	16.413         	10.705
MS.213         	16.38          	10.699
MS.214         	16.347         	10.701
MS.215         	16.315         	10.705
MS.216         	16.282         	10.691
MS.217         	16.25          	10.693
MS.218         	16.217         	10.689
MS.219         	16.185         	10.691
MS.220         	16.153         	10.701
MS.221         	16.12          	10.699
MS.222         	16.087         	10.711
MS.223         	16.055         	10.703
MS.224         	16.022         	10.711
MS.225         	15.992         	10.699
MS.226         	15.96          	10.707
MS.227         	15.927         	10.699
MS.228         	15.895         	10.709
MS.229         	15.865         	10.703
MS.230         	15.832         	10.705
MS.231         	15.8           	10.699
MS.232         	15.77          	10.687
MS.233         	15.737         	10.687
MS.234         	15.705         	10.691
MS.235         	15.675         	10.701
MS.236         	15.642         	10.695
MS.237         	15.612         	10.701
MS.238         	15.58          	10.691
MS.239         	15.55          	10.709
MS.240         	15.52          	10.701
MS.241         	15.487         	10.697
MS.242         	15.457         	10.691
MS.243         	15.425         	10.691
MS.244         	15.395         	10.685
MS.245         	15.365         	10.705
MS.246         	15.332         	10.703
MS.247         	15.302         	10.705
MS.248         	15.273         	10.697
MS.249         	15.242         	10.695
MS.250         	15.212         	10.685
MS.251         	15.18          	10.705
MS.252         	15.15          	10.701
MS.253         	15.12          	10.695
MS.254         	15.09          	10.691
MS.255         	15.06          	10.693
MS.256         	15.03          	10.689
MS.257         	15             	10.683
MS.258         	14.97          	10.707
MS.259         	14.94          	10.693
MS.260         	14.91          	10.679
MS.261         	14.88          	10.691
MS.262         	14.85          	10.683
MS.263         	14.82          	10.675
MS.264         	14.792         	10.683
MS.265         	14.762         	10.671
MS.266         	14.733         	10.673
MS.267         	14.702         	10.675
MS.268         	14.672         	10.665
MS.269         	14.645         	10.651
MS.270         	14.615         	10.659
MS.271         	14.585         	10.661
MS.272         	14.557         	10.659
MS.273         	14.527         	10.653
MS.274         	14.497         	10.643
MS.275         	14.47          	10.637
MS.276         	14.44          	10.641
MS.277         	14.412         	10.661
MS.278         	14.382         	10.639
MS.279         	14.355         	10.637
MS.280         	14.325         	10.522
MS.281         	14.297         	10.645
MS.282         	14.267         	10.631
MS.283         	14.24          	10.621
MS.284         	14.212         	10.532
MS.285         	14.182         	10.639
MS.286         	14.155         	10.56
MS.287         	14.127         	10.482
MS.288         	14.097         	10.568
MS.289         	14.07          	10.534
MS.290         	14.042         	10.594
MS.291         	14.015         	10.506
MS.292         	13.985         	10.552
MS.293         	13.957         	10.47
MS.294         	13.93          	10.49
MS.295         	13.903         	10.46
MS.296         	13.875         	10.502
MS.297         	13.847         	10.46
MS.298         	13.82          	10.486
MS.299         	13.792         	10.397
MS.300         	13.765         	10.484
MS.301         	13.737         	10.492
MS.302         	13.71          	10.445
MS.303         	13.682         	10.355
MS.304         	13.655         	10.262
MS.305         	13.627         	10.262
MS.306         	13.6           	10.383
MS.307         	13.572         	10.254
MS.308         	13.545         	10.371
MS.309         	13.517         	10.425
MS.310         	13.492         	10.369
MS.311         	13.465         	10.262
MS.312         	13.438         	10.246
MS.313         	13.41          	10.27
MS.314         	13.385         	10.256
MS.315         	13.358         	10.369
MS.316         	13.33          	10.379
MS.317         	13.305         	10.256
MS.318         	13.278         	10.371
MS.319         	13.25          	10.379
MS.320         	13.225         	10.264
MS.321         	13.197         	10.256
MS.322         	13.172         	10.264
MS.323         	13.145         	10.246
MS.324         	13.12          	10.359
MS.325         	13.092         	10.242
MS.326         	13.068         	10.266
MS.327         	13.04          	10.256
MS.328         	13.015         	10.258
MS.329         	12.987         	9.881
MS.330         	12.962         	9.871
MS.331         	12.938         	9.859
MS.332         	12.91          	10.264
MS.333         	12.885         	10.258
MS.334         	12.86          	9.885
MS.335         	12.832         	9.883
MS.336         	12.807         	9.89
MS.337         	12.782         	9.879
MS.338         	12.757         	10.28
MS.339         	12.73          	10.288
MS.340         	12.705         	10.276
MS.341         	12.68          	9.877
MS.342         	12.655         	10.28
MS.343         	12.63          	9.894
MS.344         	12.605         	9.902
MS.345         	12.58          	9.896
MS.346         	12.555         	9.906
MS.347         	12.53          	9.912
MS.348         	12.505         	9.827
MS.349         	12.48          	9.91
MS.350         	12.455         	9.827
MS.351         	12.43          	9.831
MS.352         	12.405         	9.837
MS.353         	12.38          	9.829
MS.354         	12.355         	9.89
MS.355         	12.33          	9.898
MS.356         	12.305         	9.827
MS.357         	12.28          	9.817
MS.358         	12.257         	9.894
MS.359         	12.233         	9.815
MS.360         	12.207         	9.896
MS.361         	12.182         	9.815
MS.362         	12.16          	9.819
MS.363         	12.135         	9.817
MS.364         	12.11          	9.801
MS.365         	12.085         	9.805
MS.366         	12.062         	9.813
MS.367         	12.037         	9.819
MS.368         	12.012         	9.801
MS.369         	11.99          	9.807
MS.370         	11.965         	9.803
MS.371         	11.943         	9.805
MS.372         	11.917         	9.811
MS.373         	11.895         	9.793
MS.374         	11.87          	9.797
MS.375         	11.847         	9.793
MS.376         	11.822         	9.785
MS.377         	11.8           	9.779
MS.378         	11.775         	9.795
MS.379         	11.752         	9.573
MS.380         	11.73          	9.674
MS.381         	11.705         	9.823
MS.382         	11.682         	9.467
MS.383         	11.657         	9.686
MS.384         	11.635         	9.606
MS.385         	11.613         	9.704
MS.386         	11.59          	9.487
MS.387         	11.565         	9.541
MS.388         	11.542         	9.414
MS.389         	11.52          	9.384
MS.390         	11.497         	9.328
MS.391         	11.472         	9.402
MS.392         	11.45          	9.378
MS.393         	11.427         	9.509
MS.394         	11.405         	9.382
MS.395         	11.382         	9.322
MS.396         	11.36          	9.408
MS.397         	11.337         	9.144
MS.398         	11.315         	9.352
MS.399         	11.292         	9.356
MS.400         	11.27          	9.181
MS.401         	11.247         	9.092
MS.402         	11.225         	9.241
MS.403         	11.202         	9.193
MS.404         	11.18          	9.225
MS.405         	11.157         	9.168
MS.406         	11.135         	8.971
MS.407         	11.113         	8.929
MS.408         	11.09          	9.058
MS.409         	11.068         	9.106
MS.410         	11.045         	9.062
MS.411         	11.023         	9.027
MS.412         	11.002         	8.723
MS.413         	10.98          	8.768
MS.414         	10.957         	8.721
MS.415         	10.935         	8.903
MS.416         	10.915         	8.29
MS.417         	10.892         	8.302
MS.418         	10.87          	8.655
MS.419         	10.85          	8.2
MS.420         	10.827         	8.566
MS.421         	10.805         	8.051
MS.422         	10.785         	8.014
MS.423         	10.762         	7.948
MS.424         	10.74          	8.083
MS.425         	10.72          	7.867
MS.426         	10.698         	7.976
MS.427         	10.677         	7.64
MS.428         	10.655         	7.944
MS.429         	10.635         	7.773
MS.430         	10.613         	7.017
MS.431         	10.592         	7.479
MS.432         	10.57          	7.213
MS.433         	10.55          	7.537
MS.434         	10.528         	7.378
MS.435         	10.507         	7.402
MS.436         	10.485         	6.794
MS.437         	10.465         	6.852
MS.438         	10.445         	6.888
MS.439         	10.422         	6.844
MS.440         	10.403         	6.288
MS.441         	10.382         	6.598
MS.442         	10.36          	6.274
MS.443         	10.34          	6.665
MS.444         	10.32          	6.643
MS.445         	10.3           	6.534
MS.446         	10.278         	6.034
MS.447         	10.257         	6.085
MS.448         	10.238         	6.049
MS.449         	10.217         	5.926
MS.450         	10.198         	5.664
MS.451         	10.175         	5.845
MS.452         	10.155         	5.495
MS.453         	10.135         	5.394
MS.454         	10.115         	5.416
MS.455         	10.095         	5.263
MS.456         	10.075         	5.412
MS.457         	10.055         	5.134
MS.458         	10.035         	5.116
MS.459         	10.015         	4.975
MS.460         	9.995          	5.122
MS.461         	9.975          	4.959
MS.462         	9.955          	4.88
MS.463         	9.935          	5.029
MS.464         	9.915          	5.031
MS.465         	9.895          	4.844
MS.466         	9.875          	5.011
MS.467         	9.855          	4.56
MS.468         	9.835          	4.59
MS.469         	9.818          	4.846
MS.470         	9.797          	4.546
MS.471         	9.778          	4.453
MS.472         	9.757          	4.691
MS.473         	9.738          	4.671
MS.474         	9.717          	4.657
MS.475         	9.7            	4.629
MS.476         	9.68           	4.429
MS.477         	9.66           	4.206
MS.478         	9.64           	4.308
MS.479         	9.622          	4.169
MS.480         	9.602          	4.204
MS.481         	9.582          	4.038
MS.482         	9.565          	4.048
MS.483         	9.545          	3.94
MS.484         	9.525          	4.101
MS.485         	9.507          	3.879
MS.486         	9.488          	3.867
MS.487         	9.47           	3.768
MS.488         	9.45           	3.563
MS.489         	9.432          	3.523
MS.490         	9.412          	3.807
MS.491         	9.395          	3.738
