File:              	C:\Qtrac\Data\Daniel M Sørensen\MScan multicentre study\Data from centres\Oslo\Processed data\SZC00518D.QZD
Name:              	NO.OSL.NC.7.2
Protocol:          	MSCAN-R2
Date:              	18/5/20
Start time:        	16:51:57
Age:               	30
Sex:               	F
Temperature:       	33.0
S/R sites:         	TA
NC/disease:        	NC7
Operator:          	SZ
Comments:          	Test2
M-SCAN DATA (10.1-3.4m)
Scanpts: 135, 145, 696, 717
Stim. (mA)     	Amp. (mV)
MS.1           	23.5           	9.616
MS.2           	23.5           	9.507
MS.3           	23.5           	9.612
MS.4           	23.5           	9.634
MS.5           	23.5           	9.626
MS.6           	23.5           	9.595
MS.7           	23.5           	9.678
MS.8           	23.5           	9.541
MS.9           	23.5           	9.62
MS.10          	23.5           	9.583
MS.11          	23.5           	9.606
MS.12          	23.5           	9.604
MS.13          	23.5           	9.604
MS.14          	23.5           	9.67
MS.15          	23.5           	9.638
MS.16          	23.5           	9.616
MS.17          	23.5           	9.684
MS.18          	23.5           	9.604
MS.19          	23.5           	9.571
MS.20          	23.5           	9.628
MS.21          	23.5           	9.571
MS.22          	23.5           	9.632
MS.23          	23.5           	9.555
MS.24          	23.405         	9.422
MS.25          	23.36          	9.346
MS.26          	23.312         	9.549
MS.27          	23.265         	9.587
MS.28          	23.22          	9.595
MS.29          	23.172         	9.604
MS.30          	23.127         	9.521
MS.31          	23.08          	9.525
MS.32          	23.035         	9.503
MS.33          	22.987         	9.503
MS.34          	22.942         	9.469
MS.35          	22.897         	9.436
MS.36          	22.85          	9.567
MS.37          	22.805         	9.493
MS.38          	22.76          	9.515
MS.39          	22.715         	9.471
MS.40          	22.67          	9.422
MS.41          	22.622         	9.432
MS.42          	22.577         	9.473
MS.43          	22.532         	9.529
MS.44          	22.487         	9.463
MS.45          	22.442         	9.422
MS.46          	22.397         	9.475
MS.47          	22.355         	9.456
MS.48          	22.31          	9.469
MS.49          	22.265         	9.483
MS.50          	22.22          	9.442
MS.51          	22.175         	9.422
MS.52          	22.132         	9.495
MS.53          	22.087         	9.481
MS.54          	22.042         	9.465
MS.55          	22             	9.44
MS.56          	21.955         	9.416
MS.57          	21.91          	9.519
MS.58          	21.868         	9.444
MS.59          	21.823         	9.448
MS.60          	21.78          	9.463
MS.61          	21.737         	9.473
MS.62          	21.692         	9.454
MS.63          	21.65          	9.45
MS.64          	21.608         	9.487
MS.65          	21.562         	9.485
MS.66          	21.52          	9.473
MS.67          	21.477         	9.45
MS.68          	21.435         	9.428
MS.69          	21.392         	9.479
MS.70          	21.35          	9.479
MS.71          	21.305         	9.454
MS.72          	21.262         	9.461
MS.73          	21.22          	9.473
MS.74          	21.177         	9.467
MS.75          	21.137         	9.43
MS.76          	21.095         	9.372
MS.77          	21.052         	9.438
MS.78          	21.01          	9.42
MS.79          	20.967         	9.408
MS.80          	20.925         	9.412
MS.81          	20.885         	9.396
MS.82          	20.842         	9.418
MS.83          	20.8           	9.39
MS.84          	20.76          	9.436
MS.85          	20.717         	9.428
MS.86          	20.677         	9.392
MS.87          	20.635         	9.454
MS.88          	20.595         	9.412
MS.89          	20.552         	9.45
MS.90          	20.512         	9.43
MS.91          	20.47          	9.452
MS.92          	20.43          	9.404
MS.93          	20.39          	9.418
MS.94          	20.347         	9.438
MS.95          	20.307         	9.36
MS.96          	20.267         	9.382
MS.97          	20.227         	9.42
MS.98          	20.185         	9.477
MS.99          	20.145         	9.446
MS.100         	20.105         	9.432
MS.101         	20.065         	9.444
MS.102         	20.025         	9.416
MS.103         	19.985         	9.372
MS.104         	19.945         	9.386
MS.105         	19.905         	9.44
MS.106         	19.865         	9.436
MS.107         	19.825         	9.362
MS.108         	19.788         	9.382
MS.109         	19.747         	9.396
MS.110         	19.708         	9.408
MS.111         	19.667         	9.424
MS.112         	19.63          	9.412
MS.113         	19.59          	9.45
MS.114         	19.55          	9.394
MS.115         	19.512         	9.416
MS.116         	19.472         	9.396
MS.117         	19.432         	9.388
MS.118         	19.395         	9.418
MS.119         	19.355         	9.358
MS.120         	19.317         	9.368
MS.121         	19.278         	9.39
MS.122         	19.24          	9.37
MS.123         	19.202         	9.444
MS.124         	19.163         	9.402
MS.125         	19.125         	9.426
MS.126         	19.087         	9.396
MS.127         	19.047         	9.416
MS.128         	19.01          	9.384
MS.129         	18.972         	9.42
MS.130         	18.935         	9.414
MS.131         	18.897         	9.402
MS.132         	18.86          	9.414
MS.133         	18.823         	9.402
MS.134         	18.785         	9.39
MS.135         	18.747         	9.392
MS.136         	18.71          	9.364
MS.137         	18.672         	9.36
MS.138         	18.635         	9.366
MS.139         	18.597         	9.392
MS.140         	18.56          	9.364
MS.141         	18.522         	9.366
MS.142         	18.485         	9.414
MS.143         	18.448         	9.386
MS.144         	18.413         	9.392
MS.145         	18.375         	9.382
MS.146         	18.337         	9.376
MS.147         	18.302         	9.388
MS.148         	18.265         	9.41
MS.149         	18.227         	9.394
MS.150         	18.192         	9.404
MS.151         	18.155         	9.354
MS.152         	18.12          	9.342
MS.153         	18.083         	9.382
MS.154         	18.047         	9.39
MS.155         	18.01          	9.376
MS.156         	17.975         	9.42
MS.157         	17.94          	9.384
MS.158         	17.903         	9.368
MS.159         	17.868         	9.382
MS.160         	17.833         	9.376
MS.161         	17.797         	9.418
MS.162         	17.76          	9.38
MS.163         	17.725         	9.352
MS.164         	17.69          	9.328
MS.165         	17.655         	9.402
MS.166         	17.62          	9.38
MS.167         	17.585         	9.372
MS.168         	17.55          	9.42
MS.169         	17.515         	9.372
MS.170         	17.48          	9.396
MS.171         	17.445         	9.388
MS.172         	17.41          	9.41
MS.173         	17.375         	9.364
MS.174         	17.34          	9.416
MS.175         	17.305         	9.4
MS.176         	17.27          	9.352
MS.177         	17.235         	9.386
MS.178         	17.202         	9.398
MS.179         	17.167         	9.404
MS.180         	17.132         	9.388
MS.181         	17.097         	9.406
MS.182         	17.065         	9.354
MS.183         	17.03          	9.364
MS.184         	16.997         	9.368
MS.185         	16.962         	9.39
MS.186         	16.927         	9.364
MS.187         	16.895         	9.33
MS.188         	16.86          	9.322
MS.189         	16.827         	9.35
MS.190         	16.792         	9.366
MS.191         	16.76          	9.336
MS.192         	16.727         	9.382
MS.193         	16.692         	9.32
MS.194         	16.66          	9.313
MS.195         	16.628         	9.293
MS.196         	16.592         	9.35
MS.197         	16.56          	9.328
MS.198         	16.528         	9.324
MS.199         	16.495         	9.293
MS.200         	16.46          	9.287
MS.201         	16.427         	9.305
MS.202         	16.395         	9.271
MS.203         	16.362         	9.326
MS.204         	16.33          	9.295
MS.205         	16.297         	9.334
MS.206         	16.265         	9.249
MS.207         	16.233         	9.271
MS.208         	16.2           	9.253
MS.209         	16.167         	9.281
MS.210         	16.135         	9.187
MS.211         	16.102         	9.233
MS.212         	16.07          	9.277
MS.213         	16.038         	9.221
MS.214         	16.007         	9.255
MS.215         	15.975         	9.217
MS.216         	15.943         	9.179
MS.217         	15.91          	9.199
MS.218         	15.88          	9.168
MS.219         	15.847         	9.233
MS.220         	15.815         	9.197
MS.221         	15.785         	9.154
MS.222         	15.752         	9.197
MS.223         	15.72          	9.17
MS.224         	15.69          	9.132
MS.225         	15.657         	9.116
MS.226         	15.627         	9.08
MS.227         	15.595         	9.102
MS.228         	15.565         	9.068
MS.229         	15.532         	9.132
MS.230         	15.502         	9.034
MS.231         	15.472         	9.056
MS.232         	15.44          	9.07
MS.233         	15.41          	9.06
MS.234         	15.38          	8.981
MS.235         	15.347         	8.959
MS.236         	15.318         	9.013
MS.237         	15.287         	8.888
MS.238         	15.257         	8.933
MS.239         	15.225         	8.977
MS.240         	15.195         	8.919
MS.241         	15.165         	8.882
MS.242         	15.135         	8.919
MS.243         	15.105         	8.893
MS.244         	15.075         	8.872
MS.245         	15.045         	8.856
MS.246         	15.015         	8.917
MS.247         	14.985         	8.901
MS.248         	14.955         	8.836
MS.249         	14.925         	8.796
MS.250         	14.895         	8.848
MS.251         	14.865         	8.78
MS.252         	14.835         	8.842
MS.253         	14.805         	8.784
MS.254         	14.775         	8.794
MS.255         	14.747         	8.669
MS.256         	14.717         	8.669
MS.257         	14.688         	8.707
MS.258         	14.657         	8.713
MS.259         	14.63          	8.673
MS.260         	14.6           	8.669
MS.261         	14.57          	8.57
MS.262         	14.542         	8.693
MS.263         	14.512         	8.586
MS.264         	14.483         	8.729
MS.265         	14.455         	8.512
MS.266         	14.425         	8.474
MS.267         	14.398         	8.534
MS.268         	14.367         	8.504
MS.269         	14.34          	8.441
MS.270         	14.31          	8.512
MS.271         	14.282         	8.47
MS.272         	14.252         	8.449
MS.273         	14.225         	8.482
MS.274         	14.197         	8.296
MS.275         	14.167         	8.373
MS.276         	14.14          	8.381
MS.277         	14.112         	8.3
MS.278         	14.082         	8.329
MS.279         	14.055         	8.242
MS.280         	14.028         	8.323
MS.281         	14             	8.256
MS.282         	13.97          	8.218
MS.283         	13.943         	8.26
MS.284         	13.915         	8.198
MS.285         	13.887         	8.149
MS.286         	13.86          	8.111
MS.287         	13.832         	8.212
MS.288         	13.805         	8.075
MS.289         	13.778         	8.071
MS.290         	13.75          	8.051
MS.291         	13.722         	8.018
MS.292         	13.695         	8.065
MS.293         	13.667         	7.98
MS.294         	13.64          	8.071
MS.295         	13.612         	7.956
MS.296         	13.585         	7.948
MS.297         	13.557         	8.053
MS.298         	13.53          	7.932
MS.299         	13.505         	7.974
MS.300         	13.477         	7.948
MS.301         	13.45          	7.885
MS.302         	13.422         	7.801
MS.303         	13.398         	7.805
MS.304         	13.37          	7.783
MS.305         	13.342         	7.833
MS.306         	13.318         	7.744
MS.307         	13.29          	7.757
MS.308         	13.262         	7.674
MS.309         	13.237         	7.656
MS.310         	13.21          	7.636
MS.311         	13.185         	7.599
MS.312         	13.157         	7.609
MS.313         	13.132         	7.563
MS.314         	13.105         	7.551
MS.315         	13.08          	7.408
MS.316         	13.052         	7.493
MS.317         	13.028         	7.549
MS.318         	13             	7.436
MS.319         	12.975         	7.45
MS.320         	12.947         	7.354
MS.321         	12.922         	7.36
MS.322         	12.898         	7.37
MS.323         	12.87          	7.34
MS.324         	12.845         	7.307
MS.325         	12.82          	7.209
MS.326         	12.795         	7.289
MS.327         	12.767         	7.176
MS.328         	12.742         	7.096
MS.329         	12.717         	7.185
MS.330         	12.693         	7.124
MS.331         	12.667         	7.108
MS.332         	12.642         	7.064
MS.333         	12.617         	7.001
MS.334         	12.59          	6.999
MS.335         	12.565         	6.987
MS.336         	12.54          	6.909
MS.337         	12.515         	6.872
MS.338         	12.49          	6.806
MS.339         	12.465         	6.77
MS.340         	12.44          	6.751
MS.341         	12.415         	6.796
MS.342         	12.392         	6.798
MS.343         	12.367         	6.788
MS.344         	12.342         	6.727
MS.345         	12.318         	6.747
MS.346         	12.292         	6.556
MS.347         	12.267         	6.5
MS.348         	12.242         	6.568
MS.349         	12.22          	6.484
MS.350         	12.195         	6.429
MS.351         	12.17          	6.443
MS.352         	12.145         	6.328
MS.353         	12.122         	6.343
MS.354         	12.097         	6.425
MS.355         	12.072         	6.234
MS.356         	12.05          	6.322
MS.357         	12.025         	6.254
MS.358         	12             	6.276
MS.359         	11.977         	6.183
MS.360         	11.952         	6.109
MS.361         	11.93          	6.133
MS.362         	11.905         	6.095
MS.363         	11.882         	6.073
MS.364         	11.858         	5.976
MS.365         	11.835         	6.03
MS.366         	11.81          	5.99
MS.367         	11.787         	5.899
MS.368         	11.762         	5.968
MS.369         	11.74          	5.906
MS.370         	11.717         	5.948
MS.371         	11.693         	5.873
MS.372         	11.67          	5.787
MS.373         	11.648         	5.795
MS.374         	11.622         	5.801
MS.375         	11.6           	5.779
MS.376         	11.577         	5.742
MS.377         	11.552         	5.611
MS.378         	11.53          	5.535
MS.379         	11.507         	5.607
MS.380         	11.485         	5.571
MS.381         	11.462         	5.483
MS.382         	11.438         	5.398
MS.383         	11.415         	5.388
MS.384         	11.392         	5.533
MS.385         	11.37          	5.414
MS.386         	11.347         	5.392
MS.387         	11.325         	5.323
MS.388         	11.302         	5.327
MS.389         	11.28          	5.374
MS.390         	11.257         	5.251
MS.391         	11.235         	5.235
MS.392         	11.212         	5.178
MS.393         	11.19          	5.186
MS.394         	11.167         	5.178
MS.395         	11.145         	5.146
MS.396         	11.122         	5.102
MS.397         	11.1           	5.158
MS.398         	11.077         	5.134
MS.399         	11.055         	5.031
MS.400         	11.035         	4.979
MS.401         	11.012         	5.005
MS.402         	10.99          	5.043
MS.403         	10.967         	5.047
MS.404         	10.945         	4.884
MS.405         	10.925         	4.888
MS.406         	10.903         	4.85
MS.407         	10.88          	4.834
MS.408         	10.86          	4.812
MS.409         	10.837         	4.747
MS.410         	10.815         	4.741
MS.411         	10.795         	4.719
MS.412         	10.773         	4.693
MS.413         	10.75          	4.667
MS.414         	10.73          	4.52
MS.415         	10.707         	4.604
MS.416         	10.688         	4.635
MS.417         	10.665         	4.52
MS.418         	10.645         	4.538
MS.419         	10.622         	4.417
MS.420         	10.602         	4.435
MS.421         	10.58          	4.395
MS.422         	10.56          	4.314
MS.423         	10.537         	4.318
MS.424         	10.517         	4.419
MS.425         	10.495         	4.25
MS.426         	10.475         	4.312
MS.427         	10.455         	4.195
MS.428         	10.432         	4.159
MS.429         	10.412         	4.171
MS.430         	10.392         	4.097
MS.431         	10.37          	4.055
MS.432         	10.35          	4
MS.433         	10.33          	4.119
MS.434         	10.31          	3.914
MS.435         	10.287         	4.022
MS.436         	10.267         	3.909
MS.437         	10.247         	3.909
MS.438         	10.227         	3.889
MS.439         	10.205         	3.787
MS.440         	10.185         	3.851
MS.441         	10.165         	3.827
MS.442         	10.145         	3.803
MS.443         	10.125         	3.714
MS.444         	10.105         	3.573
MS.445         	10.085         	3.656
MS.446         	10.065         	3.764
MS.447         	10.045         	3.613
MS.448         	10.025         	3.547
MS.449         	10.005         	3.603
MS.450         	9.985          	3.412
MS.451         	9.965          	3.428
MS.452         	9.945          	3.444
MS.453         	9.925          	3.315
MS.454         	9.905          	3.299
MS.455         	9.885          	3.275
MS.456         	9.865          	3.243
MS.457         	9.845          	3.313
MS.458         	9.825          	3.265
MS.459         	9.805          	3.215
MS.460         	9.787          	3.186
MS.461         	9.767          	3.092
MS.462         	9.747          	3.108
MS.463         	9.727          	3.152
MS.464         	9.707          	3.025
MS.465         	9.69           	2.999
MS.466         	9.67           	2.923
MS.467         	9.65           	2.931
MS.468         	9.63           	2.902
MS.469         	9.613          	3.015
MS.470         	9.592          	2.78
MS.471         	9.573          	2.888
MS.472         	9.555          	2.737
MS.473         	9.535          	2.647
MS.474         	9.515          	2.759
MS.475         	9.497          	2.739
MS.476         	9.477          	2.56
MS.477         	9.46           	2.626
MS.478         	9.44           	2.586
MS.479         	9.422          	2.59
MS.480         	9.403          	2.409
MS.481         	9.385          	2.407
MS.482         	9.365          	2.457
MS.483         	9.347          	2.338
MS.484         	9.327          	2.377
MS.485         	9.31           	2.147
MS.486         	9.29           	2.29
MS.487         	9.273          	2.216
MS.488         	9.252          	2.079
MS.489         	9.235          	2.02
MS.490         	9.217          	1.968
MS.491         	9.198          	2.056
MS.492         	9.18           	2.01
MS.493         	9.162          	1.881
MS.494         	9.142          	1.895
MS.495         	9.125          	1.837
MS.496         	9.108          	1.797
MS.497         	9.087          	1.883
MS.498         	9.07           	1.754
MS.499         	9.052          	1.625
MS.500         	9.035          	1.704
MS.501         	9.015          	1.658
