File:              	C:\Qtrac\Data\Daniel M Sørensen\MScan multicentre study\Data from centres\Oslo\Processed data\SZC00630B.QZD
Name:              	NO.OSL.NC.21.2
Protocol:          	MSCAN-R2
Date:              	30/6/20
Start time:        	17:11:29
Age:               	38
Sex:               	M
Temperature:       	31.4
S/R sites:         	ADM
NC/disease:        	NC21
Operator:          	SZ
Comments:          	Test2
M-SCAN DATA (7.5-2.1m)
Scanpts: 10, 28, 534, 550
Stim. (mA)     	Amp. (mV)
MS.1           	18             	14.862
MS.2           	18             	14.82
MS.3           	18             	14.854
MS.4           	18             	14.84
MS.5           	18             	14.885
MS.6           	18             	14.879
MS.7           	18             	14.858
MS.8           	18             	14.881
MS.9           	18             	14.891
MS.10          	18             	14.889
MS.11          	18             	14.893
MS.12          	18             	14.889
MS.13          	18             	14.862
MS.14          	18             	14.899
MS.15          	18             	14.879
MS.16          	18             	14.887
MS.17          	18             	14.909
MS.18          	18             	14.899
MS.19          	18             	14.887
MS.20          	18             	14.885
MS.21          	18             	14.891
MS.22          	18             	14.887
MS.23          	18             	14.897
MS.24          	17.965         	14.887
MS.25          	17.927         	14.913
MS.26          	17.892         	14.881
MS.27          	17.858         	14.885
MS.28          	17.82          	14.865
MS.29          	17.785         	14.891
MS.30          	17.75          	14.883
MS.31          	17.715         	14.899
MS.32          	17.68          	14.905
MS.33          	17.642         	14.913
MS.34          	17.608         	14.893
MS.35          	17.573         	14.881
MS.36          	17.538         	14.923
MS.37          	17.503         	14.919
MS.38          	17.467         	14.917
MS.39          	17.432         	14.907
MS.40          	17.397         	14.923
MS.41          	17.362         	14.911
MS.42          	17.33          	14.937
MS.43          	17.295         	14.939
MS.44          	17.26          	14.925
MS.45          	17.225         	14.929
MS.46          	17.19          	14.909
MS.47          	17.157         	14.913
MS.48          	17.122         	14.915
MS.49          	17.087         	14.893
MS.50          	17.055         	14.838
MS.51          	17.02          	14.885
MS.52          	16.985         	14.895
MS.53          	16.952         	14.917
MS.54          	16.917         	14.869
MS.55          	16.885         	14.858
MS.56          	16.85          	14.891
MS.57          	16.817         	14.873
MS.58          	16.782         	14.871
MS.59          	16.75          	14.85
MS.60          	16.715         	14.846
MS.61          	16.682         	14.865
MS.62          	16.65          	14.748
MS.63          	16.615         	14.838
MS.64          	16.583         	14.736
MS.65          	16.55          	14.75
MS.66          	16.517         	14.774
MS.67          	16.483         	14.742
MS.68          	16.45          	14.78
MS.69          	16.417         	14.705
MS.70          	16.385         	14.844
MS.71          	16.352         	14.701
MS.72          	16.32          	14.79
MS.73          	16.288         	14.687
MS.74          	16.255         	14.697
MS.75          	16.222         	14.699
MS.76          	16.19          	14.721
MS.77          	16.157         	14.719
MS.78          	16.125         	14.74
MS.79          	16.092         	14.661
MS.80          	16.06          	14.709
MS.81          	16.028         	14.671
MS.82          	15.997         	14.54
MS.83          	15.965         	14.709
MS.84          	15.932         	14.681
MS.85          	15.9           	14.597
MS.86          	15.87          	14.657
MS.87          	15.837         	14.677
MS.88          	15.805         	14.687
MS.89          	15.775         	14.653
MS.90          	15.742         	14.645
MS.91          	15.71          	14.476
MS.92          	15.68          	14.633
MS.93          	15.648         	14.49
MS.94          	15.617         	14.45
MS.95          	15.585         	14.48
MS.96          	15.555         	14.583
MS.97          	15.525         	14.484
MS.98          	15.492         	14.619
MS.99          	15.462         	14.423
MS.100         	15.43          	14.423
MS.101         	15.4           	14.454
MS.102         	15.37          	14.417
MS.103         	15.337         	14.446
MS.104         	15.307         	14.468
MS.105         	15.277         	14.476
MS.106         	15.247         	14.44
MS.107         	15.217         	14.45
MS.108         	15.185         	14.448
MS.109         	15.155         	14.474
MS.110         	15.125         	14.5
MS.111         	15.095         	14.379
MS.112         	15.065         	14.476
MS.113         	15.035         	14.448
MS.114         	15.005         	14.458
MS.115         	14.975         	14.46
MS.116         	14.945         	14.389
MS.117         	14.915         	14.462
MS.118         	14.885         	14.49
MS.119         	14.855         	14.419
MS.120         	14.825         	14.409
MS.121         	14.795         	14.44
MS.122         	14.767         	14.359
MS.123         	14.737         	14.373
MS.124         	14.707         	14.297
MS.125         	14.677         	14.429
MS.126         	14.65          	14.28
MS.127         	14.62          	14.385
MS.128         	14.59          	14.325
MS.129         	14.562         	14.206
MS.130         	14.532         	14.226
MS.131         	14.502         	14.192
MS.132         	14.475         	14.377
MS.133         	14.445         	14.276
MS.134         	14.417         	14.29
MS.135         	14.387         	14.274
MS.136         	14.36          	14.113
MS.137         	14.33          	14.226
MS.138         	14.302         	14.115
MS.139         	14.273         	14.047
MS.140         	14.245         	14.117
MS.141         	14.215         	14.135
MS.142         	14.188         	14.083
MS.143         	14.16          	14.004
MS.144         	14.13          	14.065
MS.145         	14.102         	13.932
MS.146         	14.075         	14.045
MS.147         	14.047         	13.982
MS.148         	14.017         	13.932
MS.149         	13.99          	13.888
MS.150         	13.962         	13.962
MS.151         	13.935         	13.922
MS.152         	13.907         	13.972
MS.153         	13.88          	13.88
MS.154         	13.85          	13.9
MS.155         	13.822         	13.942
MS.156         	13.795         	13.962
MS.157         	13.767         	13.896
MS.158         	13.74          	13.7
MS.159         	13.712         	13.817
MS.160         	13.685         	13.827
MS.161         	13.657         	13.872
MS.162         	13.632         	13.821
MS.163         	13.605         	13.694
MS.164         	13.577         	13.807
MS.165         	13.55          	13.767
MS.166         	13.523         	13.688
MS.167         	13.495         	13.799
MS.168         	13.467         	13.61
MS.169         	13.443         	13.789
MS.170         	13.415         	13.672
MS.171         	13.387         	13.696
MS.172         	13.362         	13.727
MS.173         	13.335         	13.656
MS.174         	13.307         	13.676
MS.175         	13.282         	13.59
MS.176         	13.255         	13.638
MS.177         	13.227         	13.616
MS.178         	13.202         	13.656
MS.179         	13.175         	13.63
MS.180         	13.15          	13.487
MS.181         	13.122         	13.696
MS.182         	13.097         	13.513
MS.183         	13.07          	13.44
MS.184         	13.045         	13.473
MS.185         	13.017         	13.394
MS.186         	12.992         	13.624
MS.187         	12.967         	13.424
MS.188         	12.94          	13.434
MS.189         	12.915         	13.376
MS.190         	12.89          	13.326
MS.191         	12.862         	13.225
MS.192         	12.837         	13.408
MS.193         	12.812         	13.229
MS.194         	12.787         	13.118
MS.195         	12.76          	13.261
MS.196         	12.735         	13.013
MS.197         	12.71          	13.235
MS.198         	12.685         	13.052
MS.199         	12.66          	13.086
MS.200         	12.635         	12.875
MS.201         	12.608         	12.917
MS.202         	12.582         	12.82
MS.203         	12.557         	12.802
MS.204         	12.532         	12.725
MS.205         	12.507         	12.911
MS.206         	12.483         	11.769
MS.207         	12.457         	12.121
MS.208         	12.432         	12.778
MS.209         	12.407         	12.516
MS.210         	12.382         	12.82
MS.211         	12.36          	12.375
MS.212         	12.335         	12.085
MS.213         	12.31          	12.415
MS.214         	12.285         	11.732
MS.215         	12.26          	12.409
MS.216         	12.235         	12.421
MS.217         	12.212         	11.545
MS.218         	12.188         	12.435
MS.219         	12.162         	12.351
MS.220         	12.137         	12.276
MS.221         	12.115         	11.533
MS.222         	12.09          	11.463
MS.223         	12.065         	11.533
MS.224         	12.042         	11.16
MS.225         	12.017         	11.436
MS.226         	11.992         	11.233
MS.227         	11.97          	11.142
MS.228         	11.945         	11.213
MS.229         	11.922         	11.219
MS.230         	11.898         	11.118
MS.231         	11.875         	11.152
MS.232         	11.85          	11.189
MS.233         	11.827         	10.941
MS.234         	11.802         	10.939
MS.235         	11.78          	10.919
MS.236         	11.755         	10.868
MS.237         	11.733         	10.995
MS.238         	11.71          	10.349
MS.239         	11.685         	10.327
MS.240         	11.662         	10.331
MS.241         	11.64          	10.951
MS.242         	11.615         	10.375
MS.243         	11.592         	10.202
MS.244         	11.57          	10.645
MS.245         	11.547         	10.077
MS.246         	11.523         	10.083
MS.247         	11.5           	10.057
MS.248         	11.477         	9.994
MS.249         	11.455         	9.964
MS.250         	11.432         	9.992
MS.251         	11.407         	9.867
MS.252         	11.385         	9.845
MS.253         	11.363         	9.914
MS.254         	11.34          	10.035
MS.255         	11.318         	9.875
MS.256         	11.295         	9.581
MS.257         	11.273         	9.682
MS.258         	11.25          	10.045
MS.259         	11.227         	9.489
MS.260         	11.205         	9.473
MS.261         	11.182         	9.658
MS.262         	11.16          	9.585
MS.263         	11.137         	9.924
MS.264         	11.115         	9.269
MS.265         	11.092         	9.38
MS.266         	11.073         	9.346
MS.267         	11.05          	9.299
MS.268         	11.028         	9.231
MS.269         	11.005         	9.223
MS.270         	10.983         	9.527
MS.271         	10.962         	9.13
MS.272         	10.94          	9.09
MS.273         	10.917         	8.824
MS.274         	10.895         	8.981
MS.275         	10.875         	9.146
MS.276         	10.852         	9.168
MS.277         	10.83          	9.086
MS.278         	10.81          	9.034
MS.279         	10.787         	8.882
MS.280         	10.765         	8.943
MS.281         	10.745         	8.85
MS.282         	10.722         	8.772
MS.283         	10.702         	8.925
MS.284         	10.68          	8.957
MS.285         	10.657         	8.643
MS.286         	10.637         	8.895
MS.287         	10.615         	8.276
MS.288         	10.595         	8.653
MS.289         	10.573         	8.492
MS.290         	10.552         	8.464
MS.291         	10.532         	8.192
MS.292         	10.51          	8.27
MS.293         	10.49          	8.03
MS.294         	10.467         	8.204
MS.295         	10.448         	8.047
MS.296         	10.427         	8.113
MS.297         	10.405         	8.169
MS.298         	10.385         	7.97
MS.299         	10.365         	8.081
MS.300         	10.342         	8.216
MS.301         	10.323         	8.347
MS.302         	10.302         	7.857
MS.303         	10.282         	7.652
MS.304         	10.26          	7.755
MS.305         	10.24          	7.648
MS.306         	10.22          	7.698
MS.307         	10.2           	7.549
MS.308         	10.18          	7.571
MS.309         	10.16          	7.551
MS.310         	10.14          	7.644
MS.311         	10.117         	7.74
MS.312         	10.097         	7.593
MS.313         	10.077         	7.537
MS.314         	10.057         	7.672
MS.315         	10.037         	7.553
MS.316         	10.017         	7.662
MS.317         	9.997          	7.533
MS.318         	9.977          	7.426
MS.319         	9.957          	7.481
MS.320         	9.938          	7.583
MS.321         	9.917          	7.479
MS.322         	9.898          	7.358
MS.323         	9.877          	7.352
MS.324         	9.86           	7.344
MS.325         	9.84           	7.334
MS.326         	9.82           	6.828
MS.327         	9.8            	6.947
MS.328         	9.78           	7.44
MS.329         	9.76           	7.279
MS.330         	9.742          	6.792
MS.331         	9.722          	7.263
MS.332         	9.702          	6.848
MS.333         	9.682          	7.215
MS.334         	9.662          	7.295
MS.335         	9.645          	6.862
MS.336         	9.625          	6.719
MS.337         	9.605          	6.516
MS.338         	9.587          	7.015
MS.339         	9.568          	6.844
MS.340         	9.547          	6.909
MS.341         	9.53           	6.401
MS.342         	9.51           	6.198
MS.343         	9.492          	6.87
MS.344         	9.472          	6.469
MS.345         	9.452          	6.351
MS.346         	9.435          	6.812
MS.347         	9.415          	6.496
MS.348         	9.398          	6.302
MS.349         	9.377          	6.326
MS.350         	9.36           	6.147
MS.351         	9.34           	6.387
MS.352         	9.323          	5.35
MS.353         	9.302          	5.404
MS.354         	9.285          	6.067
MS.355         	9.265          	5.779
MS.356         	9.247          	5.555
MS.357         	9.23           	5.468
MS.358         	9.21           	5.793
MS.359         	9.193          	5.412
MS.360         	9.175          	5.062
MS.361         	9.155          	5.489
MS.362         	9.137          	5.348
MS.363         	9.12           	4.685
MS.364         	9.1            	4.9
MS.365         	9.082          	5.275
MS.366         	9.065          	5.432
MS.367         	9.047          	4.794
MS.368         	9.028          	4.449
MS.369         	9.01           	5.003
MS.370         	8.992          	4.8
MS.371         	8.975          	4.592
MS.372         	8.957          	4.729
MS.373         	8.938          	4.635
MS.374         	8.92           	4.437
MS.375         	8.903          	4.385
MS.376         	8.885          	5.082
MS.377         	8.867          	4.566
MS.378         	8.85           	4.248
MS.379         	8.832          	4.161
MS.380         	8.815          	3.974
MS.381         	8.797          	4.183
MS.382         	8.78           	4.03
MS.383         	8.762          	4.113
MS.384         	8.745          	3.988
MS.385         	8.727          	3.299
MS.386         	8.71           	3.402
MS.387         	8.693          	3.968
MS.388         	8.675          	3.18
MS.389         	8.658          	3.424
MS.390         	8.64           	3.368
MS.391         	8.622          	3.464
MS.392         	8.605          	3.223
MS.393         	8.587          	3.064
MS.394         	8.57           	2.8
MS.395         	8.555          	2.554
MS.396         	8.537          	2.872
MS.397         	8.52           	2.506
MS.398         	8.502          	2.733
MS.399         	8.485          	2.554
MS.400         	8.467          	2.558
MS.401         	8.452          	2.195
MS.402         	8.435          	2.234
MS.403         	8.417          	2.232
MS.404         	8.4            	2.212
MS.405         	8.385          	2
MS.406         	8.367          	2.093
MS.407         	8.35           	2.238
MS.408         	8.335          	1.972
MS.409         	8.318          	1.936
MS.410         	8.3            	2.046
MS.411         	8.285          	1.996
MS.412         	8.267          	1.96
MS.413         	8.252          	1.922
MS.414         	8.235          	2.087
MS.415         	8.217          	1.944
MS.416         	8.202          	1.97
MS.417         	8.185          	1.654
MS.418         	8.17           	1.726
MS.419         	8.153          	1.815
MS.420         	8.137          	1.716
MS.421         	8.12           	1.642
MS.422         	8.105          	1.656
MS.423         	8.087          	1.871
MS.424         	8.073          	1.633
MS.425         	8.055          	1.551
MS.426         	8.04           	1.766
MS.427         	8.023          	1.527
MS.428         	8.007          	1.617
MS.429         	7.992          	1.341
MS.430         	7.975          	1.484
MS.431         	7.96           	1.448
MS.432         	7.942          	1.513
MS.433         	7.927          	1.47
MS.434         	7.912          	1.366
MS.435         	7.895          	1.394
MS.436         	7.88           	1.313
MS.437         	7.865          	1.295
MS.438         	7.85           	1.339
MS.439         	7.832          	1.354
MS.440         	7.817          	1.345
MS.441         	7.802          	1.281
MS.442         	7.787          	1.281
MS.443         	7.77           	1.144
MS.444         	7.755          	1.295
MS.445         	7.74           	1.164
MS.446         	7.725          	1.281
MS.447         	7.71           	1.13
MS.448         	7.692          	1.386
MS.449         	7.677          	1.297
MS.450         	7.662          	1.027
MS.451         	7.648          	1.241
MS.452         	7.632          	1.1
MS.453         	7.617          	0.981
MS.454         	7.602          	1.039
MS.455         	7.587          	0.967
MS.456         	7.572          	0.995
MS.457         	7.555          	0.959
MS.458         	7.54           	0.82
MS.459         	7.525          	1.045
MS.460         	7.51           	1.063
MS.461         	7.495          	0.898
MS.462         	7.48           	0.653
MS.463         	7.465          	0.9
MS.464         	7.45           	0.957
MS.465         	7.438          	0.864
MS.466         	7.422          	0.834
MS.467         	7.407          	0.564
MS.468         	7.392          	0.763
MS.469         	7.378          	0.681
MS.470         	7.362          	0.679
MS.471         	7.347          	0.884
MS.472         	7.332          	0.542
MS.473         	7.317          	0.775
MS.474         	7.302          	0.725
MS.475         	7.29           	0.757
MS.476         	7.275          	0.524
MS.477         	7.26           	0.453
MS.478         	7.245          	0.477
MS.479         	7.23           	0.473
MS.480         	7.217          	0.632
MS.481         	7.202          	0.679
MS.482         	7.188          	0.663
MS.483         	7.172          	0.713
MS.484         	7.16           	0.491
MS.485         	7.145          	0.475
MS.486         	7.13           	0.447
MS.487         	7.115          	0.439
MS.488         	7.102          	0.284
MS.489         	7.087          	0.477
MS.490         	7.072          	0.334
MS.491         	7.06           	0.296
MS.492         	7.045          	0.286
MS.493         	7.032          	0.26
MS.494         	7.017          	0.258
MS.495         	7.003          	0.403
