File:              	C:\Qtrac\Data\Daniel M Sørensen\MScan multicentre study\Data from centres\Oslo\Processed data\SZC00609C.QZD
Name:              	NO.OSL.NC.15.2
Protocol:          	MSCAN-R2
Date:              	9/6/20
Start time:        	17:09:52
Age:               	41
Sex:               	M
Temperature:       	34.6
S/R sites:         	ADM
NC/disease:        	NC15
Operator:          	SZ
Comments:          	Test2
M-SCAN DATA (5.3-0.9m)
Scanpts: 13, 18, 449, 455
Stim. (mA)     	Amp. (mV)
MS.1           	33             	12.717
MS.2           	33             	12.625
MS.3           	33             	12.629
MS.4           	33             	12.603
MS.5           	33             	12.621
MS.6           	33             	12.738
MS.7           	33             	12.552
MS.8           	33             	12.516
MS.9           	33             	12.699
MS.10          	33             	12.806
MS.11          	33             	12.764
MS.12          	33             	12.802
MS.13          	33             	12.782
MS.14          	33             	12.798
MS.15          	33             	12.695
MS.16          	33             	12.786
MS.17          	33             	12.669
MS.18          	33             	12.77
MS.19          	33             	12.816
MS.20          	33             	12.794
MS.21          	33             	12.689
MS.22          	33             	12.752
MS.23          	33             	12.57
MS.24          	32.868         	12.651
MS.25          	32.802         	12.629
MS.26          	32.737         	12.556
MS.27          	32.673         	12.56
MS.28          	32.605         	12.466
MS.29          	32.54          	12.379
MS.30          	32.475         	12.77
MS.31          	32.41          	12.516
MS.32          	32.347         	12.377
MS.33          	32.282         	12.568
MS.34          	32.217         	12.355
MS.35          	32.153         	12.387
MS.36          	32.087         	12.307
MS.37          	32.025         	12.325
MS.38          	31.96          	12.192
MS.39          	31.897         	12.18
MS.40          	31.832         	12.196
MS.41          	31.77          	12.214
MS.42          	31.705         	12.307
MS.43          	31.642         	12.222
MS.44          	31.58          	12.103
MS.45          	31.517         	12.206
MS.46          	31.452         	12.117
MS.47          	31.39          	12.212
MS.48          	31.327         	12.133
MS.49          	31.265         	12.087
MS.50          	31.202         	12.121
MS.51          	31.14          	12.099
MS.52          	31.077         	12.057
MS.53          	31.015         	12.095
MS.54          	30.955         	12.24
MS.55          	30.892         	12.069
MS.56          	30.83          	11.99
MS.57          	30.77          	11.972
MS.58          	30.707         	11.924
MS.59          	30.645         	11.952
MS.60          	30.585         	12
MS.61          	30.522         	11.996
MS.62          	30.462         	11.912
MS.63          	30.403         	11.966
MS.64          	30.34          	11.704
MS.65          	30.28          	11.865
MS.66          	30.22          	11.728
MS.67          	30.16          	11.602
MS.68          	30.1           	11.811
MS.69          	30.04          	11.823
MS.70          	29.98          	11.446
MS.71          	29.92          	11.737
MS.72          	29.86          	11.41
MS.73          	29.8           	11.469
MS.74          	29.74          	11.388
MS.75          	29.68          	11.634
MS.76          	29.622         	11.402
MS.77          	29.562         	11.37
MS.78          	29.502         	11.318
MS.79          	29.445         	11.491
MS.80          	29.385         	11.422
MS.81          	29.327         	11.388
MS.82          	29.267         	11.346
MS.83          	29.21          	11.336
MS.84          	29.153         	11.374
MS.85          	29.092         	11.253
MS.86          	29.035         	11.158
MS.87          	28.977         	11.247
MS.88          	28.92          	11.336
MS.89          	28.862         	11.281
MS.90          	28.802         	11.162
MS.91          	28.745         	11.187
MS.92          	28.688         	11.042
MS.93          	28.632         	11.064
MS.94          	28.575         	11.056
MS.95          	28.517         	10.981
MS.96          	28.46          	10.961
MS.97          	28.403         	11.098
MS.98          	28.347         	10.993
MS.99          	28.29          	11.14
MS.100         	28.233         	10.985
MS.101         	28.177         	10.868
MS.102         	28.12          	10.887
MS.103         	28.065         	10.889
MS.104         	28.007         	10.77
MS.105         	27.952         	10.814
MS.106         	27.897         	10.643
MS.107         	27.84          	10.679
MS.108         	27.785         	10.699
MS.109         	27.73          	10.699
MS.110         	27.675         	10.683
MS.111         	27.62          	10.584
MS.112         	27.565         	10.599
MS.113         	27.507         	10.494
MS.114         	27.455         	10.423
MS.115         	27.4           	10.186
MS.116         	27.345         	10.341
MS.117         	27.29          	10.282
MS.118         	27.235         	10.248
MS.119         	27.18          	10.188
MS.120         	27.127         	9.894
MS.121         	27.073         	9.815
MS.122         	27.017         	9.73
MS.123         	26.965         	9.861
MS.124         	26.91          	9.672
MS.125         	26.858         	9.525
MS.126         	26.802         	9.434
MS.127         	26.75          	9.827
MS.128         	26.695         	9.106
MS.129         	26.642         	9.205
MS.130         	26.59          	9.35
MS.131         	26.535         	9.17
MS.132         	26.483         	9.326
MS.133         	26.43          	9.207
MS.134         	26.377         	9.058
MS.135         	26.325         	8.538
MS.136         	26.272         	8.792
MS.137         	26.22          	8.657
MS.138         	26.167         	8.818
MS.139         	26.115         	8.439
MS.140         	26.062         	8.562
MS.141         	26.01          	8.441
MS.142         	25.957         	8.415
MS.143         	25.907         	8.47
MS.144         	25.855         	8.502
MS.145         	25.802         	8.308
MS.146         	25.752         	8.045
MS.147         	25.7           	8.409
MS.148         	25.65          	8.113
MS.149         	25.597         	7.972
MS.150         	25.547         	7.998
MS.151         	25.495         	7.916
MS.152         	25.445         	7.859
MS.153         	25.395         	7.914
MS.154         	25.342         	7.569
MS.155         	25.292         	7.765
MS.156         	25.243         	7.64
MS.157         	25.192         	7.227
MS.158         	25.14          	7.469
MS.159         	25.09          	7.191
MS.160         	25.04          	7.277
MS.161         	24.99          	6.935
MS.162         	24.94          	7.114
MS.163         	24.89          	7.132
MS.164         	24.84          	6.766
MS.165         	24.792         	6.981
MS.166         	24.743         	7.029
MS.167         	24.692         	6.687
MS.168         	24.642         	6.403
MS.169         	24.595         	6.675
MS.170         	24.545         	6.469
MS.171         	24.495         	6.615
MS.172         	24.448         	6.502
MS.173         	24.397         	6.401
MS.174         	24.35          	6.427
MS.175         	24.3           	6.349
MS.176         	24.252         	6.3
MS.177         	24.202         	6.089
MS.178         	24.155         	6.073
MS.179         	24.108         	5.98
MS.180         	24.06          	6.055
MS.181         	24.01          	6.006
MS.182         	23.962         	5.918
MS.183         	23.915         	5.881
MS.184         	23.868         	5.964
MS.185         	23.82          	5.835
MS.186         	23.772         	5.857
MS.187         	23.725         	5.93
MS.188         	23.677         	5.771
MS.189         	23.63          	5.686
MS.190         	23.582         	5.853
MS.191         	23.535         	5.813
MS.192         	23.487         	5.466
MS.193         	23.442         	5.583
MS.194         	23.395         	5.509
MS.195         	23.347         	5.515
MS.196         	23.3           	5.541
MS.197         	23.255         	5.481
MS.198         	23.207         	5.529
MS.199         	23.163         	5.426
MS.200         	23.115         	5.297
MS.201         	23.07          	5.287
MS.202         	23.022         	5.267
MS.203         	22.977         	5.106
MS.204         	22.932         	5.068
MS.205         	22.885         	4.993
MS.206         	22.84          	4.856
MS.207         	22.795         	5.025
MS.208         	22.747         	5.017
MS.209         	22.702         	4.959
MS.210         	22.657         	4.917
MS.211         	22.612         	4.733
MS.212         	22.567         	4.731
MS.213         	22.522         	4.618
MS.214         	22.477         	4.675
MS.215         	22.432         	4.574
MS.216         	22.387         	4.616
MS.217         	22.342         	4.751
MS.218         	22.297         	4.627
MS.219         	22.252         	4.542
MS.220         	22.21          	4.663
MS.221         	22.165         	4.578
MS.222         	22.12          	4.572
MS.223         	22.077         	4.514
MS.224         	22.032         	4.56
MS.225         	21.987         	4.568
MS.226         	21.945         	4.57
MS.227         	21.9           	4.459
MS.228         	21.858         	4.522
MS.229         	21.812         	4.471
MS.230         	21.77          	4.423
MS.231         	21.725         	4.484
MS.232         	21.682         	4.431
MS.233         	21.64          	4.415
MS.234         	21.595         	4.425
MS.235         	21.552         	4.375
MS.236         	21.51          	4.312
MS.237         	21.467         	4.401
MS.238         	21.425         	4.298
MS.239         	21.38          	4.294
MS.240         	21.337         	4.379
MS.241         	21.295         	4.212
MS.242         	21.252         	4.177
MS.243         	21.21          	4.153
MS.244         	21.167         	4.191
MS.245         	21.125         	4.169
MS.246         	21.085         	4.133
MS.247         	21.042         	4.137
MS.248         	21             	4.052
MS.249         	20.958         	4.165
MS.250         	20.915         	4.175
MS.251         	20.875         	4.123
MS.252         	20.833         	4.113
MS.253         	20.79          	4.071
MS.254         	20.75          	4.133
MS.255         	20.708         	4.016
MS.256         	20.667         	4.034
MS.257         	20.625         	4.103
MS.258         	20.585         	3.938
MS.259         	20.542         	3.934
MS.260         	20.502         	3.924
MS.261         	20.46          	3.911
MS.262         	20.42          	3.845
MS.263         	20.38          	3.914
MS.264         	20.337         	3.847
MS.265         	20.297         	3.777
MS.266         	20.257         	3.825
MS.267         	20.217         	3.789
MS.268         	20.175         	3.829
MS.269         	20.135         	3.71
MS.270         	20.095         	3.799
MS.271         	20.055         	3.744
MS.272         	20.015         	3.726
MS.273         	19.975         	3.728
MS.274         	19.935         	3.708
MS.275         	19.895         	3.593
MS.276         	19.855         	3.569
MS.277         	19.817         	3.783
MS.278         	19.778         	3.571
MS.279         	19.737         	3.724
MS.280         	19.698         	3.478
MS.281         	19.657         	3.561
MS.282         	19.62          	3.563
MS.283         	19.58          	3.523
MS.284         	19.54          	2.963
MS.285         	19.502         	3.4
MS.286         	19.462         	3.468
MS.287         	19.425         	3.478
MS.288         	19.385         	3.364
MS.289         	19.347         	3.388
MS.290         	19.307         	3.031
MS.291         	19.27          	2.776
MS.292         	19.23          	3.053
MS.293         	19.192         	3.007
MS.294         	19.155         	2.904
MS.295         	19.115         	2.947
MS.296         	19.077         	3.412
MS.297         	19.04          	2.919
MS.298         	19             	2.761
MS.299         	18.962         	2.767
MS.300         	18.925         	2.929
MS.301         	18.887         	2.81
MS.302         	18.85          	2.79
MS.303         	18.812         	2.784
MS.304         	18.775         	2.798
MS.305         	18.737         	2.735
MS.306         	18.7           	2.737
MS.307         	18.663         	2.707
MS.308         	18.625         	2.699
MS.309         	18.587         	2.776
MS.310         	18.55          	2.735
MS.311         	18.512         	2.771
MS.312         	18.477         	2.802
MS.313         	18.44          	2.228
MS.314         	18.403         	2.409
MS.315         	18.365         	2.628
MS.316         	18.33          	2.502
MS.317         	18.292         	2.54
MS.318         	18.255         	2.441
MS.319         	18.22          	2.643
MS.320         	18.182         	2.238
MS.321         	18.147         	2.556
MS.322         	18.11          	2.58
MS.323         	18.075         	2.318
MS.324         	18.038         	2.349
MS.325         	18.003         	2.036
MS.326         	17.967         	2.131
MS.327         	17.93          	1.899
MS.328         	17.895         	2.01
MS.329         	17.86          	1.976
MS.330         	17.823         	2.236
MS.331         	17.788         	1.738
MS.332         	17.753         	1.75
MS.333         	17.717         	1.752
MS.334         	17.68          	1.853
MS.335         	17.645         	1.744
MS.336         	17.61          	1.799
MS.337         	17.575         	1.708
MS.338         	17.54          	1.726
MS.339         	17.505         	1.658
MS.340         	17.47          	1.714
MS.341         	17.435         	1.511
MS.342         	17.4           	1.635
MS.343         	17.365         	1.567
MS.344         	17.33          	1.642
MS.345         	17.297         	1.464
MS.346         	17.262         	1.422
MS.347         	17.227         	1.412
MS.348         	17.192         	1.108
MS.349         	17.157         	1.305
MS.350         	17.125         	1.515
MS.351         	17.09          	1.307
MS.352         	17.055         	1.057
MS.353         	17.022         	1.013
MS.354         	16.987         	0.82
MS.355         	16.955         	0.957
MS.356         	16.92          	1.241
MS.357         	16.887         	0.884
MS.358         	16.852         	0.846
MS.359         	16.82          	0.798
MS.360         	16.785         	0.916
MS.361         	16.753         	0.81
MS.362         	16.717         	0.892
MS.363         	16.685         	0.884
MS.364         	16.653         	0.79
MS.365         	16.618         	0.757
MS.366         	16.585         	0.765
MS.367         	16.552         	0.628
MS.368         	16.52          	0.721
MS.369         	16.485         	0.751
MS.370         	16.452         	0.657
MS.371         	16.42          	0.592
MS.372         	16.387         	0.695
MS.373         	16.355         	0.566
MS.374         	16.323         	0.602
MS.375         	16.29          	0.566
MS.376         	16.257         	0.61
MS.377         	16.225         	0.703
MS.378         	16.192         	0.5
MS.379         	16.16          	0.514
MS.380         	16.128         	0.506
MS.381         	16.095         	0.556
MS.382         	16.062         	0.522
MS.383         	16.03          	0.55
MS.384         	15.997         	0.481
MS.385         	15.967         	0.421
MS.386         	15.935         	0.493
MS.387         	15.902         	0.487
MS.388         	15.87          	0.427
MS.389         	15.84          	0.475
MS.390         	15.807         	0.463
MS.391         	15.775         	0.367
MS.392         	15.745         	0.397
MS.393         	15.712         	0.463
MS.394         	15.682         	0.407
MS.395         	15.65          	0.369
MS.396         	15.62          	0.465
MS.397         	15.587         	0.391
MS.398         	15.557         	0.381
MS.399         	15.525         	0.3
MS.400         	15.495         	0.373
MS.401         	15.465         	0.385
MS.402         	15.432         	0.306
MS.403         	15.402         	0.324
MS.404         	15.372         	0.409
MS.405         	15.34          	0.377
MS.406         	15.31          	0.395
MS.407         	15.28          	0.413
MS.408         	15.25          	0.399
MS.409         	15.217         	0.326
MS.410         	15.188         	0.318
MS.411         	15.157         	0.326
MS.412         	15.127         	0.328
MS.413         	15.097         	0.322
MS.414         	15.068         	0.308
MS.415         	15.037         	0.294
MS.416         	15.007         	0.288
MS.417         	14.977         	0.316
MS.418         	14.947         	0.292
MS.419         	14.917         	0.262
MS.420         	14.887         	0.25
MS.421         	14.858         	0.326
MS.422         	14.827         	0.316
MS.423         	14.797         	0.268
MS.424         	14.767         	0.294
MS.425         	14.74          	0.292
MS.426         	14.71          	0.32
MS.427         	14.68          	0.292
MS.428         	14.65          	0.228
MS.429         	14.622         	0.29
MS.430         	14.592         	0.296
MS.431         	14.562         	0.288
MS.432         	14.535         	0.23
MS.433         	14.505         	0.286
MS.434         	14.475         	0.296
MS.435         	14.447         	0.226
MS.436         	14.417         	0.234
MS.437         	14.39          	0.296
MS.438         	14.36          	0.292
MS.439         	14.332         	0.306
MS.440         	14.302         	0.236
MS.441         	14.275         	0.222
MS.442         	14.247         	0.232
MS.443         	14.217         	0.23
MS.444         	14.19          	0.234
MS.445         	14.16          	0.238
MS.446         	14.132         	0.236
MS.447         	14.105         	0.224
MS.448         	14.077         	0.228
MS.449         	14.047         	0.228
MS.450         	14.02          	0.228
MS.451         	13.992         	0.23
MS.452         	13.965         	0.236
MS.453         	13.938         	0.23
MS.454         	13.907         	0.232
MS.455         	13.88          	0.23
MS.456         	13.852         	0.238
MS.457         	13.825         	0.232
MS.458         	13.797         	0.232
MS.459         	13.77          	0.24
MS.460         	13.742         	0.228
MS.461         	13.715         	0.236
MS.462         	13.688         	0.234
MS.463         	13.66          	0.211
MS.464         	13.632         	0.224
MS.465         	13.605         	0.207
MS.466         	13.577         	0.232
MS.467         	13.552         	0.214
MS.468         	13.525         	0.216
MS.469         	13.497         	0.222
MS.470         	13.47          	0.214
MS.471         	13.443         	0.22
MS.472         	13.417         	0.224
MS.473         	13.39          	0.216
MS.474         	13.362         	0.218
MS.475         	13.337         	0.214
MS.476         	13.31          	0.211
MS.477         	13.282         	0.209
MS.478         	13.257         	0.22
MS.479         	13.23          	0.218
MS.480         	13.205         	0.216
MS.481         	13.177         	0.211
MS.482         	13.15          	0.214
DERIVED EXCITABILITY VARIABLES
Program = QTracP 3/4/2020
Threshold method = 6 (optimised for CAP, using data for present condition only)
SR method = 1 (using actual data values)
6.                 	0.000               	Peak response\(mV)
9.                 	34.6                	Temperature ( C)
17.                	41                  	Age (years)
18.                	1                   	Sex (M=1, F=2)

EXTRA VARIABLES

MScPeak(mV) = 12.49
MScS5(mA) = 16.34
MScS50(mA) = 24.24
MScS95(mA) = 30.38
MScNSteps = 2
MScSteps(%) = 4.8
MScStepMax(%) = 2.5
MScD50 = 61
MScSlope = 3.27
MSFPeakAmp(mV) = 12.5
