File:              	C:\Qtrac\Data\Daniel M Sørensen\MScan multicentre study\Data from centres\Oslo\IronKey\Oslo_NC_first examination\SZC00514C.QZD
Name:              	NO.OSL.NC.11.1
Protocol:          	MSCAN-R2
Date:              	14/5/20
Start time:        	17:10:31
Age:               	44
Sex:               	M
Temperature:       	33.7
S/R sites:         	Ulnar Wr-ADM
NC/disease:        	NC11
Operator:          	SZ
Comments:          	Test1
M-SCAN DATA (7-1.9m)
Scanpts: 1, 23, 535, 556
Stim. (mA)     	Amp. (mV)
MS.1           	39             	11.41
MS.2           	39             	11.418
MS.3           	39             	11.41
MS.4           	39             	11.386
MS.5           	39             	11.305
MS.6           	39             	11.366
MS.7           	39             	11.322
MS.8           	39             	11.34
MS.9           	39             	11.31
MS.10          	39             	11.35
MS.11          	39             	11.37
MS.12          	39             	11.414
MS.13          	39             	11.418
MS.14          	39             	11.346
MS.15          	39             	11.354
MS.16          	39             	11.344
MS.17          	39             	11.388
MS.18          	39             	11.388
MS.19          	39             	11.36
MS.20          	39             	11.416
MS.21          	39             	11.362
MS.22          	39             	11.396
MS.23          	38.845         	11.31
MS.24          	38.767         	11.279
MS.25          	38.69          	11.322
MS.26          	38.612         	11.328
MS.27          	38.535         	11.307
MS.28          	38.458         	11.402
MS.29          	38.38          	11.354
MS.30          	38.305         	11.352
MS.31          	38.228         	11.34
MS.32          	38.15          	11.312
MS.33          	38.075         	11.31
MS.34          	38             	11.344
MS.35          	37.923         	11.362
MS.36          	37.847         	11.279
MS.37          	37.772         	11.348
MS.38          	37.695         	11.237
MS.39          	37.62          	11.338
MS.40          	37.545         	11.356
MS.41          	37.47          	11.324
MS.42          	37.395         	11.307
MS.43          	37.32          	11.289
MS.44          	37.247         	11.356
MS.45          	37.173         	11.171
MS.46          	37.097         	11.31
MS.47          	37.022         	11.289
MS.48          	36.95          	11.231
MS.49          	36.875         	11.191
MS.50          	36.802         	11.283
MS.51          	36.728         	11.249
MS.52          	36.655         	11.239
MS.53          	36.583         	11.211
MS.54          	36.51          	11.136
MS.55          	36.435         	11.293
MS.56          	36.362         	11.229
MS.57          	36.29          	11.183
MS.58          	36.217         	11.239
MS.59          	36.145         	11.114
MS.60          	36.072         	11.164
MS.61          	36.002         	11.118
MS.62          	35.93          	11.086
MS.63          	35.857         	11.05
MS.64          	35.785         	11.171
MS.65          	35.715         	11.034
MS.66          	35.642         	11.15
MS.67          	35.572         	11.026
MS.68          	35.5           	11.038
MS.69          	35.43          	11.054
MS.70          	35.36          	10.979
MS.71          	35.287         	10.999
MS.72          	35.217         	10.903
MS.73          	35.147         	10.975
MS.74          	35.077         	10.999
MS.75          	35.007         	10.927
MS.76          	34.938         	10.856
MS.77          	34.868         	10.905
MS.78          	34.798         	10.913
MS.79          	34.728         	10.858
MS.80          	34.66          	10.907
MS.81          	34.59          	10.925
MS.82          	34.52          	10.895
MS.83          	34.452         	10.86
MS.84          	34.382         	10.832
MS.85          	34.315         	10.887
MS.86          	34.245         	10.891
MS.87          	34.177         	10.887
MS.88          	34.11          	10.858
MS.89          	34.04          	10.862
MS.90          	33.972         	10.848
MS.91          	33.905         	10.796
MS.92          	33.837         	10.868
MS.93          	33.77          	10.719
MS.94          	33.702         	10.78
MS.95          	33.635         	10.774
MS.96          	33.568         	10.693
MS.97          	33.5           	10.834
MS.98          	33.432         	10.667
MS.99          	33.368         	10.729
MS.100         	33.3           	10.687
MS.101         	33.232         	10.792
MS.102         	33.167         	10.717
MS.103         	33.1           	10.804
MS.104         	33.035         	10.679
MS.105         	32.967         	10.766
MS.106         	32.903         	10.754
MS.107         	32.837         	10.667
MS.108         	32.772         	10.737
MS.109         	32.705         	10.689
MS.110         	32.64          	10.82
MS.111         	32.575         	10.723
MS.112         	32.51          	10.669
MS.113         	32.445         	10.663
MS.114         	32.38          	10.715
MS.115         	32.315         	10.603
MS.116         	32.252         	10.677
MS.117         	32.188         	10.619
MS.118         	32.122         	10.663
MS.119         	32.057         	10.613
MS.120         	31.995         	10.637
MS.121         	31.93          	10.556
MS.122         	31.867         	10.601
MS.123         	31.802         	10.536
MS.124         	31.74          	10.607
MS.125         	31.675         	10.621
MS.126         	31.612         	10.607
MS.127         	31.55          	10.584
MS.128         	31.487         	10.607
MS.129         	31.422         	10.572
MS.130         	31.36          	10.5
MS.131         	31.297         	10.534
MS.132         	31.235         	10.518
MS.133         	31.172         	10.538
MS.134         	31.11          	10.496
MS.135         	31.047         	10.46
MS.136         	30.987         	10.52
MS.137         	30.925         	10.522
MS.138         	30.862         	10.47
MS.139         	30.802         	10.504
MS.140         	30.74          	10.321
MS.141         	30.677         	10.435
MS.142         	30.617         	10.439
MS.143         	30.555         	10.417
MS.144         	30.495         	10.423
MS.145         	30.435         	10.321
MS.146         	30.372         	10.429
MS.147         	30.312         	10.343
MS.148         	30.252         	10.383
MS.149         	30.192         	10.308
MS.150         	30.13          	10.339
MS.151         	30.07          	10.204
MS.152         	30.01          	10.236
MS.153         	29.95          	10.02
MS.154         	29.89          	10.143
MS.155         	29.832         	10.065
MS.156         	29.772         	9.956
MS.157         	29.712         	10.276
MS.158         	29.653         	9.938
MS.159         	29.592         	10.172
MS.160         	29.535         	10.141
MS.161         	29.475         	9.924
MS.162         	29.417         	10.143
MS.163         	29.358         	9.94
MS.164         	29.3           	9.954
MS.165         	29.24          	10.037
MS.166         	29.182         	9.922
MS.167         	29.125         	9.865
MS.168         	29.065         	9.93
MS.169         	29.007         	9.755
MS.170         	28.95          	9.942
MS.171         	28.892         	9.904
MS.172         	28.835         	10.093
MS.173         	28.778         	9.66
MS.174         	28.72          	9.835
MS.175         	28.662         	9.642
MS.176         	28.605         	9.62
MS.177         	28.547         	9.676
MS.178         	28.49          	9.211
MS.179         	28.432         	9.638
MS.180         	28.377         	9.569
MS.181         	28.32          	9.606
MS.182         	28.262         	9.718
MS.183         	28.207         	8.989
MS.184         	28.15          	9.531
MS.185         	28.095         	8.969
MS.186         	28.037         	9.565
MS.187         	27.983         	9.599
MS.188         	27.925         	9.545
MS.189         	27.87          	9.593
MS.190         	27.815         	9.348
MS.191         	27.76          	9.565
MS.192         	27.702         	9.62
MS.193         	27.647         	9.517
MS.194         	27.592         	9.112
MS.195         	27.537         	8.84
MS.196         	27.483         	9.595
MS.197         	27.427         	8.836
MS.198         	27.372         	9.227
MS.199         	27.317         	9.243
MS.200         	27.262         	8.772
MS.201         	27.21          	8.858
MS.202         	27.155         	8.701
MS.203         	27.1           	9.102
MS.204         	27.047         	8.973
MS.205         	26.993         	8.719
MS.206         	26.938         	9.076
MS.207         	26.885         	8.76
MS.208         	26.83          	8.663
MS.209         	26.778         	8.842
MS.210         	26.725         	8.84
MS.211         	26.67          	8.55
MS.212         	26.618         	8.508
MS.213         	26.565         	8.641
MS.214         	26.51          	8.542
MS.215         	26.457         	8.48
MS.216         	26.405         	8.393
MS.217         	26.352         	8.468
MS.218         	26.3           	8.468
MS.219         	26.247         	8.468
MS.220         	26.195         	8.494
MS.221         	26.142         	8.486
MS.222         	26.09          	8.508
MS.223         	26.037         	8.387
MS.224         	25.985         	8.445
MS.225         	25.935         	8.302
MS.226         	25.882         	8.371
MS.227         	25.83          	8.359
MS.228         	25.78          	8.298
MS.229         	25.727         	8.369
MS.230         	25.675         	8.216
MS.231         	25.625         	8.361
MS.232         	25.573         	8.171
MS.233         	25.522         	8.147
MS.234         	25.472         	8.214
MS.235         	25.42          	8.135
MS.236         	25.37          	8.26
MS.237         	25.32          	8.244
MS.238         	25.267         	8.236
MS.239         	25.217         	8.039
MS.240         	25.167         	7.934
MS.241         	25.118         	7.964
MS.242         	25.067         	7.841
MS.243         	25.017         	7.777
MS.244         	24.967         	7.755
MS.245         	24.917         	7.807
MS.246         	24.868         	7.319
MS.247         	24.817         	7.442
MS.248         	24.767         	7.126
MS.249         	24.717         	7.428
MS.250         	24.67          	7.168
MS.251         	24.62          	7.037
MS.252         	24.57          	6.981
MS.253         	24.522         	7.243
MS.254         	24.472         	7.048
MS.255         	24.425         	6.367
MS.256         	24.375         	6.651
MS.257         	24.327         	6.671
MS.258         	24.278         	6.768
MS.259         	24.23          	6.619
MS.260         	24.18          	6.484
MS.261         	24.132         	6.437
MS.262         	24.085         	7.048
MS.263         	24.035         	6.524
MS.264         	23.987         	6.671
MS.265         	23.94          	5.958
MS.266         	23.892         	6.129
MS.267         	23.845         	6.067
MS.268         	23.797         	6.312
MS.269         	23.75          	6.081
MS.270         	23.702         	6.073
MS.271         	23.655         	6.294
MS.272         	23.608         	5.62
MS.273         	23.56          	6.465
MS.274         	23.512         	5.551
MS.275         	23.465         	5.835
MS.276         	23.42          	5.547
MS.277         	23.372         	5.583
MS.278         	23.325         	5.95
MS.279         	23.28          	5.217
MS.280         	23.233         	5.42
MS.281         	23.185         	5.501
MS.282         	23.14          	5.084
MS.283         	23.092         	5.303
MS.284         	23.047         	5.396
MS.285         	23.002         	5.243
MS.286         	22.955         	5.116
MS.287         	22.91          	5.217
MS.288         	22.865         	5.182
MS.289         	22.817         	5.267
MS.290         	22.772         	5.321
MS.291         	22.727         	5.114
MS.292         	22.682         	4.357
MS.293         	22.637         	4.898
MS.294         	22.59          	5.267
MS.295         	22.545         	5.275
MS.296         	22.5           	5.094
MS.297         	22.455         	5.344
MS.298         	22.41          	4.598
MS.299         	22.368         	3.698
MS.300         	22.323         	4.558
MS.301         	22.278         	3.948
MS.302         	22.233         	3.513
MS.303         	22.188         	3.505
MS.304         	22.145         	4.159
MS.305         	22.1           	4.034
MS.306         	22.055         	4.119
MS.307         	22.012         	3.531
MS.308         	21.967         	3.714
MS.309         	21.922         	3.865
MS.310         	21.88          	3.738
MS.311         	21.835         	3.317
MS.312         	21.792         	3.783
MS.313         	21.75          	3.376
MS.314         	21.705         	3.815
MS.315         	21.663         	3.297
MS.316         	21.618         	3.327
MS.317         	21.575         	3.323
MS.318         	21.532         	3.289
MS.319         	21.49          	3.215
MS.320         	21.448         	3.253
MS.321         	21.403         	3.229
MS.322         	21.36          	3.289
MS.323         	21.317         	3.341
MS.324         	21.275         	3.329
MS.325         	21.233         	3.164
MS.326         	21.19          	2.914
MS.327         	21.147         	3.162
MS.328         	21.105         	3.245
MS.329         	21.065         	3.045
MS.330         	21.022         	3.08
MS.331         	20.98          	2.755
MS.332         	20.938         	3.023
MS.333         	20.895         	2.995
MS.334         	20.855         	3.011
MS.335         	20.812         	3.138
MS.336         	20.77          	2.876
MS.337         	20.73          	3.039
MS.338         	20.688         	2.691
MS.339         	20.647         	2.898
MS.340         	20.605         	2.991
MS.341         	20.565         	2.773
MS.342         	20.522         	2.82
MS.343         	20.483         	2.657
MS.344         	20.442         	2.828
MS.345         	20.4           	2.854
MS.346         	20.36          	2.395
MS.347         	20.32          	2.463
MS.348         	20.278         	2.421
MS.349         	20.237         	2.479
MS.350         	20.198         	2.399
MS.351         	20.157         	2.201
MS.352         	20.118         	2.346
MS.353         	20.077         	2.338
MS.354         	20.038         	2.389
MS.355         	19.997         	1.966
MS.356         	19.958         	2.127
MS.357         	19.917         	1.68
MS.358         	19.877         	1.776
MS.359         	19.837         	2.252
MS.360         	19.797         	1.694
MS.361         	19.757         	2.095
MS.362         	19.717         	1.968
MS.363         	19.68          	1.7
MS.364         	19.64          	1.843
MS.365         	19.6           	1.732
MS.366         	19.562         	1.805
MS.367         	19.522         	1.468
MS.368         	19.483         	1.799
MS.369         	19.445         	1.513
MS.370         	19.405         	1.285
MS.371         	19.368         	1.495
MS.372         	19.327         	1.484
MS.373         	19.29          	1.37
MS.374         	19.25          	1.116
MS.375         	19.212         	1.501
MS.376         	19.175         	1.211
MS.377         	19.135         	1.509
MS.378         	19.097         	1.38
MS.379         	19.06          	1.378
MS.380         	19.022         	1.432
MS.381         	18.983         	1.617
MS.382         	18.945         	1.225
MS.383         	18.907         	1.309
MS.384         	18.87          	1.305
MS.385         	18.833         	1.136
MS.386         	18.795         	1.043
MS.387         	18.757         	0.802
MS.388         	18.72          	1.215
MS.389         	18.682         	1.241
MS.390         	18.645         	1.243
MS.391         	18.608         	1.144
MS.392         	18.57          	1.152
MS.393         	18.532         	1.263
MS.394         	18.495         	0.937
MS.395         	18.46          	1.233
MS.396         	18.422         	0.733
MS.397         	18.385         	0.788
MS.398         	18.347         	0.703
MS.399         	18.312         	0.79
MS.400         	18.275         	0.657
MS.401         	18.24          	0.695
MS.402         	18.202         	0.737
MS.403         	18.165         	0.608
MS.404         	18.13          	0.641
MS.405         	18.092         	0.671
MS.406         	18.057         	0.487
MS.407         	18.022         	0.636
MS.408         	17.985         	0.612
MS.409         	17.95          	0.576
MS.410         	17.913         	0.606
MS.411         	17.878         	0.558
MS.412         	17.842         	0.52
MS.413         	17.807         	0.54
MS.414         	17.77          	0.477
MS.415         	17.735         	0.473
MS.416         	17.7           	0.377
MS.417         	17.665         	0.425
MS.418         	17.63          	0.53
MS.419         	17.595         	0.344
MS.420         	17.56          	0.508
MS.421         	17.525         	0.467
MS.422         	17.49          	0.417
MS.423         	17.455         	0.512
MS.424         	17.42          	0.385
MS.425         	17.385         	0.375
MS.426         	17.35          	0.409
MS.427         	17.315         	0.485
MS.428         	17.28          	0.369
MS.429         	17.245         	0.477
MS.430         	17.21          	0.481
MS.431         	17.177         	0.377
MS.432         	17.142         	0.429
MS.433         	17.108         	0.397
MS.434         	17.075         	0.336
MS.435         	17.04          	0.33
MS.436         	17.005         	0.379
MS.437         	16.972         	0.387
MS.438         	16.938         	0.34
MS.439         	16.905         	0.316
MS.440         	16.87          	0.399
MS.441         	16.837         	0.338
MS.442         	16.802         	0.266
MS.443         	16.77          	0.322
MS.444         	16.735         	0.306
MS.445         	16.702         	0.316
MS.446         	16.67          	0.3
MS.447         	16.635         	0.27
MS.448         	16.602         	0.292
MS.449         	16.57          	0.318
MS.450         	16.538         	0.31
MS.451         	16.503         	0.27
MS.452         	16.47          	0.3
MS.453         	16.438         	0.201
MS.454         	16.405         	0.28
MS.455         	16.372         	0.161
MS.456         	16.34          	0.258
MS.457         	16.307         	0.141
MS.458         	16.275         	0.205
MS.459         	16.243         	0.197
MS.460         	16.21          	0.266
MS.461         	16.177         	0.203
MS.462         	16.145         	0.157
MS.463         	16.112         	0.169
MS.464         	16.08          	0.187
MS.465         	16.047         	0.153
MS.466         	16.015         	0.195
MS.467         	15.983         	0.143
MS.468         	15.952         	0.216
MS.469         	15.92          	0.137
MS.470         	15.887         	0.189
MS.471         	15.855         	0.113
MS.472         	15.825         	0.077
MS.473         	15.792         	0.191
MS.474         	15.762         	0.066
MS.475         	15.73          	0.181
MS.476         	15.697         	0.115
MS.477         	15.667         	0.187
MS.478         	15.635         	0.133
MS.479         	15.605         	0.093
MS.480         	15.572         	0.075
MS.481         	15.542         	0.064
MS.482         	15.51          	0.064
MS.483         	15.48          	0.081
MS.484         	15.45          	0.099
MS.485         	15.417         	0.062
MS.486         	15.387         	0.062
MS.487         	15.358         	0.064
MS.488         	15.325         	0.077
MS.489         	15.295         	0.087
MS.490         	15.265         	0.093
MS.491         	15.235         	0.091
MS.492         	15.205         	0.087
MS.493         	15.172         	0.093
MS.494         	15.142         	0.089
MS.495         	15.112         	0.081
MS.496         	15.082         	0.089
