File:              	C:\Qtrac\Data\Daniel M Sørensen\MScan multicentre study\Data from centres\Oslo\IronKey\Oslo_NC_first examination\SZC00429H.QZD
Name:              	NO.OSL.NC.4.1
Protocol:          	MSCAN-R2
Date:              	29/4/20
Start time:        	14:00:04
Age:               	39
Sex:               	F
Temperature:       	29.4
S/R sites:         	Median Wr-APB
NC/disease:        	NC4
Operator:          	SZ
Comments:          	Test1
M-SCAN DATA (10.3-2.2m)
Scanpts: 54, 61, 684, 711
Stim. (mA)     	Amp. (mV)
MS.1           	16.5           	12.838
MS.2           	16.5           	12.85
MS.3           	16.5           	12.836
MS.4           	16.5           	12.832
MS.5           	16.5           	12.832
MS.6           	16.5           	12.828
MS.7           	16.5           	12.848
MS.8           	16.5           	12.838
MS.9           	16.5           	12.862
MS.10          	16.5           	12.889
MS.11          	16.5           	12.877
MS.12          	16.5           	12.877
MS.13          	16.5           	12.897
MS.14          	16.5           	12.909
MS.15          	16.5           	12.877
MS.16          	16.5           	12.872
MS.17          	16.5           	12.897
MS.18          	16.5           	12.889
MS.19          	16.5           	12.915
MS.20          	16.5           	12.907
MS.21          	16.5           	12.921
MS.22          	16.5           	12.937
MS.23          	16.5           	12.925
MS.24          	16.435         	12.931
MS.25          	16.4           	12.923
MS.26          	16.368         	12.945
MS.27          	16.335         	12.919
MS.28          	16.302         	12.935
MS.29          	16.27          	12.945
MS.30          	16.237         	12.939
MS.31          	16.205         	12.967
MS.32          	16.172         	12.975
MS.33          	16.14          	12.977
MS.34          	16.108         	12.975
MS.35          	16.077         	12.963
MS.36          	16.045         	12.987
MS.37          	16.012         	12.989
MS.38          	15.98          	13.005
MS.39          	15.947         	13.016
MS.40          	15.917         	12.985
MS.41          	15.885         	12.989
MS.42          	15.852         	13.005
MS.43          	15.822         	13.001
MS.44          	15.79          	13.032
MS.45          	15.757         	13.03
MS.46          	15.727         	13.034
MS.47          	15.695         	13.026
MS.48          	15.665         	13.022
MS.49          	15.632         	13.016
MS.50          	15.602         	12.997
MS.51          	15.57          	13.022
MS.52          	15.54          	13.036
MS.53          	15.507         	12.999
MS.54          	15.477         	13.026
MS.55          	15.445         	13.036
MS.56          	15.415         	13.032
MS.57          	15.385         	13.018
MS.58          	15.352         	13.046
MS.59          	15.322         	13.024
MS.60          	15.292         	13.032
MS.61          	15.262         	13.001
MS.62          	15.233         	12.983
MS.63          	15.2           	12.995
MS.64          	15.17          	13.013
MS.65          	15.14          	13.018
MS.66          	15.11          	12.997
MS.67          	15.08          	13.016
MS.68          	15.05          	13.018
MS.69          	15.02          	12.997
MS.70          	14.99          	13.003
MS.71          	14.96          	13.007
MS.72          	14.93          	13.005
MS.73          	14.9           	13.04
MS.74          	14.87          	13.054
MS.75          	14.84          	13.05
MS.76          	14.81          	13.06
MS.77          	14.78          	13.074
MS.78          	14.752         	13.086
MS.79          	14.722         	13.084
MS.80          	14.693         	13.001
MS.81          	14.662         	13.084
MS.82          	14.635         	13.08
MS.83          	14.605         	13.106
MS.84          	14.575         	13.022
MS.85          	14.547         	13.005
MS.86          	14.517         	12.983
MS.87          	14.487         	12.969
MS.88          	14.46          	12.959
MS.89          	14.43          	12.931
MS.90          	14.403         	12.955
MS.91          	14.372         	12.973
MS.92          	14.345         	12.985
MS.93          	14.315         	12.985
MS.94          	14.287         	12.969
MS.95          	14.257         	12.949
MS.96          	14.23          	12.734
MS.97          	14.202         	12.951
MS.98          	14.172         	12.967
MS.99          	14.145         	12.707
MS.100         	14.117         	12.725
MS.101         	14.087         	12.736
MS.102         	14.06          	12.721
MS.103         	14.032         	12.973
MS.104         	14.005         	12.725
MS.105         	13.975         	12.738
MS.106         	13.947         	12.991
MS.107         	13.92          	12.963
MS.108         	13.892         	12.725
MS.109         	13.865         	12.965
MS.110         	13.837         	12.725
MS.111         	13.81          	12.719
MS.112         	13.782         	12.736
MS.113         	13.755         	12.725
MS.114         	13.727         	12.717
MS.115         	13.7           	12.715
MS.116         	13.672         	12.697
MS.117         	13.645         	12.693
MS.118         	13.617         	12.689
MS.119         	13.59          	12.439
MS.120         	13.562         	12.736
MS.121         	13.535         	12.721
MS.122         	13.51          	12.723
MS.123         	13.483         	12.697
MS.124         	13.455         	12.727
MS.125         	13.427         	12.655
MS.126         	13.403         	12.653
MS.127         	13.375         	12.369
MS.128         	13.347         	11.888
MS.129         	13.32          	12.391
MS.130         	13.295         	12.657
MS.131         	13.267         	12.371
MS.132         	13.242         	12.639
MS.133         	13.215         	12.391
MS.134         	13.188         	12.373
MS.135         	13.162         	12.147
MS.136         	13.135         	11.926
MS.137         	13.11          	11.892
MS.138         	13.082         	11.636
MS.139         	13.057         	11.646
MS.140         	13.032         	11.664
MS.141         	13.005         	11.894
MS.142         	12.98          	11.656
MS.143         	12.952         	11.678
MS.144         	12.927         	11.686
MS.145         	12.903         	11.672
MS.146         	12.875         	11.628
MS.147         	12.85          	11.471
MS.148         	12.825         	11.634
MS.149         	12.8           	11.64
MS.150         	12.773         	11.642
MS.151         	12.747         	11.652
MS.152         	12.722         	11.36
MS.153         	12.697         	11.444
MS.154         	12.672         	11.167
MS.155         	12.645         	11.44
MS.156         	12.62          	11.64
MS.157         	12.595         	11.144
MS.158         	12.57          	11.451
MS.159         	12.545         	11.463
MS.160         	12.52          	11.471
MS.161         	12.495         	11.187
MS.162         	12.47          	11.181
MS.163         	12.445         	11.201
MS.164         	12.42          	11.005
MS.165         	12.395         	11.189
MS.166         	12.37          	10.999
MS.167         	12.347         	10.983
MS.168         	12.322         	10.921
MS.169         	12.297         	11.132
MS.170         	12.273         	11.37
MS.171         	12.247         	11.106
MS.172         	12.222         	11.138
MS.173         	12.2           	10.766
MS.174         	12.175         	11.034
MS.175         	12.15          	11.102
MS.176         	12.125         	10.911
MS.177         	12.102         	10.883
MS.178         	12.077         	10.885
MS.179         	12.052         	10.901
MS.180         	12.03          	10.933
MS.181         	12.005         	10.899
MS.182         	11.983         	10.913
MS.183         	11.957         	10.721
MS.184         	11.932         	10.727
MS.185         	11.91          	10.701
MS.186         	11.885         	10.697
MS.187         	11.863         	10.816
MS.188         	11.837         	10.876
MS.189         	11.815         	10.715
MS.190         	11.79          	10.689
MS.191         	11.767         	10.697
MS.192         	11.745         	10.657
MS.193         	11.72          	10.705
MS.194         	11.697         	10.701
MS.195         	11.675         	10.582
MS.196         	11.65          	10.623
MS.197         	11.627         	10.641
MS.198         	11.605         	10.578
MS.199         	11.58          	10.139
MS.200         	11.557         	10.157
MS.201         	11.535         	10.234
MS.202         	11.512         	10.578
MS.203         	11.488         	9.922
MS.204         	11.465         	9.595
MS.205         	11.443         	9.779
MS.206         	11.42          	9.382
MS.207         	11.398         	9.523
MS.208         	11.375         	9.823
MS.209         	11.352         	10.208
MS.210         	11.33          	9.69
MS.211         	11.307         	8.758
MS.212         	11.282         	8.907
MS.213         	11.26          	9.364
MS.214         	11.238         	8.836
MS.215         	11.215         	8.772
MS.216         	11.195         	9.013
MS.217         	11.172         	8.604
MS.218         	11.15          	8.816
MS.219         	11.127         	8.802
MS.220         	11.105         	8.627
MS.221         	11.082         	8.578
MS.222         	11.06          	8.57
MS.223         	11.037         	8.268
MS.224         	11.015         	8.387
MS.225         	10.995         	8.2
MS.226         	10.972         	8.063
MS.227         	10.95          	8.208
MS.228         	10.927         	7.952
MS.229         	10.907         	8.264
MS.230         	10.885         	7.777
MS.231         	10.863         	8.449
MS.232         	10.84          	8.137
MS.233         	10.82          	7.7
MS.234         	10.797         	7.102
MS.235         	10.778         	8.059
MS.236         	10.755         	7.714
MS.237         	10.733         	7.67
MS.238         	10.712         	7.185
MS.239         	10.69          	7.567
MS.240         	10.67          	7.368
MS.241         	10.648         	7.007
MS.242         	10.627         	7.285
MS.243         	10.605         	7.497
MS.244         	10.585         	7.46
MS.245         	10.562         	6.403
MS.246         	10.542         	6.457
MS.247         	10.52          	6.047
MS.248         	10.5           	6.635
MS.249         	10.48          	5.587
MS.250         	10.457         	5.591
MS.251         	10.438         	6.441
MS.252         	10.415         	5.928
MS.253         	10.395         	5.94
MS.254         	10.375         	6.929
MS.255         	10.355         	5.978
MS.256         	10.332         	5.901
MS.257         	10.312         	5.682
MS.258         	10.292         	5.269
MS.259         	10.273         	5.338
MS.260         	10.25          	5.384
MS.261         	10.23          	5.162
MS.262         	10.21          	4.85
MS.263         	10.19          	5.15
MS.264         	10.17          	4.832
MS.265         	10.15          	4.933
MS.266         	10.127         	5.072
MS.267         	10.108         	4.957
MS.268         	10.087         	4.562
MS.269         	10.068         	5.027
MS.270         	10.047         	4.504
MS.271         	10.028         	4.248
MS.272         	10.007         	4.254
MS.273         	9.988          	3.954
MS.274         	9.967          	4.534
MS.275         	9.948          	4.069
MS.276         	9.927          	4.008
MS.277         	9.907          	3.809
MS.278         	9.887          	3.819
MS.279         	9.867          	3.611
MS.280         	9.85           	4.026
MS.281         	9.83           	3.74
MS.282         	9.81           	3.738
MS.283         	9.79           	3.63
MS.284         	9.77           	3.438
MS.285         	9.75           	3.374
MS.286         	9.733          	3.098
MS.287         	9.712          	3.239
MS.288         	9.693          	3.211
MS.289         	9.672          	3.013
MS.290         	9.655          	3.194
MS.291         	9.635          	3.047
MS.292         	9.615          	3.205
MS.293         	9.595          	3.136
MS.294         	9.577          	2.957
MS.295         	9.557          	3.07
MS.296         	9.537          	2.9
MS.297         	9.52           	2.997
MS.298         	9.5            	2.896
MS.299         	9.483          	3.055
MS.300         	9.462          	2.921
MS.301         	9.445          	2.949
MS.302         	9.425          	2.927
MS.303         	9.405          	2.78
MS.304         	9.387          	2.896
MS.305         	9.367          	2.824
MS.306         	9.35           	2.572
MS.307         	9.33           	2.836
MS.308         	9.312          	2.506
MS.309         	9.295          	2.218
MS.310         	9.275          	2.181
MS.311         	9.257          	1.98
MS.312         	9.238          	2.212
MS.313         	9.22           	1.956
MS.314         	9.202          	2.01
MS.315         	9.182          	1.895
MS.316         	9.165          	2.306
MS.317         	9.148          	2.103
MS.318         	9.127          	1.579
MS.319         	9.11           	1.976
MS.320         	9.092          	2.149
MS.321         	9.073          	1.766
MS.322         	9.055          	1.785
MS.323         	9.037          	1.362
MS.324         	9.02           	1.386
MS.325         	9              	1.404
MS.326         	8.983          	1.331
MS.327         	8.965          	1.362
MS.328         	8.948          	1.337
MS.329         	8.93           	1.281
MS.330         	8.912          	1.339
MS.331         	8.895          	1.247
MS.332         	8.875          	1.196
MS.333         	8.858          	1.243
MS.334         	8.84           	1.289
MS.335         	8.823          	1.09
MS.336         	8.805          	1.144
MS.337         	8.787          	1.138
MS.338         	8.77           	1.084
MS.339         	8.752          	1.078
MS.340         	8.735          	1.011
MS.341         	8.717          	1.023
MS.342         	8.7            	1.084
MS.343         	8.682          	1.065
MS.344         	8.665          	1.063
MS.345         	8.648          	0.991
MS.346         	8.63           	0.983
MS.347         	8.613          	1.021
MS.348         	8.597          	1.017
MS.349         	8.58           	1.029
MS.350         	8.562          	0.985
MS.351         	8.545          	1.001
MS.352         	8.528          	0.908
MS.353         	8.51           	0.985
MS.354         	8.495          	0.918
MS.355         	8.477          	0.929
MS.356         	8.46           	0.872
MS.357         	8.443          	0.929
MS.358         	8.427          	0.862
MS.359         	8.41           	0.975
MS.360         	8.392          	0.9
MS.361         	8.375          	0.886
MS.362         	8.36           	0.89
MS.363         	8.342          	0.916
MS.364         	8.325          	0.916
MS.365         	8.31           	0.842
MS.366         	8.292          	0.89
MS.367         	8.275          	0.868
MS.368         	8.26           	0.876
MS.369         	8.242          	0.892
MS.370         	8.227          	0.87
MS.371         	8.21           	0.828
MS.372         	8.193          	0.868
MS.373         	8.177          	0.864
MS.374         	8.16           	0.84
MS.375         	8.145          	0.83
MS.376         	8.127          	0.868
MS.377         	8.113          	0.876
MS.378         	8.095          	0.804
MS.379         	8.08           	0.826
MS.380         	8.062          	0.806
MS.381         	8.047          	0.838
MS.382         	8.033          	0.832
MS.383         	8.015          	0.864
MS.384         	8              	0.814
MS.385         	7.982          	0.832
MS.386         	7.967          	0.818
MS.387         	7.952          	0.83
MS.388         	7.935          	0.872
MS.389         	7.92           	0.812
MS.390         	7.905          	0.814
MS.391         	7.887          	0.838
MS.392         	7.872          	0.842
MS.393         	7.857          	0.812
MS.394         	7.84           	0.814
MS.395         	7.825          	0.812
MS.396         	7.81           	0.816
MS.397         	7.795          	0.822
MS.398         	7.777          	0.82
MS.399         	7.762          	0.818
MS.400         	7.747          	0.81
MS.401         	7.732          	0.816
MS.402         	7.717          	0.812
MS.403         	7.7            	0.81
MS.404         	7.685          	0.816
MS.405         	7.67           	0.816
MS.406         	7.655          	0.81
MS.407         	7.64           	0.812
MS.408         	7.625          	0.82
MS.409         	7.61           	0.822
MS.410         	7.595          	0.818
MS.411         	7.58           	0.818
MS.412         	7.562          	0.816
MS.413         	7.547          	0.82
MS.414         	7.532          	0.822
MS.415         	7.517          	0.82
MS.416         	7.503          	0.814
MS.417         	7.487          	0.816
MS.418         	7.472          	0.81
MS.419         	7.457          	0.814
MS.420         	7.442          	0.816
MS.421         	7.427          	0.814
MS.422         	7.415          	0.808
MS.423         	7.4            	0.822
MS.424         	7.385          	0.816
MS.425         	7.37           	0.82
MS.426         	7.355          	0.798
MS.427         	7.34           	0.812
MS.428         	7.325          	0.82
MS.429         	7.31           	0.816
MS.430         	7.295          	0.818
MS.431         	7.282          	0.814
MS.432         	7.267          	0.814
MS.433         	7.253          	0.822
MS.434         	7.237          	0.82
MS.435         	7.222          	0.814
MS.436         	7.21           	0.822
MS.437         	7.195          	0.737
MS.438         	7.18           	0.826
MS.439         	7.165          	0.737
MS.440         	7.152          	0.816
MS.441         	7.137          	0.737
MS.442         	7.122          	0.741
MS.443         	7.11           	0.798
MS.444         	7.095          	0.814
MS.445         	7.08           	0.717
MS.446         	7.067          	0.717
MS.447         	7.052          	0.719
MS.448         	7.037          	0.719
MS.449         	7.025          	0.719
MS.450         	7.01           	0.713
MS.451         	6.995          	0.741
MS.452         	6.983          	0.713
MS.453         	6.967          	0.721
MS.454         	6.955          	0.715
MS.455         	6.94           	0.731
MS.456         	6.927          	0.745
MS.457         	6.912          	0.548
MS.458         	6.9            	0.711
MS.459         	6.885          	0.729
MS.460         	6.872          	0.542
MS.461         	6.858          	0.542
MS.462         	6.845          	0.723
MS.463         	6.83           	0.721
MS.464         	6.817          	0.719
MS.465         	6.802          	0.536
MS.466         	6.79           	0.721
MS.467         	6.775          	0.723
MS.468         	6.762          	0.544
MS.469         	6.747          	0.542
MS.470         	6.735          	0.506
MS.471         	6.722          	0.719
MS.472         	6.707          	0.52
MS.473         	6.695          	0.532
MS.474         	6.682          	0.5
MS.475         	6.668          	0.526
MS.476         	6.655          	0.512
MS.477         	6.642          	0.546
MS.478         	6.628          	0.52
MS.479         	6.615          	0.661
MS.480         	6.602          	0.506
MS.481         	6.587          	0.495
MS.482         	6.575          	0.487
MS.483         	6.562          	0.485
MS.484         	6.55           	0.493
MS.485         	6.535          	0.502
MS.486         	6.523          	0.54
MS.487         	6.51           	0.489
MS.488         	6.497          	0.532
MS.489         	6.485          	0.485
MS.490         	6.47           	0.491
MS.491         	6.457          	0.495
MS.492         	6.445          	0.497
MS.493         	6.432          	0.489
MS.494         	6.42           	0.485
MS.495         	6.407          	0.489
