File:              	C:\Qtrac\Data\Daniel M Sørensen\MScan multicentre study\Data from centres\Oslo\Processed data\SZC00609D.QZD
Name:              	NO.OSL.NC.15.2
Protocol:          	MSCAN-R2
Date:              	9/6/20
Start time:        	17:24:58
Age:               	41
Sex:               	M
Temperature:       	33.9
S/R sites:         	TA
NC/disease:        	NC15
Operator:          	SZ
Comments:          	Test2
M-SCAN DATA (12-2.3m)
Scanpts: 7, 15, 1001, 1012
Stim. (mA)     	Amp. (mV)
MS.1           	27.5           	9.044
MS.2           	27.5           	9.056
MS.3           	27.5           	9.031
MS.4           	27.5           	9.019
MS.5           	27.5           	9.001
MS.6           	27.5           	8.993
MS.7           	27.5           	8.989
MS.8           	27.5           	8.981
MS.9           	27.5           	9.007
MS.10          	27.5           	8.989
MS.11          	27.5           	8.963
MS.12          	27.5           	8.985
MS.13          	27.5           	8.999
MS.14          	27.5           	9.003
MS.15          	27.5           	8.987
MS.16          	27.5           	8.987
MS.17          	27.5           	8.991
MS.18          	27.5           	8.991
MS.19          	27.5           	8.967
MS.20          	27.5           	8.999
MS.21          	27.5           	9.001
MS.22          	27.5           	8.979
MS.23          	27.5           	8.991
MS.24          	27.335         	8.987
MS.25          	27.28          	8.973
MS.26          	27.227         	8.971
MS.27          	27.172         	8.917
MS.28          	27.118         	8.901
MS.29          	27.062         	8.874
MS.30          	27.01          	8.895
MS.31          	26.955         	8.921
MS.32          	26.903         	8.882
MS.33          	26.847         	8.923
MS.34          	26.795         	8.891
MS.35          	26.74          	8.915
MS.36          	26.688         	8.903
MS.37          	26.635         	8.923
MS.38          	26.58          	8.901
MS.39          	26.528         	8.888
MS.40          	26.475         	8.888
MS.41          	26.422         	8.812
MS.42          	26.37          	8.84
MS.43          	26.315         	8.836
MS.44          	26.262         	8.854
MS.45          	26.21          	8.83
MS.46          	26.157         	8.794
MS.47          	26.108         	8.822
MS.48          	26.055         	8.796
MS.49          	26.002         	8.848
MS.50          	25.95          	8.808
MS.51          	25.897         	8.745
MS.52          	25.847         	8.83
MS.53          	25.795         	8.788
MS.54          	25.743         	8.798
MS.55          	25.692         	8.798
MS.56          	25.64          	8.77
MS.57          	25.59          	8.816
MS.58          	25.538         	8.818
MS.59          	25.487         	8.812
MS.60          	25.438         	8.766
MS.61          	25.385         	8.747
MS.62          	25.335         	8.713
MS.63          	25.285         	8.665
MS.64          	25.233         	8.719
MS.65          	25.182         	8.715
MS.66          	25.132         	8.703
MS.67          	25.082         	8.669
MS.68          	25.032         	8.619
MS.69          	24.983         	8.675
MS.70          	24.932         	8.697
MS.71          	24.882         	8.609
MS.72          	24.832         	8.586
MS.73          	24.782         	8.641
MS.74          	24.735         	8.671
MS.75          	24.685         	8.645
MS.76          	24.635         	8.596
MS.77          	24.585         	8.639
MS.78          	24.538         	8.588
MS.79          	24.487         	8.56
MS.80          	24.44          	8.602
MS.81          	24.39          	8.675
MS.82          	24.342         	8.584
MS.83          	24.292         	8.582
MS.84          	24.245         	8.548
MS.85          	24.195         	8.538
MS.86          	24.147         	8.518
MS.87          	24.1           	8.506
MS.88          	24.05          	8.538
MS.89          	24.002         	8.54
MS.90          	23.955         	8.526
MS.91          	23.907         	8.496
MS.92          	23.86          	8.53
MS.93          	23.812         	8.516
MS.94          	23.765         	8.486
MS.95          	23.717         	8.52
MS.96          	23.67          	8.484
MS.97          	23.622         	8.476
MS.98          	23.575         	8.455
MS.99          	23.528         	8.482
MS.100         	23.48          	8.413
MS.101         	23.435         	8.423
MS.102         	23.387         	8.395
MS.103         	23.34          	8.407
MS.104         	23.292         	8.306
MS.105         	23.247         	8.399
MS.106         	23.2           	8.363
MS.107         	23.155         	8.3
MS.108         	23.108         	8.337
MS.109         	23.062         	8.365
MS.110         	23.015         	8.363
MS.111         	22.97          	8.284
MS.112         	22.925         	8.206
MS.113         	22.877         	8.23
MS.114         	22.832         	8.337
MS.115         	22.788         	8.252
MS.116         	22.743         	8.256
MS.117         	22.695         	8.208
MS.118         	22.65          	8.161
MS.119         	22.605         	8.149
MS.120         	22.56          	8.206
MS.121         	22.515         	8.186
MS.122         	22.47          	8.18
MS.123         	22.425         	8.184
MS.124         	22.38          	8.135
MS.125         	22.335         	8.167
MS.126         	22.29          	8.139
MS.127         	22.247         	8.151
MS.128         	22.202         	8.083
MS.129         	22.157         	8.081
MS.130         	22.112         	8.099
MS.131         	22.07          	8.095
MS.132         	22.025         	8.055
MS.133         	21.98          	8.091
MS.134         	21.938         	8.051
MS.135         	21.892         	8.006
MS.136         	21.85          	7.98
MS.137         	21.805         	7.978
MS.138         	21.762         	7.96
MS.139         	21.72          	7.97
MS.140         	21.675         	7.928
MS.141         	21.632         	8.01
MS.142         	21.59          	7.986
MS.143         	21.545         	7.97
MS.144         	21.502         	7.946
MS.145         	21.46          	7.906
MS.146         	21.417         	7.946
MS.147         	21.375         	7.891
MS.148         	21.333         	7.863
MS.149         	21.29          	7.801
MS.150         	21.247         	7.837
MS.151         	21.205         	7.821
MS.152         	21.163         	7.761
MS.153         	21.12          	7.797
MS.154         	21.077         	7.746
MS.155         	21.035         	7.702
MS.156         	20.993         	7.781
MS.157         	20.95          	7.815
MS.158         	20.91          	7.767
MS.159         	20.868         	7.73
MS.160         	20.825         	7.748
MS.161         	20.785         	7.704
MS.162         	20.743         	7.664
MS.163         	20.7           	7.706
MS.164         	20.66          	7.676
MS.165         	20.618         	7.692
MS.166         	20.577         	7.698
MS.167         	20.535         	7.66
MS.168         	20.495         	7.678
MS.169         	20.455         	7.642
MS.170         	20.413         	7.563
MS.171         	20.372         	7.609
MS.172         	20.333         	7.63
MS.173         	20.29          	7.609
MS.174         	20.25          	7.628
MS.175         	20.21          	7.607
MS.176         	20.17          	7.571
MS.177         	20.13          	7.603
MS.178         	20.09          	7.581
MS.179         	20.05          	7.561
MS.180         	20.01          	7.547
MS.181         	19.97          	7.569
MS.182         	19.93          	7.515
MS.183         	19.89          	7.543
MS.184         	19.85          	7.517
MS.185         	19.81          	7.513
MS.186         	19.77          	7.513
MS.187         	19.73          	7.531
MS.188         	19.692         	7.491
MS.189         	19.653         	7.454
MS.190         	19.612         	7.509
MS.191         	19.573         	7.466
MS.192         	19.535         	7.458
MS.193         	19.495         	7.432
MS.194         	19.458         	7.471
MS.195         	19.417         	7.448
MS.196         	19.38          	7.436
MS.197         	19.34          	7.442
MS.198         	19.302         	7.386
MS.199         	19.262         	7.434
MS.200         	19.225         	7.378
MS.201         	19.185         	7.39
MS.202         	19.147         	7.352
MS.203         	19.11          	7.372
MS.204         	19.07          	7.326
MS.205         	19.032         	7.344
MS.206         	18.995         	7.376
MS.207         	18.958         	7.352
MS.208         	18.92          	7.344
MS.209         	18.882         	7.406
MS.210         	18.845         	7.376
MS.211         	18.805         	7.384
MS.212         	18.767         	7.309
MS.213         	18.73          	7.323
MS.214         	18.692         	7.305
MS.215         	18.657         	7.317
MS.216         	18.62          	7.362
MS.217         	18.583         	7.342
MS.218         	18.545         	7.332
MS.219         	18.507         	7.311
MS.220         	18.47          	7.315
MS.221         	18.432         	7.358
MS.222         	18.397         	7.301
MS.223         	18.36          	7.313
MS.224         	18.323         	7.313
MS.225         	18.288         	7.251
MS.226         	18.25          	7.283
MS.227         	18.215         	7.287
MS.228         	18.177         	7.309
MS.229         	18.14          	7.249
MS.230         	18.105         	7.241
MS.231         	18.067         	7.281
MS.232         	18.032         	7.203
MS.233         	17.997         	7.185
MS.234         	17.96          	7.189
MS.235         	17.925         	7.229
MS.236         	17.89          	7.191
MS.237         	17.852         	7.257
MS.238         	17.817         	7.172
MS.239         	17.782         	7.211
MS.240         	17.747         	7.18
MS.241         	17.71          	7.152
MS.242         	17.675         	7.172
MS.243         	17.64          	7.189
MS.244         	17.605         	7.237
MS.245         	17.57          	7.178
MS.246         	17.535         	7.136
MS.247         	17.5           	7.227
MS.248         	17.465         	7.13
MS.249         	17.43          	7.195
MS.250         	17.395         	7.116
MS.251         	17.36          	7.156
MS.252         	17.325         	7.112
MS.253         	17.29          	7.142
MS.254         	17.257         	7.152
MS.255         	17.222         	7.14
MS.256         	17.188         	7.166
MS.257         	17.153         	7.128
MS.258         	17.12          	7.088
MS.259         	17.085         	7.094
MS.260         	17.05          	7.108
MS.261         	17.017         	7.106
MS.262         	16.983         	7.094
MS.263         	16.948         	7.098
MS.264         	16.915         	7.056
MS.265         	16.88          	7.086
MS.266         	16.847         	7.07
MS.267         	16.812         	7.066
MS.268         	16.78          	7.066
MS.269         	16.747         	7.052
MS.270         	16.712         	7.029
MS.271         	16.68          	7.052
MS.272         	16.645         	7.056
MS.273         	16.612         	7.068
MS.274         	16.58          	6.981
MS.275         	16.547         	6.989
MS.276         	16.512         	6.939
MS.277         	16.48          	6.999
MS.278         	16.448         	7.031
MS.279         	16.415         	6.898
MS.280         	16.382         	7.031
MS.281         	16.35          	6.987
MS.282         	16.317         	7.037
MS.283         	16.285         	6.969
MS.284         	16.253         	6.892
MS.285         	16.22          	6.878
MS.286         	16.188         	6.907
MS.287         	16.155         	6.953
MS.288         	16.122         	6.917
MS.289         	16.09          	6.951
MS.290         	16.057         	6.844
MS.291         	16.025         	6.868
MS.292         	15.992         	6.886
MS.293         	15.962         	6.903
MS.294         	15.93          	6.872
MS.295         	15.898         	6.83
MS.296         	15.865         	6.818
MS.297         	15.835         	6.872
MS.298         	15.802         	6.84
MS.299         	15.77          	6.921
MS.300         	15.74          	6.83
MS.301         	15.707         	6.913
MS.302         	15.677         	6.882
MS.303         	15.645         	6.82
MS.304         	15.615         	6.828
MS.305         	15.582         	6.824
MS.306         	15.552         	6.858
MS.307         	15.52          	6.826
MS.308         	15.49          	6.856
MS.309         	15.46          	6.758
MS.310         	15.427         	6.909
MS.311         	15.398         	6.836
MS.312         	15.367         	6.826
MS.313         	15.335         	6.852
MS.314         	15.305         	6.81
MS.315         	15.275         	6.886
MS.316         	15.245         	6.751
MS.317         	15.212         	6.703
MS.318         	15.182         	6.782
MS.319         	15.152         	6.711
MS.320         	15.122         	6.864
MS.321         	15.092         	6.719
MS.322         	15.062         	6.731
MS.323         	15.032         	6.778
MS.324         	15.002         	6.723
MS.325         	14.972         	6.683
MS.326         	14.943         	6.703
MS.327         	14.912         	6.659
MS.328         	14.882         	6.655
MS.329         	14.852         	6.663
MS.330         	14.822         	6.677
MS.331         	14.792         	6.657
MS.332         	14.765         	6.627
MS.333         	14.735         	6.645
MS.334         	14.705         	6.596
MS.335         	14.675         	6.612
MS.336         	14.645         	6.498
MS.337         	14.617         	6.617
MS.338         	14.587         	6.667
MS.339         	14.557         	6.621
MS.340         	14.53          	6.5
MS.341         	14.5           	6.536
MS.342         	14.472         	6.51
MS.343         	14.443         	6.48
MS.344         	14.412         	6.465
MS.345         	14.385         	6.31
MS.346         	14.355         	6.445
MS.347         	14.327         	6.427
MS.348         	14.3           	6.502
MS.349         	14.27          	6.339
MS.350         	14.242         	6.312
MS.351         	14.212         	6.389
MS.352         	14.185         	6.248
MS.353         	14.157         	6.361
MS.354         	14.127         	6.254
MS.355         	14.1           	6.272
MS.356         	14.072         	6.244
MS.357         	14.045         	6.304
MS.358         	14.015         	6.272
MS.359         	13.987         	6.206
MS.360         	13.96          	6.185
MS.361         	13.932         	6.208
MS.362         	13.905         	6.181
MS.363         	13.877         	6.274
MS.364         	13.847         	6.204
MS.365         	13.82          	6.113
MS.366         	13.792         	6.19
MS.367         	13.765         	6.159
MS.368         	13.737         	6.093
MS.369         	13.71          	6.159
MS.370         	13.682         	6.143
MS.371         	13.655         	6.153
MS.372         	13.63          	6.147
MS.373         	13.602         	6.123
MS.374         	13.575         	6.091
MS.375         	13.547         	6.022
MS.376         	13.52          	6.073
MS.377         	13.492         	6.061
MS.378         	13.465         	6.061
MS.379         	13.44          	5.988
MS.380         	13.412         	6.01
MS.381         	13.385         	6.012
MS.382         	13.36          	6.024
MS.383         	13.332         	5.992
MS.384         	13.305         	6.008
MS.385         	13.28          	6.032
MS.386         	13.252         	5.948
MS.387         	13.225         	5.958
MS.388         	13.2           	5.962
MS.389         	13.172         	5.938
MS.390         	13.148         	5.97
MS.391         	13.12          	5.934
MS.392         	13.095         	5.956
MS.393         	13.068         	5.946
MS.394         	13.042         	5.942
MS.395         	13.015         	5.869
MS.396         	12.99          	5.783
MS.397         	12.965         	5.819
MS.398         	12.938         	5.754
MS.399         	12.912         	5.928
MS.400         	12.887         	5.817
MS.401         	12.86          	5.626
MS.402         	12.835         	5.692
MS.403         	12.81          	5.799
MS.404         	12.785         	5.901
MS.405         	12.757         	5.706
MS.406         	12.733         	5.783
MS.407         	12.707         	5.696
MS.408         	12.682         	5.682
MS.409         	12.657         	5.767
MS.410         	12.632         	5.583
MS.411         	12.605         	5.704
MS.412         	12.58          	5.497
MS.413         	12.555         	5.672
MS.414         	12.53          	5.507
MS.415         	12.505         	5.611
MS.416         	12.48          	5.497
MS.417         	12.455         	5.497
MS.418         	12.43          	5.555
MS.419         	12.405         	5.499
MS.420         	12.38          	5.569
MS.421         	12.358         	5.479
MS.422         	12.332         	5.398
MS.423         	12.307         	5.515
MS.424         	12.282         	5.388
MS.425         	12.257         	5.386
MS.426         	12.233         	5.47
MS.427         	12.21          	5.428
MS.428         	12.185         	5.327
MS.429         	12.16          	5.406
MS.430         	12.135         	5.388
MS.431         	12.113         	5.374
MS.432         	12.087         	5.408
MS.433         	12.062         	5.305
MS.434         	12.04          	5.37
MS.435         	12.015         	5.41
MS.436         	11.992         	5.285
MS.437         	11.967         	5.227
MS.438         	11.943         	5.231
MS.439         	11.92          	5.199
MS.440         	11.895         	5.279
MS.441         	11.872         	5.263
MS.442         	11.847         	5.327
MS.443         	11.825         	5.233
MS.444         	11.8           	5.197
MS.445         	11.778         	5.197
MS.446         	11.755         	5.247
MS.447         	11.73          	5.199
MS.448         	11.707         	5.193
MS.449         	11.682         	5.237
MS.450         	11.66          	5.193
MS.451         	11.637         	5.211
MS.452         	11.613         	5.241
MS.453         	11.59          	5.239
MS.454         	11.568         	5.271
MS.455         	11.545         	5.193
MS.456         	11.52          	5.275
MS.457         	11.497         	5.17
MS.458         	11.475         	5.237
MS.459         	11.452         	5.17
MS.460         	11.43          	5.174
MS.461         	11.407         	5.19
MS.462         	11.382         	5.18
MS.463         	11.36          	5.203
MS.464         	11.337         	5.122
MS.465         	11.315         	5.199
MS.466         	11.292         	5.098
MS.467         	11.27          	5.152
MS.468         	11.247         	5.108
MS.469         	11.225         	5.122
MS.470         	11.202         	5.074
MS.471         	11.18          	5.054
MS.472         	11.157         	5.174
MS.473         	11.135         	5.086
MS.474         	11.113         	5.074
MS.475         	11.092         	5.106
MS.476         	11.07          	4.997
MS.477         	11.047         	5.1
MS.478         	11.025         	5.033
MS.479         	11.002         	5.094
MS.480         	10.98          	5.031
MS.481         	10.96          	5.045
MS.482         	10.938         	5.031
MS.483         	10.915         	4.963
MS.484         	10.892         	4.915
MS.485         	10.872         	5.019
MS.486         	10.85          	4.933
MS.487         	10.827         	4.951
MS.488         	10.807         	4.904
MS.489         	10.785         	4.902
MS.490         	10.762         	4.874
MS.491         	10.742         	4.902
MS.492         	10.72          	4.919
MS.493         	10.7           	4.89
MS.494         	10.677         	4.872
MS.495         	10.657         	4.866
MS.496         	10.635         	4.884
MS.497         	10.615         	4.888
MS.498         	10.592         	4.87
MS.499         	10.573         	4.892
MS.500         	10.55          	4.892
MS.501         	10.53          	4.842
