File:              	C:\Qtrac\Data\Daniel M Sørensen\MScan multicentre study\Data from centres\Oslo\Processed data\SZC00604D.QZD
Name:              	NO.OSL.NC.13.2
Protocol:          	MSCAN-R2
Date:              	4/6/20
Start time:        	16:52:08
Age:               	33
Sex:               	M
Temperature:       	34.2
S/R sites:         	APB
NC/disease:        	NC13
Operator:          	SZ
Comments:          	Test2
M-SCAN DATA (10-5.7m)
Scanpts: 31, 40, 359, 372
Stim. (mA)     	Amp. (mV)
MS.1           	32             	11.511
MS.2           	32             	11.529
MS.3           	32             	11.509
MS.4           	32             	11.499
MS.5           	32             	11.485
MS.6           	32             	11.467
MS.7           	32             	11.507
MS.8           	32             	11.513
MS.9           	32             	11.499
MS.10          	32             	11.533
MS.11          	32             	11.531
MS.12          	32             	11.551
MS.13          	32             	11.539
MS.14          	32             	11.499
MS.15          	32             	11.513
MS.16          	32             	11.509
MS.17          	32             	11.646
MS.18          	32             	11.511
MS.19          	32             	11.521
MS.20          	32             	11.501
MS.21          	32             	11.501
MS.22          	32             	11.545
MS.23          	32             	11.513
MS.24          	31.872         	11.634
MS.25          	31.807         	11.63
MS.26          	31.745         	11.487
MS.27          	31.682         	11.499
MS.28          	31.617         	11.495
MS.29          	31.555         	11.499
MS.30          	31.492         	11.489
MS.31          	31.43          	11.463
MS.32          	31.365         	11.501
MS.33          	31.302         	11.523
MS.34          	31.24          	11.509
MS.35          	31.177         	11.513
MS.36          	31.117         	11.501
MS.37          	31.055         	11.487
MS.38          	30.992         	11.487
MS.39          	30.93          	11.503
MS.40          	30.867         	11.501
MS.41          	30.807         	11.477
MS.42          	30.745         	11.501
MS.43          	30.682         	11.513
MS.44          	30.622         	11.497
MS.45          	30.56          	11.442
MS.46          	30.5           	11.175
MS.47          	30.44          	11.479
MS.48          	30.377         	11.446
MS.49          	30.317         	11.459
MS.50          	30.257         	11.463
MS.51          	30.198         	11.136
MS.52          	30.137         	11.448
MS.53          	30.075         	11.451
MS.54          	30.015         	11.461
MS.55          	29.955         	11.424
MS.56          	29.895         	11.169
MS.57          	29.837         	11.179
MS.58          	29.778         	11.164
MS.59          	29.717         	11.4
MS.60          	29.657         	11.195
MS.61          	29.597         	11.225
MS.62          	29.54          	11.181
MS.63          	29.48          	11.173
MS.64          	29.422         	11.094
MS.65          	29.362         	11.114
MS.66          	29.305         	11.156
MS.67          	29.245         	11.116
MS.68          	29.188         	11.106
MS.69          	29.13          	11.138
MS.70          	29.07          	11.08
MS.71          	29.012         	11.112
MS.72          	28.955         	11.052
MS.73          	28.897         	11.054
MS.74          	28.84          	11.066
MS.75          	28.782         	11.074
MS.76          	28.725         	11.09
MS.77          	28.667         	10.995
MS.78          	28.61          	11.04
MS.79          	28.552         	10.935
MS.80          	28.495         	11.005
MS.81          	28.438         	11.019
MS.82          	28.382         	10.566
MS.83          	28.325         	10.782
MS.84          	28.267         	10.689
MS.85          	28.212         	10.693
MS.86          	28.155         	10.675
MS.87          	28.1           	10.182
MS.88          	28.042         	10.246
MS.89          	27.987         	10.615
MS.90          	27.93          	10.423
MS.91          	27.875         	10.415
MS.92          	27.82          	10.147
MS.93          	27.765         	10.033
MS.94          	27.707         	10.057
MS.95          	27.653         	9.718
MS.96          	27.597         	9.753
MS.97          	27.542         	9.819
MS.98          	27.487         	9.702
MS.99          	27.432         	9.954
MS.100         	27.377         	9.569
MS.101         	27.323         	9.12
MS.102         	27.267         	9.309
MS.103         	27.215         	9.71
MS.104         	27.16          	9.328
MS.105         	27.105         	8.995
MS.106         	27.05          	9.013
MS.107         	26.997         	9.148
MS.108         	26.942         	9.177
MS.109         	26.89          	8.937
MS.110         	26.835         	8.635
MS.111         	26.782         	8.818
MS.112         	26.727         	8.774
MS.113         	26.675         	8.218
MS.114         	26.622         	8.627
MS.115         	26.567         	8.741
MS.116         	26.515         	8.58
MS.117         	26.462         	8.474
MS.118         	26.41          	8.407
MS.119         	26.358         	8.23
MS.120         	26.305         	7.972
MS.121         	26.252         	7.918
MS.122         	26.2           	7.783
MS.123         	26.147         	7.644
MS.124         	26.095         	7.813
MS.125         	26.042         	7.676
MS.126         	25.99          	7.652
MS.127         	25.938         	7.628
MS.128         	25.887         	7.517
MS.129         	25.835         	7.551
MS.130         	25.782         	7.531
MS.131         	25.733         	7.624
MS.132         	25.68          	7.509
MS.133         	25.63          	7.386
MS.134         	25.577         	7.241
MS.135         	25.528         	7.172
MS.136         	25.475         	7.088
MS.137         	25.425         	7.303
MS.138         	25.375         	7.056
MS.139         	25.323         	7.116
MS.140         	25.272         	6.925
MS.141         	25.222         	6.671
MS.142         	25.172         	6.814
MS.143         	25.122         	6.586
MS.144         	25.073         	6.562
MS.145         	25.022         	6.49
MS.146         	24.972         	6.588
MS.147         	24.922         	6.474
MS.148         	24.872         	6.574
MS.149         	24.823         	6.623
MS.150         	24.772         	6.206
MS.151         	24.722         	6.181
MS.152         	24.672         	6.169
MS.153         	24.625         	6.131
MS.154         	24.575         	5.974
MS.155         	24.525         	6.226
MS.156         	24.477         	5.674
MS.157         	24.427         	5.875
MS.158         	24.38          	5.577
MS.159         	24.33          	5.515
MS.160         	24.282         	5.686
MS.161         	24.233         	5.108
MS.162         	24.185         	5.491
MS.163         	24.137         	5.315
MS.164         	24.087         	5.07
MS.165         	24.04          	5.182
MS.166         	23.993         	5.275
MS.167         	23.945         	5.211
MS.168         	23.897         	5.031
MS.169         	23.85          	4.729
MS.170         	23.8           	4.61
MS.171         	23.752         	4.616
MS.172         	23.705         	4.554
MS.173         	23.657         	4.473
MS.174         	23.612         	4.453
MS.175         	23.565         	4.036
MS.176         	23.517         	4.399
MS.177         	23.47          	3.851
MS.178         	23.422         	3.841
MS.179         	23.377         	3.96
MS.180         	23.33          	3.803
MS.181         	23.282         	3.775
MS.182         	23.237         	3.65
MS.183         	23.19          	3.666
MS.184         	23.145         	3.42
MS.185         	23.097         	3.567
MS.186         	23.052         	3.213
MS.187         	23.005         	3.072
MS.188         	22.96          	3.215
MS.189         	22.913         	3.315
MS.190         	22.868         	3.029
MS.191         	22.823         	2.862
MS.192         	22.778         	2.616
MS.193         	22.73          	2.858
MS.194         	22.685         	2.643
MS.195         	22.64          	2.6
MS.196         	22.595         	2.596
MS.197         	22.55          	2.373
MS.198         	22.505         	2.197
MS.199         	22.46          	2.25
MS.200         	22.415         	2.322
MS.201         	22.37          	2.278
MS.202         	22.325         	2.163
MS.203         	22.28          	2.016
MS.204         	22.237         	2.044
MS.205         	22.192         	1.944
MS.206         	22.147         	2.101
MS.207         	22.102         	1.982
MS.208         	22.06          	1.664
MS.209         	22.015         	1.903
MS.210         	21.97          	1.764
MS.211         	21.927         	1.692
MS.212         	21.882         	1.897
MS.213         	21.84          	1.807
MS.214         	21.795         	1.762
MS.215         	21.752         	1.692
MS.216         	21.71          	1.341
MS.217         	21.665         	1.478
MS.218         	21.622         	1.279
MS.219         	21.58          	1.352
MS.220         	21.535         	1.305
MS.221         	21.493         	1.265
MS.222         	21.45          	1.289
MS.223         	21.407         	1.245
MS.224         	21.365         	1.452
MS.225         	21.323         	1.261
MS.226         	21.28          	1.124
MS.227         	21.237         	1.148
MS.228         	21.195         	1.124
MS.229         	21.153         	0.945
MS.230         	21.11          	1.049
MS.231         	21.067         	1.17
MS.232         	21.025         	1.005
MS.233         	20.983         	1.011
MS.234         	20.942         	0.963
MS.235         	20.9           	1.009
MS.236         	20.858         	0.906
MS.237         	20.815         	0.87
MS.238         	20.775         	0.931
MS.239         	20.733         	0.806
MS.240         	20.692         	0.937
MS.241         	20.65          	0.88
MS.242         	20.61          	0.723
MS.243         	20.567         	0.86
MS.244         	20.528         	0.82
MS.245         	20.485         	0.709
MS.246         	20.445         	0.709
MS.247         	20.405         	0.725
MS.248         	20.362         	0.612
MS.249         	20.323         	0.62
MS.250         	20.282         	0.717
MS.251         	20.243         	0.695
MS.252         	20.2           	0.679
MS.253         	20.16          	0.687
MS.254         	20.12          	0.566
MS.255         	20.08          	0.479
MS.256         	20.04          	0.459
MS.257         	20             	0.481
MS.258         	19.96          	0.538
MS.259         	19.92          	0.556
MS.260         	19.88          	0.405
MS.261         	19.84          	0.407
MS.262         	19.8           	0.411
MS.263         	19.762         	0.391
MS.264         	19.722         	0.475
MS.265         	19.682         	0.401
MS.266         	19.642         	0.485
MS.267         	19.605         	0.387
MS.268         	19.565         	0.389
MS.269         	19.525         	0.385
MS.270         	19.487         	0.369
MS.271         	19.448         	0.379
MS.272         	19.41          	0.385
MS.273         	19.37          	0.383
MS.274         	19.333         	0.385
MS.275         	19.292         	0.369
MS.276         	19.255         	0.365
MS.277         	19.215         	0.379
MS.278         	19.177         	0.375
MS.279         	19.14          	0.375
MS.280         	19.1           	0.389
MS.281         	19.062         	0.286
MS.282         	19.025         	0.377
MS.283         	18.987         	0.379
MS.284         	18.948         	0.375
MS.285         	18.91          	0.375
MS.286         	18.872         	0.346
MS.287         	18.835         	0.294
MS.288         	18.797         	0.354
MS.289         	18.76          	0.27
MS.290         	18.722         	0.334
MS.291         	18.685         	0.268
MS.292         	18.647         	0.35
MS.293         	18.61          	0.268
MS.294         	18.573         	0.264
MS.295         	18.538         	0.268
MS.296         	18.5           	0.336
MS.297         	18.462         	0.272
MS.298         	18.425         	0.262
MS.299         	18.387         	0.262
MS.300         	18.352         	0.175
MS.301         	18.315         	0.288
MS.302         	18.278         	0.26
MS.303         	18.243         	0.246
MS.304         	18.205         	0.248
MS.305         	18.17          	0.268
MS.306         	18.132         	0.268
MS.307         	18.097         	0.24
MS.308         	18.06          	0.252
MS.309         	18.025         	0.193
MS.310         	17.987         	0.175
MS.311         	17.952         	0.167
MS.312         	17.917         	0.177
MS.313         	17.88          	0.252
MS.314         	17.845         	0.167
MS.315         	17.81          	0.139
MS.316         	17.775         	0.173
MS.317         	17.737         	0.175
MS.318         	17.702         	0.248
MS.319         	17.667         	0.169
MS.320         	17.632         	0.165
MS.321         	17.597         	0.175
MS.322         	17.562         	0.137
MS.323         	17.528         	0.093
MS.324         	17.493         	0.173
MS.325         	17.458         	0.167
MS.326         	17.422         	0.169
MS.327         	17.387         	0.169
MS.328         	17.352         	0.139
MS.329         	17.317         	0.135
MS.330         	17.282         	0.143
MS.331         	17.247         	0.135
MS.332         	17.215         	0.141
MS.333         	17.18          	0.133
MS.334         	17.145         	0.056
MS.335         	17.11          	0.133
MS.336         	17.077         	0.052
MS.337         	17.042         	0.143
MS.338         	17.01          	0.139
MS.339         	16.975         	0.143
MS.340         	16.94          	0.133
MS.341         	16.907         	0.141
MS.342         	16.872         	0.143
MS.343         	16.84          	0.137
MS.344         	16.805         	0.05
MS.345         	16.772         	0.058
MS.346         	16.74          	0.05
MS.347         	16.705         	0.133
MS.348         	16.672         	0.056
MS.349         	16.637         	0.139
MS.350         	16.605         	0.054
MS.351         	16.573         	0.054
MS.352         	16.54          	0.06
MS.353         	16.505         	0.062
MS.354         	16.472         	0.058
MS.355         	16.44          	0.05
MS.356         	16.407         	0.052
MS.357         	16.375         	0.046
MS.358         	16.342         	0.05
MS.359         	16.31          	0.058
MS.360         	16.278         	0.06
MS.361         	16.245         	0.056
MS.362         	16.212         	0.064
MS.363         	16.18          	0.062
MS.364         	16.147         	0.058
MS.365         	16.115         	0.054
MS.366         	16.083         	0.062
MS.367         	16.05          	0.05
MS.368         	16.017         	0.05
MS.369         	15.987         	0.058
MS.370         	15.955         	0.058
MS.371         	15.922         	0.062
MS.372         	15.89          	0.05
MS.373         	15.86          	0.05
MS.374         	15.827         	0.064
MS.375         	15.795         	0.06
MS.376         	15.765         	0.058
MS.377         	15.733         	0.056
MS.378         	15.7           	0.06
MS.379         	15.67          	0.062
MS.380         	15.637         	0.06
MS.381         	15.608         	0.062
MS.382         	15.575         	0.06
MS.383         	15.545         	0.054
MS.384         	15.515         	0.06
MS.385         	15.483         	0.064
MS.386         	15.452         	0.054
MS.387         	15.42          	0.058
MS.388         	15.39          	0.062
MS.389         	15.36          	0.056
MS.390         	15.33          	0.062
MS.391         	15.297         	0.058
MS.392         	15.267         	0.054
MS.393         	15.237         	0.064
MS.394         	15.207         	0.056
MS.395         	15.177         	0.056
MS.396         	15.145         	0.06
MS.397         	15.115         	0.064
MS.398         	15.085         	0.054
MS.399         	15.055         	0.056
MS.400         	15.025         	0.056
MS.401         	14.995         	0.054
MS.402         	14.965         	0.058
MS.403         	14.935         	0.066
MS.404         	14.905         	0.06
MS.405         	14.875         	0.06
MS.406         	14.845         	0.066
MS.407         	14.818         	0.054
MS.408         	14.787         	0.064
MS.409         	14.757         	0.058
MS.410         	14.727         	0.058
MS.411         	14.697         	0.056
MS.412         	14.67          	0.064
MS.413         	14.64          	0.066
MS.414         	14.61          	0.06
MS.415         	14.58          	0.062
MS.416         	14.552         	0.052
MS.417         	14.523         	0.058
MS.418         	14.495         	0.06
MS.419         	14.465         	0.064
MS.420         	14.435         	0.056
MS.421         	14.407         	0.064
MS.422         	14.377         	0.062
MS.423         	14.35          	0.062
MS.424         	14.32          	0.066
MS.425         	14.292         	0.06
MS.426         	14.265         	0.06
MS.427         	14.235         	0.062
MS.428         	14.207         	0.066
MS.429         	14.177         	0.06
MS.430         	14.15          	0.058
MS.431         	14.122         	0.052
MS.432         	14.095         	0.066
MS.433         	14.065         	0.054
MS.434         	14.037         	0.06
MS.435         	14.01          	0.064
MS.436         	13.983         	0.06
MS.437         	13.952         	0.062
MS.438         	13.925         	0.058
MS.439         	13.898         	0.058
MS.440         	13.87          	0.064
MS.441         	13.842         	0.062
MS.442         	13.815         	0.056
MS.443         	13.787         	0.068
MS.444         	13.76          	0.064
MS.445         	13.733         	0.064
MS.446         	13.705         	0.064
MS.447         	13.677         	0.054
MS.448         	13.65          	0.068
MS.449         	13.622         	0.066
MS.450         	13.595         	0.06
MS.451         	13.568         	0.058
MS.452         	13.54          	0.066
MS.453         	13.515         	0.058
MS.454         	13.487         	0.064
MS.455         	13.46          	0.062
MS.456         	13.432         	0.06
MS.457         	13.407         	0.058
MS.458         	13.38          	0.062
MS.459         	13.352         	0.056
MS.460         	13.325         	0.068
MS.461         	13.3           	0.06
MS.462         	13.273         	0.064
MS.463         	13.247         	0.066
MS.464         	13.22          	0.056
MS.465         	13.193         	0.064
MS.466         	13.167         	0.054
MS.467         	13.14          	0.062
MS.468         	13.115         	0.068
MS.469         	13.087         	0.054
MS.470         	13.062         	0.068
MS.471         	13.035         	0.066
MS.472         	13.01          	0.058
MS.473         	12.985         	0.056
MS.474         	12.957         	0.064
MS.475         	12.932         	0.064
MS.476         	12.907         	0.066
MS.477         	12.88          	0.062
DERIVED EXCITABILITY VARIABLES
Program = QTracP 3/4/2020
Threshold method = 6 (optimised for CAP, using data for present condition only)
SR method = 1 (using actual data values)
6.                 	0.000               	Peak response\(mV)
9.                 	34.2                	Temperature ( C)
17.                	33                  	Age (years)
18.                	1                   	Sex (M=1, F=2)

EXTRA VARIABLES

MScPeak(mV) = 11.46
MScS5(mA) = 20.12
MScS50(mA) = 24.45
MScS95(mA) = 28.42
MScNSteps = 5
MScSteps(%) = 12.2
MScStepMax(%) = 3.2
MScD50 = 36
MScSlope = 6.44
MSFPeakAmp(mV) = 11.4
MSFNUnits = 196
MSFMeanUnitAmp(uV) = 58.4
MSFHuntTime(m) = 2.57
MSFError(%) = 5.95
MSFNLarge = 66.69
MSFMedianAmp(%) = 0.453
MSFMedianAmp(mV) = 0.0519
MSFHalfAmpAmp(%) = 0.551
MSFHalfAmpAmp(mV) = 0.063
