File:              	C:\Qtrac\Data\Daniel M Sørensen\MScan multicentre study\Data from centres\Oslo\Processed data\SZC00507D.QZD
Name:              	NO.OSL.NC.5.2
Protocol:          	MSCAN-R2
Date:              	7/5/20
Start time:        	16:47:03
Age:               	56
Sex:               	F
Temperature:       	31.4
S/R sites:         	APB
NC/disease:        	NC5
Operator:          	SZ
Comments:          	Test2
M-SCAN DATA (9.1-3.5m)
Scanpts: 189, 198, 587, 608
Stim. (mA)     	Amp. (mV)
MS.1           	18.5           	11.12
MS.2           	18.5           	11.09
MS.3           	18.5           	11.106
MS.4           	18.5           	11.082
MS.5           	18.5           	11.076
MS.6           	18.5           	11.064
MS.7           	18.5           	11.118
MS.8           	18.5           	11.088
MS.9           	18.5           	11.102
MS.10          	18.5           	11.1
MS.11          	18.5           	11.134
MS.12          	18.5           	11.108
MS.13          	18.5           	11.126
MS.14          	18.5           	11.156
MS.15          	18.5           	11.14
MS.16          	18.5           	11.148
MS.17          	18.5           	11.148
MS.18          	18.5           	11.162
MS.19          	18.5           	11.169
MS.20          	18.5           	11.187
MS.21          	18.5           	11.173
MS.22          	18.5           	11.173
MS.23          	18.5           	11.185
MS.24          	18.425         	11.156
MS.25          	18.39          	11.187
MS.26          	18.352         	11.162
MS.27          	18.315         	11.197
MS.28          	18.28          	11.185
MS.29          	18.243         	11.171
MS.30          	18.208         	11.197
MS.31          	18.17          	11.215
MS.32          	18.132         	11.199
MS.33          	18.097         	11.215
MS.34          	18.06          	11.217
MS.35          	18.025         	11.183
MS.36          	17.99          	11.189
MS.37          	17.952         	11.179
MS.38          	17.917         	11.215
MS.39          	17.882         	11.187
MS.40          	17.845         	11.211
MS.41          	17.81          	11.223
MS.42          	17.775         	11.207
MS.43          	17.74          	11.207
MS.44          	17.702         	11.211
MS.45          	17.667         	11.205
MS.46          	17.632         	11.197
MS.47          	17.597         	11.195
MS.48          	17.562         	11.191
MS.49          	17.528         	11.183
MS.50          	17.493         	11.215
MS.51          	17.458         	11.205
MS.52          	17.422         	11.241
MS.53          	17.387         	11.215
MS.54          	17.352         	11.227
MS.55          	17.317         	11.225
MS.56          	17.285         	11.237
MS.57          	17.25          	11.225
MS.58          	17.215         	11.225
MS.59          	17.18          	11.245
MS.60          	17.145         	11.221
MS.61          	17.112         	11.253
MS.62          	17.077         	11.251
MS.63          	17.042         	11.253
MS.64          	17.01          	11.253
MS.65          	16.975         	11.239
MS.66          	16.942         	11.257
MS.67          	16.907         	11.245
MS.68          	16.875         	11.241
MS.69          	16.84          	11.227
MS.70          	16.807         	11.253
MS.71          	16.772         	11.215
MS.72          	16.74          	11.225
MS.73          	16.705         	11.227
MS.74          	16.672         	11.245
MS.75          	16.64          	11.247
MS.76          	16.605         	11.215
MS.77          	16.573         	11.251
MS.78          	16.54          	11.223
MS.79          	16.507         	11.221
MS.80          	16.472         	11.213
MS.81          	16.44          	11.231
MS.82          	16.407         	11.229
MS.83          	16.375         	11.225
MS.84          	16.342         	11.227
MS.85          	16.31          	11.237
MS.86          	16.278         	11.239
MS.87          	16.245         	11.243
MS.88          	16.212         	11.249
MS.89          	16.18          	11.239
MS.90          	16.147         	11.257
MS.91          	16.115         	11.247
MS.92          	16.083         	11.247
MS.93          	16.05          	11.251
MS.94          	16.02          	11.249
MS.95          	15.987         	11.251
MS.96          	15.955         	11.225
MS.97          	15.922         	11.255
MS.98          	15.89          	11.255
MS.99          	15.86          	11.245
MS.100         	15.827         	11.277
MS.101         	15.795         	11.261
MS.102         	15.765         	11.247
MS.103         	15.733         	11.257
MS.104         	15.702         	11.265
MS.105         	15.67          	11.263
MS.106         	15.64          	11.265
MS.107         	15.608         	11.297
MS.108         	15.577         	11.255
MS.109         	15.545         	11.293
MS.110         	15.515         	11.271
MS.111         	15.483         	11.271
MS.112         	15.452         	11.269
MS.113         	15.422         	11.269
MS.114         	15.39          	11.267
MS.115         	15.36          	11.265
MS.116         	15.33          	11.285
MS.117         	15.297         	11.305
MS.118         	15.267         	11.289
MS.119         	15.237         	11.307
MS.120         	15.207         	11.301
MS.121         	15.177         	11.293
MS.122         	15.148         	11.326
MS.123         	15.115         	11.297
MS.124         	15.085         	11.289
MS.125         	15.055         	11.285
MS.126         	15.025         	11.287
MS.127         	14.995         	11.279
MS.128         	14.965         	11.305
MS.129         	14.935         	11.299
MS.130         	14.905         	11.307
MS.131         	14.877         	11.314
MS.132         	14.847         	11.326
MS.133         	14.818         	11.305
MS.134         	14.787         	11.31
MS.135         	14.757         	11.299
MS.136         	14.727         	11.305
MS.137         	14.7           	11.281
MS.138         	14.67          	11.291
MS.139         	14.64          	11.297
MS.140         	14.61          	11.277
MS.141         	14.582         	11.324
MS.142         	14.552         	11.312
MS.143         	14.523         	11.314
MS.144         	14.495         	11.33
MS.145         	14.465         	11.32
MS.146         	14.438         	11.318
MS.147         	14.407         	11.312
MS.148         	14.38          	11.305
MS.149         	14.35          	11.31
MS.150         	14.322         	11.293
MS.151         	14.292         	11.299
MS.152         	14.265         	11.305
MS.153         	14.235         	11.34
MS.154         	14.207         	11.334
MS.155         	14.18          	11.322
MS.156         	14.15          	11.346
MS.157         	14.122         	11.326
MS.158         	14.095         	11.334
MS.159         	14.065         	11.338
MS.160         	14.037         	11.336
MS.161         	14.01          	11.332
MS.162         	13.983         	11.34
MS.163         	13.955         	11.348
MS.164         	13.925         	11.338
MS.165         	13.898         	11.35
MS.166         	13.87          	11.354
MS.167         	13.842         	11.364
MS.168         	13.815         	11.38
MS.169         	13.787         	11.36
MS.170         	13.76          	11.384
MS.171         	13.733         	11.388
MS.172         	13.705         	11.396
MS.173         	13.677         	11.408
MS.174         	13.65          	11.402
MS.175         	13.622         	11.402
MS.176         	13.595         	11.43
MS.177         	13.568         	11.38
MS.178         	13.542         	11.41
MS.179         	13.515         	11.432
MS.180         	13.487         	11.414
MS.181         	13.46          	11.463
MS.182         	13.432         	11.404
MS.183         	13.407         	11.428
MS.184         	13.38          	11.418
MS.185         	13.352         	11.41
MS.186         	13.327         	11.432
MS.187         	13.3           	11.448
MS.188         	13.273         	11.465
MS.189         	13.247         	11.475
MS.190         	13.22          	11.43
MS.191         	13.195         	11.416
MS.192         	13.167         	11.461
MS.193         	13.142         	11.483
MS.194         	13.115         	11.491
MS.195         	13.09          	11.501
MS.196         	13.062         	11.485
MS.197         	13.037         	11.487
MS.198         	13.01          	11.481
MS.199         	12.985         	11.455
MS.200         	12.957         	11.471
MS.201         	12.932         	11.485
MS.202         	12.907         	11.485
MS.203         	12.88          	11.483
MS.204         	12.855         	11.471
MS.205         	12.83          	11.513
MS.206         	12.805         	11.122
MS.207         	12.778         	11.14
MS.208         	12.752         	11.118
MS.209         	12.727         	11.479
MS.210         	12.702         	11.489
MS.211         	12.677         	11.479
MS.212         	12.653         	11.132
MS.213         	12.625         	11.114
MS.214         	12.6           	11.158
MS.215         	12.575         	11.162
MS.216         	12.55          	11.483
MS.217         	12.525         	11.142
MS.218         	12.5           	11.152
MS.219         	12.475         	11.14
MS.220         	12.45          	11.16
MS.221         	12.425         	11.15
MS.222         	12.4           	11.134
MS.223         	12.375         	11.146
MS.224         	12.352         	11.14
MS.225         	12.327         	11.148
MS.226         	12.302         	11.14
MS.227         	12.278         	11.162
MS.228         	12.252         	11.175
MS.229         	12.227         	11.154
MS.230         	12.205         	11.14
MS.231         	12.18          	11.136
MS.232         	12.155         	11.144
MS.233         	12.13          	11.14
MS.234         	12.108         	11.15
MS.235         	12.082         	11.142
MS.236         	12.057         	11.142
MS.237         	12.035         	11.122
MS.238         	12.01          	11.138
MS.239         	11.988         	11.108
MS.240         	11.962         	11.13
MS.241         	11.938         	11.146
MS.242         	11.915         	11.128
MS.243         	11.89          	11.114
MS.244         	11.867         	11.124
MS.245         	11.842         	11.126
MS.246         	11.82          	11.116
MS.247         	11.795         	11.102
MS.248         	11.773         	11.122
MS.249         	11.75          	11.086
MS.250         	11.725         	11.116
MS.251         	11.702         	11.104
MS.252         	11.677         	11.122
MS.253         	11.655         	11.142
MS.254         	11.632         	11.148
MS.255         	11.61          	11.142
MS.256         	11.585         	11.164
MS.257         	11.562         	11.164
MS.258         	11.54          	11.142
MS.259         	11.517         	11.169
MS.260         	11.492         	11.177
MS.261         	11.47          	11.183
MS.262         	11.447         	11.132
MS.263         	11.425         	11.179
MS.264         	11.403         	11.169
MS.265         	11.38          	11.177
MS.266         	11.355         	11.16
MS.267         	11.332         	11.171
MS.268         	11.31          	11.154
MS.269         	11.287         	11.175
MS.270         	11.265         	11.181
MS.271         	11.242         	11.126
MS.272         	11.22          	11.158
MS.273         	11.197         	11.173
MS.274         	11.175         	11.175
MS.275         	11.153         	11.181
MS.276         	11.132         	11.162
MS.277         	11.11          	11.162
MS.278         	11.087         	11.175
MS.279         	11.065         	11.144
MS.280         	11.042         	11.132
MS.281         	11.02          	11.15
MS.282         	10.997         	11.142
MS.283         	10.977         	11.148
MS.284         	10.955         	11.16
MS.285         	10.932         	11.138
MS.286         	10.91          	11.152
MS.287         	10.89          	10.995
MS.288         	10.867         	10.995
MS.289         	10.845         	11.162
MS.290         	10.825         	10.985
MS.291         	10.802         	11.164
MS.292         	10.78          	11.136
MS.293         	10.76          	10.983
MS.294         	10.738         	10.981
MS.295         	10.717         	10.977
MS.296         	10.695         	11.14
MS.297         	10.672         	10.943
MS.298         	10.653         	10.951
MS.299         	10.63          	10.816
MS.300         	10.61          	10.818
MS.301         	10.587         	10.967
MS.302         	10.568         	10.947
MS.303         	10.545         	10.842
MS.304         	10.525         	10.905
MS.305         	10.505         	10.854
MS.306         	10.483         	10.935
MS.307         	10.462         	10.832
MS.308         	10.443         	10.883
MS.309         	10.42          	10.804
MS.310         	10.4           	10.806
MS.311         	10.38          	10.905
MS.312         	10.358         	10.905
MS.313         	10.337         	10.8
MS.314         	10.318         	10.709
MS.315         	10.295         	10.705
MS.316         	10.275         	10.76
MS.317         	10.255         	10.717
MS.318         	10.235         	10.693
MS.319         	10.215         	10.768
MS.320         	10.193         	10.8
MS.321         	10.172         	10.717
MS.322         	10.153         	10.733
MS.323         	10.132         	10.713
MS.324         	10.113         	10.677
MS.325         	10.092         	10.687
MS.326         	10.073         	10.715
MS.327         	10.052         	10.266
MS.328         	10.032         	10.748
MS.329         	10.012         	10.705
MS.330         	9.992          	10.746
MS.331         	9.972          	10.729
MS.332         	9.952          	10.522
MS.333         	9.932          	10.619
MS.334         	9.912          	10.596
MS.335         	9.892          	10.659
MS.336         	9.872          	10.518
MS.337         	9.852          	10.534
MS.338         	9.832          	10.661
MS.339         	9.812          	10.061
MS.340         	9.795          	10.123
MS.341         	9.775          	10.2
MS.342         	9.755          	10.099
MS.343         	9.735          	10.105
MS.344         	9.715          	10.091
MS.345         	9.698          	9.946
MS.346         	9.677          	9.885
MS.347         	9.657          	10.143
MS.348         	9.637          	9.916
MS.349         	9.62           	9.912
MS.350         	9.6            	9.906
MS.351         	9.58           	9.823
MS.352         	9.562          	9.763
MS.353         	9.542          	9.678
MS.354         	9.523          	9.821
MS.355         	9.505          	9.771
MS.356         	9.485          	9.684
MS.357         	9.467          	9.805
MS.358         	9.448          	9.553
MS.359         	9.43           	9.73
MS.360         	9.41           	9.597
MS.361         	9.39           	9.591
MS.362         	9.372          	9.565
MS.363         	9.352          	9.507
MS.364         	9.335          	9.583
MS.365         	9.318          	9.551
MS.366         	9.297          	9.553
MS.367         	9.28           	9.553
MS.368         	9.26           	9.537
MS.369         	9.242          	9.602
MS.370         	9.222          	9.467
MS.371         	9.205          	9.273
MS.372         	9.188          	9.295
MS.373         	9.167          	9.45
MS.374         	9.15           	9.408
MS.375         	9.132          	8.993
MS.376         	9.113          	9.221
MS.377         	9.095          	9.048
MS.378         	9.077          	9.195
MS.379         	9.06           	9.068
MS.380         	9.04           	8.949
MS.381         	9.023          	8.983
MS.382         	9.005          	8.878
MS.383         	8.988          	8.671
MS.384         	8.97           	8.683
MS.385         	8.95           	8.854
MS.386         	8.932          	8.872
MS.387         	8.915          	8.542
MS.388         	8.898          	8.846
MS.389         	8.88           	8.671
MS.390         	8.863          	8.762
MS.391         	8.845          	8.546
MS.392         	8.827          	8.6
MS.393         	8.81           	8.53
MS.394         	8.792          	8.633
MS.395         	8.775          	8.516
MS.396         	8.755          	8.264
MS.397         	8.74           	8.353
MS.398         	8.722          	8.417
MS.399         	8.705          	8.256
MS.400         	8.688          	8.272
MS.401         	8.67           	8.327
MS.402         	8.653          	8.182
MS.403         	8.635          	7.946
MS.404         	8.617          	7.99
MS.405         	8.6            	8.145
MS.406         	8.582          	8.004
MS.407         	8.565          	7.775
MS.408         	8.547          	7.694
MS.409         	8.533          	7.815
MS.410         	8.515          	7.823
MS.411         	8.497          	7.767
MS.412         	8.48           	7.537
MS.413         	8.462          	7.726
MS.414         	8.448          	7.573
MS.415         	8.43           	7.642
MS.416         	8.412          	7.42
MS.417         	8.395          	7.168
MS.418         	8.38           	7.233
MS.419         	8.363          	7.261
MS.420         	8.345          	7.269
MS.421         	8.33           	7.247
MS.422         	8.312          	7.011
MS.423         	8.295          	6.937
MS.424         	8.28           	6.995
MS.425         	8.262          	6.856
MS.426         	8.247          	6.911
MS.427         	8.23           	6.842
MS.428         	8.212          	5.825
MS.429         	8.198          	5.883
MS.430         	8.18           	6.049
MS.431         	8.165          	6.194
MS.432         	8.148          	5.855
MS.433         	8.132          	5.555
MS.434         	8.115          	5.901
MS.435         	8.1            	5.509
MS.436         	8.082          	5.605
MS.437         	8.068          	4.935
MS.438         	8.05           	5.358
MS.439         	8.035          	5.037
MS.440         	8.017          	5.235
MS.441         	8.002          	5.301
MS.442         	7.987          	4.653
MS.443         	7.97           	4.927
MS.444         	7.955          	4.955
MS.445         	7.94           	4.401
MS.446         	7.922          	4.492
MS.447         	7.907          	3.974
MS.448         	7.892          	4.294
MS.449         	7.875          	4.173
MS.450         	7.86           	4.262
MS.451         	7.845          	4.071
MS.452         	7.827          	4.22
MS.453         	7.812          	4.232
MS.454         	7.797          	3.756
MS.455         	7.782          	3.932
MS.456         	7.765          	3.736
MS.457         	7.75           	3.638
MS.458         	7.735          	3.71
MS.459         	7.72           	3.853
MS.460         	7.705          	3.638
MS.461         	7.69           	3.454
MS.462         	7.672          	3.096
MS.463         	7.657          	3.364
MS.464         	7.642          	3.168
MS.465         	7.628          	3.13
MS.466         	7.612          	2.921
MS.467         	7.597          	2.846
MS.468         	7.582          	3.247
MS.469         	7.567          	2.669
MS.470         	7.552          	2.882
MS.471         	7.537          	2.645
MS.472         	7.523          	2.556
MS.473         	7.507          	2.687
MS.474         	7.492          	2.622
MS.475         	7.477          	2.729
MS.476         	7.462          	2.606
MS.477         	7.447          	2.405
MS.478         	7.432          	2.201
MS.479         	7.418          	2.308
MS.480         	7.402          	2.191
MS.481         	7.387          	2.022
MS.482         	7.372          	2.107
MS.483         	7.357          	2.282
MS.484         	7.342          	1.982
MS.485         	7.327          	1.934
MS.486         	7.315          	1.952
MS.487         	7.3            	1.984
MS.488         	7.285          	2.129
MS.489         	7.27           	1.793
MS.490         	7.255          	1.938
MS.491         	7.24           	1.7
MS.492         	7.227          	1.73
