File:              	C:\Qtrac\Data\Daniel M Sørensen\MScan multicentre study\Data from centres\Oslo\Processed data\SZC00525B.QZD
Name:              	NO.OSL.NC.11.2
Protocol:          	MSCAN-R2
Date:              	25/5/20
Start time:        	16:28:11
Age:               	45
Sex:               	M
Temperature:       	31.9
S/R sites:         	ADM
NC/disease:        	NC11
Operator:          	SZ
Comments:          	Test2
M-SCAN DATA (7.1-2.5m)
Scanpts: 33, 40, 419, 438
Stim. (mA)     	Amp. (mV)
MS.1           	28.5           	12.349
MS.2           	28.5           	12.331
MS.3           	28.5           	12.351
MS.4           	28.5           	12.315
MS.5           	28.5           	12.266
MS.6           	28.5           	12.319
MS.7           	28.5           	12.292
MS.8           	28.5           	12.359
MS.9           	28.5           	12.29
MS.10          	28.5           	12.294
MS.11          	28.5           	12.333
MS.12          	28.5           	12.272
MS.13          	28.5           	12.317
MS.14          	28.5           	12.351
MS.15          	28.5           	12.292
MS.16          	28.5           	12.329
MS.17          	28.5           	12.333
MS.18          	28.5           	12.363
MS.19          	28.5           	12.3
MS.20          	28.5           	12.321
MS.21          	28.5           	12.298
MS.22          	28.5           	12.3
MS.23          	28.5           	12.321
MS.24          	28.385         	12.329
MS.25          	28.33          	12.321
MS.26          	28.272         	12.331
MS.27          	28.217         	12.381
MS.28          	28.16          	12.383
MS.29          	28.102         	12.371
MS.30          	28.047         	12.403
MS.31          	27.993         	12.393
MS.32          	27.935         	12.387
MS.33          	27.88          	12.369
MS.34          	27.825         	12.431
MS.35          	27.767         	12.411
MS.36          	27.712         	12.399
MS.37          	27.657         	12.389
MS.38          	27.602         	12.379
MS.39          	27.547         	12.395
MS.40          	27.493         	12.369
MS.41          	27.438         	12.365
MS.42          	27.382         	12.425
MS.43          	27.327         	12.425
MS.44          	27.272         	12.339
MS.45          	27.217         	12.329
MS.46          	27.165         	12.311
MS.47          	27.11          	12.327
MS.48          	27.055         	12.383
MS.49          	27.002         	12.325
MS.50          	26.948         	12.355
MS.51          	26.895         	12.339
MS.52          	26.84          	12.385
MS.53          	26.787         	12.381
MS.54          	26.733         	12.341
MS.55          	26.68          	12.351
MS.56          	26.627         	12.331
MS.57          	26.573         	12.361
MS.58          	26.52          	12.385
MS.59          	26.467         	12.343
MS.60          	26.415         	12.375
MS.61          	26.362         	12.361
MS.62          	26.307         	12.3
MS.63          	26.255         	12.329
MS.64          	26.202         	12.339
MS.65          	26.153         	12.383
MS.66          	26.1           	12.333
MS.67          	26.047         	12.313
MS.68          	25.995         	12.367
MS.69          	25.942         	12.26
MS.70          	25.89          	12.325
MS.71          	25.84          	12.272
MS.72          	25.787         	12.353
MS.73          	25.735         	12.141
MS.74          	25.685         	12.307
MS.75          	25.632         	12.294
MS.76          	25.582         	12.21
MS.77          	25.53          	12.351
MS.78          	25.48          	12.284
MS.79          	25.43          	12.252
MS.80          	25.377         	12.26
MS.81          	25.327         	12.208
MS.82          	25.278         	12.29
MS.83          	25.227         	12.218
MS.84          	25.175         	12.063
MS.85          	25.125         	12.26
MS.86          	25.075         	12.329
MS.87          	25.025         	12.184
MS.88          	24.975         	12.049
MS.89          	24.925         	12.21
MS.90          	24.875         	12.268
MS.91          	24.825         	12.047
MS.92          	24.778         	12.129
MS.93          	24.727         	11.94
MS.94          	24.677         	12.012
MS.95          	24.627         	11.95
MS.96          	24.58          	11.99
MS.97          	24.53          	11.928
MS.98          	24.48          	11.525
MS.99          	24.432         	11.996
MS.100         	24.382         	11.928
MS.101         	24.335         	11.616
MS.102         	24.285         	11.561
MS.103         	24.237         	11.869
MS.104         	24.19          	11.503
MS.105         	24.14          	11.191
MS.106         	24.092         	11.497
MS.107         	24.045         	11.551
MS.108         	23.997         	11.428
MS.109         	23.948         	11.388
MS.110         	23.9           	11.473
MS.111         	23.852         	11.384
MS.112         	23.805         	11.386
MS.113         	23.757         	11.422
MS.114         	23.71          	11.251
MS.115         	23.663         	11.225
MS.116         	23.615         	10.963
MS.117         	23.567         	11.183
MS.118         	23.52          	11.118
MS.119         	23.475         	11.175
MS.120         	23.427         	11.132
MS.121         	23.38          	10.931
MS.122         	23.332         	10.826
MS.123         	23.288         	10.748
MS.124         	23.24          	10.939
MS.125         	23.195         	10.709
MS.126         	23.147         	10.647
MS.127         	23.102         	10.832
MS.128         	23.055         	10.915
MS.129         	23.01          	10.308
MS.130         	22.962         	10.619
MS.131         	22.917         	10.594
MS.132         	22.872         	10.29
MS.133         	22.825         	10.367
MS.134         	22.78          	10.22
MS.135         	22.735         	10.176
MS.136         	22.69          	10.298
MS.137         	22.645         	10.107
MS.138         	22.6           	10.228
MS.139         	22.552         	10.045
MS.140         	22.507         	9.998
MS.141         	22.462         	10.111
MS.142         	22.42          	9.885
MS.143         	22.375         	9.839
MS.144         	22.33          	10.061
MS.145         	22.285         	9.602
MS.146         	22.24          	9.972
MS.147         	22.195         	9.616
MS.148         	22.153         	9.589
MS.149         	22.108         	9.795
MS.150         	22.062         	9.628
MS.151         	22.02          	9.519
MS.152         	21.975         	9.616
MS.153         	21.93          	9.505
MS.154         	21.887         	9.322
MS.155         	21.842         	9.465
MS.156         	21.8           	9.475
MS.157         	21.755         	9.221
MS.158         	21.712         	9.505
MS.159         	21.67          	9.187
MS.160         	21.625         	9.108
MS.161         	21.583         	9.056
MS.162         	21.54          	9.152
MS.163         	21.497         	8.981
MS.164         	21.455         	9.015
MS.165         	21.41          	8.935
MS.166         	21.368         	9.027
MS.167         	21.325         	8.872
MS.168         	21.282         	9.144
MS.169         	21.24          	8.701
MS.170         	21.198         	9.064
MS.171         	21.155         	8.385
MS.172         	21.112         	8.079
MS.173         	21.07          	8.663
MS.174         	21.03          	8.361
MS.175         	20.987         	8.262
MS.176         	20.945         	8.071
MS.177         	20.903         	7.771
MS.178         	20.862         	8.163
MS.179         	20.82          	8.216
MS.180         	20.778         	8.085
MS.181         	20.737         	7.829
MS.182         	20.695         	7.775
MS.183         	20.655         	7.452
MS.184         	20.612         	7.533
MS.185         	20.573         	7.187
MS.186         	20.53          	7.469
MS.187         	20.49          	6.758
MS.188         	20.448         	7.064
MS.189         	20.407         	7.09
MS.190         	20.368         	6.52
MS.191         	20.325         	6.931
MS.192         	20.285         	6.675
MS.193         	20.245         	6.242
MS.194         	20.205         	6.387
MS.195         	20.165         	6.802
MS.196         	20.122         	6.095
MS.197         	20.083         	6.343
MS.198         	20.042         	6.296
MS.199         	20.002         	6.264
MS.200         	19.962         	5.744
MS.201         	19.922         	6.057
MS.202         	19.882         	5.746
MS.203         	19.845         	5.758
MS.204         	19.805         	5.72
MS.205         	19.765         	5.581
MS.206         	19.725         	5.483
MS.207         	19.685         	5.763
MS.208         	19.647         	5.708
MS.209         	19.608         	5.529
MS.210         	19.567         	5.144
MS.211         	19.53          	5.529
MS.212         	19.49          	5.368
MS.213         	19.45          	5.497
MS.214         	19.413         	5.38
MS.215         	19.372         	5.386
MS.216         	19.335         	5.15
MS.217         	19.295         	5.086
MS.218         	19.257         	5.118
MS.219         	19.22          	4.902
MS.220         	19.18          	4.971
MS.221         	19.142         	4.979
MS.222         	19.105         	4.929
MS.223         	19.065         	4.139
MS.224         	19.028         	4.26
MS.225         	18.99          	4.643
MS.226         	18.952         	4.637
MS.227         	18.915         	4.643
MS.228         	18.875         	4.645
MS.229         	18.837         	3.799
MS.230         	18.8           	4.181
MS.231         	18.762         	4.397
MS.232         	18.725         	4.439
MS.233         	18.688         	3.652
MS.234         	18.65          	3.525
MS.235         	18.612         	3.613
MS.236         	18.577         	4.228
MS.237         	18.54          	4.01
MS.238         	18.503         	3.525
MS.239         	18.465         	3.118
MS.240         	18.427         	3.309
MS.241         	18.392         	3.45
MS.242         	18.355         	3.172
MS.243         	18.317         	3.138
MS.244         	18.282         	3.396
MS.245         	18.245         	3.255
MS.246         	18.208         	3.271
MS.247         	18.172         	2.967
MS.248         	18.135         	2.86
MS.249         	18.1           	3.394
MS.250         	18.062         	2.82
MS.251         	18.028         	3.18
MS.252         	17.993         	2.788
MS.253         	17.955         	2.854
MS.254         	17.92          	3.09
MS.255         	17.885         	2.608
MS.256         	17.847         	2.552
MS.257         	17.812         	2.568
MS.258         	17.778         	2.536
MS.259         	17.743         	2.465
MS.260         	17.705         	2.502
MS.261         	17.67          	2.624
MS.262         	17.635         	2.338
MS.263         	17.6           	2.316
MS.264         	17.565         	2.492
MS.265         	17.53          	2.346
MS.266         	17.495         	2.097
MS.267         	17.46          	2.314
MS.268         	17.425         	2.268
MS.269         	17.39          	2.179
MS.270         	17.355         	2.147
MS.271         	17.32          	2.185
MS.272         	17.285         	2.171
MS.273         	17.253         	2.099
MS.274         	17.217         	1.889
MS.275         	17.182         	1.827
MS.276         	17.147         	2.304
MS.277         	17.115         	2.002
MS.278         	17.08          	1.754
MS.279         	17.045         	1.464
MS.280         	17.012         	1.666
MS.281         	16.977         	1.728
MS.282         	16.945         	1.744
MS.283         	16.91          	1.706
MS.284         	16.875         	1.114
MS.285         	16.842         	1.366
MS.286         	16.81          	1.706
MS.287         	16.775         	1.094
MS.288         	16.743         	1.19
MS.289         	16.708         	1.112
MS.290         	16.675         	1.317
MS.291         	16.642         	1.174
MS.292         	16.608         	0.977
MS.293         	16.575         	1.223
MS.294         	16.542         	0.864
MS.295         	16.51          	1.086
MS.296         	16.475         	1.055
MS.297         	16.442         	1.051
MS.298         	16.41          	0.904
MS.299         	16.378         	0.788
MS.300         	16.345         	0.806
MS.301         	16.312         	1.225
MS.302         	16.28          	0.894
MS.303         	16.247         	0.709
MS.304         	16.215         	0.691
MS.305         	16.182         	0.413
MS.306         	16.15          	0.417
MS.307         	16.118         	0.445
MS.308         	16.085         	0.864
MS.309         	16.052         	0.645
MS.310         	16.02          	0.429
MS.311         	15.99          	0.9
MS.312         	15.957         	0.401
MS.313         	15.925         	0.463
MS.314         	15.892         	0.338
MS.315         	15.862         	0.411
MS.316         	15.83          	0.338
MS.317         	15.797         	0.296
MS.318         	15.767         	0.354
MS.319         	15.735         	0.32
MS.320         	15.705         	0.401
MS.321         	15.672         	0.254
MS.322         	15.64          	0.31
MS.323         	15.61          	0.316
MS.324         	15.577         	0.328
MS.325         	15.547         	0.284
MS.326         	15.517         	0.262
MS.327         	15.485         	0.214
MS.328         	15.455         	0.284
MS.329         	15.422         	0.258
MS.330         	15.392         	0.218
MS.331         	15.362         	0.203
MS.332         	15.332         	0.238
MS.333         	15.3           	0.252
MS.334         	15.27          	0.246
MS.335         	15.24          	0.24
MS.336         	15.21          	0.24
MS.337         	15.18          	0.218
MS.338         	15.148         	0.197
MS.339         	15.117         	0.242
MS.340         	15.087         	0.183
MS.341         	15.057         	0.193
MS.342         	15.027         	0.222
MS.343         	14.997         	0.236
MS.344         	14.967         	0.189
MS.345         	14.938         	0.224
MS.346         	14.907         	0.195
MS.347         	14.877         	0.151
MS.348         	14.847         	0.22
MS.349         	14.82          	0.189
MS.350         	14.79          	0.197
MS.351         	14.76          	0.214
MS.352         	14.73          	0.207
MS.353         	14.7           	0.189
MS.354         	14.672         	0.187
MS.355         	14.642         	0.179
MS.356         	14.612         	0.171
MS.357         	14.582         	0.151
MS.358         	14.555         	0.195
MS.359         	14.525         	0.195
MS.360         	14.497         	0.171
MS.361         	14.467         	0.161
MS.362         	14.438         	0.177
MS.363         	14.41          	0.183
MS.364         	14.38          	0.207
MS.365         	14.352         	0.163
MS.366         	14.322         	0.167
MS.367         	14.295         	0.197
MS.368         	14.267         	0.175
MS.369         	14.237         	0.181
MS.370         	14.21          	0.183
MS.371         	14.18          	0.175
MS.372         	14.153         	0.171
MS.373         	14.125         	0.189
MS.374         	14.095         	0.187
MS.375         	14.068         	0.163
MS.376         	14.04          	0.137
MS.377         	14.012         	0.169
MS.378         	13.985         	0.167
MS.379         	13.955         	0.167
MS.380         	13.927         	0.117
MS.381         	13.9           	0.062
MS.382         	13.872         	0.135
MS.383         	13.845         	0.135
MS.384         	13.818         	0.111
MS.385         	13.79          	0.107
MS.386         	13.762         	0.131
MS.387         	13.735         	0.107
MS.388         	13.707         	0.109
MS.389         	13.68          	0.054
MS.390         	13.653         	0.05
MS.391         	13.625         	0.073
MS.392         	13.597         	0.113
MS.393         	13.57          	0.048
MS.394         	13.542         	0.052
MS.395         	13.517         	0.05
MS.396         	13.49          	0.066
MS.397         	13.462         	0.048
MS.398         	13.435         	0.058
MS.399         	13.407         	0.054
MS.400         	13.382         	0.052
MS.401         	13.355         	0.054
MS.402         	13.327         	0.054
MS.403         	13.302         	0.056
MS.404         	13.275         	0.056
MS.405         	13.247         	0.058
MS.406         	13.222         	0.052
MS.407         	13.195         	0.056
MS.408         	13.17          	0.05
MS.409         	13.142         	0.05
MS.410         	13.117         	0.056
MS.411         	13.09          	0.056
MS.412         	13.065         	0.054
MS.413         	13.037         	0.056
MS.414         	13.012         	0.054
MS.415         	12.987         	0.058
MS.416         	12.96          	0.056
MS.417         	12.935         	0.058
MS.418         	12.907         	0.052
MS.419         	12.882         	0.058
MS.420         	12.858         	0.05
MS.421         	12.832         	0.058
MS.422         	12.805         	0.054
MS.423         	12.78          	0.058
MS.424         	12.755         	0.052
MS.425         	12.73          	0.046
MS.426         	12.705         	0.054
MS.427         	12.677         	0.056
MS.428         	12.653         	0.054
MS.429         	12.627         	0.048
MS.430         	12.602         	0.052
MS.431         	12.577         	0.056
MS.432         	12.552         	0.054
MS.433         	12.528         	0.056
MS.434         	12.502         	0.056
MS.435         	12.477         	0.054
MS.436         	12.452         	0.05
MS.437         	12.427         	0.056
MS.438         	12.403         	0.054
MS.439         	12.377         	0.058
MS.440         	12.352         	0.056
MS.441         	12.327         	0.048
MS.442         	12.302         	0.052
MS.443         	12.28          	0.056
MS.444         	12.255         	0.056
MS.445         	12.23          	0.054
MS.446         	12.205         	0.054
MS.447         	12.182         	0.058
MS.448         	12.157         	0.046
MS.449         	12.132         	0.054
MS.450         	12.108         	0.05
MS.451         	12.085         	0.054
MS.452         	12.06          	0.052
MS.453         	12.035         	0.048
MS.454         	12.012         	0.056
MS.455         	11.988         	0.052
MS.456         	11.965         	0.058
MS.457         	11.94          	0.048
MS.458         	11.915         	0.054
MS.459         	11.892         	0.056
MS.460         	11.867         	0.058
MS.461         	11.845         	0.056
MS.462         	11.822         	0.054
MS.463         	11.797         	0.048
MS.464         	11.775         	0.054
MS.465         	11.75          	0.054
MS.466         	11.727         	0.042
MS.467         	11.702         	0.058
MS.468         	11.68          	0.056
MS.469         	11.657         	0.05
MS.470         	11.632         	0.058
MS.471         	11.61          	0.054
MS.472         	11.587         	0.054
MS.473         	11.565         	0.052
MS.474         	11.54          	0.048
MS.475         	11.517         	0.048
MS.476         	11.495         	0.052
MS.477         	11.472         	0.048
MS.478         	11.45          	0.054
MS.479         	11.425         	0.06
MS.480         	11.403         	0.048
MS.481         	11.38          	0.056
MS.482         	11.358         	0.048
MS.483         	11.335         	0.054
MS.484         	11.312         	0.056
MS.485         	11.29          	0.058
MS.486         	11.267         	0.05
MS.487         	11.245         	0.052
MS.488         	11.222         	0.048
MS.489         	11.2           	0.052
MS.490         	11.177         	0.052
MS.491         	11.155         	0.048
MS.492         	11.132         	0.048
MS.493         	11.11          	0.054
MS.494         	11.087         	0.048
MS.495         	11.068         	0.056
MS.496         	11.045         	0.052
MS.497         	11.023         	0.054
