File:              	C:\Qtrac\Data\Daniel M Sørensen\MScan multicentre study\Data from centres\Oslo\IronKey\Oslo_NC_first examination\SZC00429K.QZD
Name:              	NO.OSL.NC.4.1
Protocol:          	MSCAN-R2
Date:              	29/4/20
Start time:        	14:44:39
Age:               	39
Sex:               	F
Temperature:       	32.0
S/R sites:         	Peronea TA
NC/disease:        	NC4
Operator:          	SZ
Comments:          	Test1
M-SCAN DATA (11.7-3.9m)
Scanpts: 1, 8, 762, 766
Stim. (mA)     	Amp. (mV)
MS.1           	31.5           	6.387
MS.2           	31.5           	6.395
MS.3           	31.5           	6.377
MS.4           	31.5           	6.375
MS.5           	31.5           	6.377
MS.6           	31.5           	6.389
MS.7           	31.5           	6.365
MS.8           	31.5           	6.387
MS.9           	31.5           	6.375
MS.10          	31.5           	6.409
MS.11          	31.5           	6.385
MS.12          	31.5           	6.339
MS.13          	31.5           	6.361
MS.14          	31.5           	6.353
MS.15          	31.5           	6.363
MS.16          	31.5           	6.363
MS.17          	31.5           	6.419
MS.18          	31.5           	6.397
MS.19          	31.5           	6.419
MS.20          	31.5           	6.373
MS.21          	31.5           	6.405
MS.22          	31.5           	6.367
MS.23          	31.5           	6.383
MS.24          	31.375         	6.322
MS.25          	31.312         	6.367
MS.26          	31.25          	6.367
MS.27          	31.188         	6.377
MS.28          	31.125         	6.379
MS.29          	31.062         	6.383
MS.30          	31             	6.351
MS.31          	30.938         	6.337
MS.32          	30.875         	6.316
MS.33          	30.815         	6.314
MS.34          	30.752         	6.407
MS.35          	30.692         	6.387
MS.36          	30.63          	6.385
MS.37          	30.57          	6.357
MS.38          	30.507         	6.379
MS.39          	30.448         	6.349
MS.40          	30.385         	6.361
MS.41          	30.325         	6.355
MS.42          	30.265         	6.351
MS.43          	30.205         	6.337
MS.44          	30.145         	6.349
MS.45          	30.082         	6.328
MS.46          	30.022         	6.333
MS.47          	29.962         	6.337
MS.48          	29.903         	6.312
MS.49          	29.845         	6.326
MS.50          	29.785         	6.316
MS.51          	29.725         	6.331
MS.52          	29.665         	6.278
MS.53          	29.605         	6.322
MS.54          	29.547         	6.314
MS.55          	29.487         	6.385
MS.56          	29.43          	6.308
MS.57          	29.37          	6.328
MS.58          	29.312         	6.333
MS.59          	29.252         	6.29
MS.60          	29.195         	6.345
MS.61          	29.137         	6.292
MS.62          	29.077         	6.286
MS.63          	29.02          	6.314
MS.64          	28.962         	6.274
MS.65          	28.905         	6.326
MS.66          	28.847         	6.294
MS.67          	28.787         	6.278
MS.68          	28.73          	6.294
MS.69          	28.675         	6.266
MS.70          	28.618         	6.268
MS.71          	28.56          	6.3
MS.72          	28.502         	6.288
MS.73          	28.445         	6.288
MS.74          	28.387         	6.25
MS.75          	28.332         	6.262
MS.76          	28.275         	6.296
MS.77          	28.217         	6.29
MS.78          	28.162         	6.266
MS.79          	28.105         	6.276
MS.80          	28.05          	6.25
MS.81          	27.995         	6.216
MS.82          	27.938         	6.254
MS.83          	27.882         	6.28
MS.84          	27.827         	6.246
MS.85          	27.77          	6.206
MS.86          	27.715         	6.232
MS.87          	27.66          	6.258
MS.88          	27.605         	6.298
MS.89          	27.55          	6.262
MS.90          	27.495         	6.258
MS.91          	27.44          	6.26
MS.92          	27.385         	6.232
MS.93          	27.33          	6.226
MS.94          	27.275         	6.222
MS.95          	27.22          	6.25
MS.96          	27.167         	6.206
MS.97          	27.112         	6.21
MS.98          	27.057         	6.256
MS.99          	27.005         	6.196
MS.100         	26.95          	6.206
MS.101         	26.895         	6.155
MS.102         	26.842         	6.188
MS.103         	26.79          	6.19
MS.104         	26.735         	6.171
MS.105         	26.682         	6.226
MS.106         	26.627         	6.171
MS.107         	26.575         	6.228
MS.108         	26.522         	6.22
MS.109         	26.47          	6.21
MS.110         	26.417         	6.242
MS.111         	26.362         	6.169
MS.112         	26.31          	6.2
MS.113         	26.257         	6.089
MS.114         	26.205         	6.194
MS.115         	26.153         	6.157
MS.116         	26.102         	6.165
MS.117         	26.05          	6.212
MS.118         	25.997         	6.167
MS.119         	25.945         	6.173
MS.120         	25.892         	6.202
MS.121         	25.842         	6.171
MS.122         	25.79          	6.147
MS.123         	25.737         	6.109
MS.124         	25.688         	6.169
MS.125         	25.635         	6.157
MS.126         	25.585         	6.153
MS.127         	25.532         	6.171
MS.128         	25.483         	6.159
MS.129         	25.432         	6.177
MS.130         	25.38          	6.137
MS.131         	25.33          	6.133
MS.132         	25.28          	6.153
MS.133         	25.227         	6.117
MS.134         	25.177         	6.151
MS.135         	25.127         	6.153
MS.136         	25.077         	6.135
MS.137         	25.028         	6.135
MS.138         	24.977         	6.111
MS.139         	24.927         	6.121
MS.140         	24.877         	6.121
MS.141         	24.827         	6.119
MS.142         	24.778         	6.139
MS.143         	24.73          	6.131
MS.144         	24.68          	6.095
MS.145         	24.63          	6.155
MS.146         	24.58          	6.137
MS.147         	24.532         	6.111
MS.148         	24.483         	6.117
MS.149         	24.435         	6.065
MS.150         	24.385         	6.19
MS.151         	24.337         	6.107
MS.152         	24.288         	6.115
MS.153         	24.24          	6.089
MS.154         	24.19          	6.115
MS.155         	24.142         	6.117
MS.156         	24.095         	6.147
MS.157         	24.047         	6.115
MS.158         	23.997         	6.107
MS.159         	23.95          	6.081
MS.160         	23.903         	6.077
MS.161         	23.855         	6.115
MS.162         	23.807         	6.026
MS.163         	23.76          	6.079
MS.164         	23.712         	6.089
MS.165         	23.665         	6.047
MS.166         	23.618         	6.044
MS.167         	23.57          	6.032
MS.168         	23.522         	6.044
MS.169         	23.475         	6.012
MS.170         	23.43          	6.049
MS.171         	23.382         	6.008
MS.172         	23.335         	6.042
MS.173         	23.29          	6.044
MS.174         	23.243         	6.087
MS.175         	23.195         	6.073
MS.176         	23.15          	6.061
MS.177         	23.102         	6.077
MS.178         	23.057         	6.055
MS.179         	23.01          	6.067
MS.180         	22.965         	6.032
MS.181         	22.92          	6.063
MS.182         	22.872         	6.085
MS.183         	22.827         	6.063
MS.184         	22.782         	6.036
MS.185         	22.737         	6.089
MS.186         	22.692         	6.067
MS.187         	22.645         	6.032
MS.188         	22.6           	6.028
MS.189         	22.555         	5.972
MS.190         	22.51          	5.988
MS.191         	22.465         	6.014
MS.192         	22.42          	6.008
MS.193         	22.375         	6.018
MS.194         	22.33          	5.976
MS.195         	22.288         	6.012
MS.196         	22.243         	5.99
MS.197         	22.198         	5.974
MS.198         	22.153         	5.974
MS.199         	22.11          	5.988
MS.200         	22.065         	5.978
MS.201         	22.02          	5.968
MS.202         	21.977         	5.97
MS.203         	21.932         	6.03
MS.204         	21.89          	6.042
MS.205         	21.845         	5.966
MS.206         	21.802         	5.972
MS.207         	21.757         	5.938
MS.208         	21.715         	5.932
MS.209         	21.67          	5.938
MS.210         	21.627         	5.916
MS.211         	21.585         	5.928
MS.212         	21.542         	5.912
MS.213         	21.497         	5.904
MS.214         	21.455         	5.857
MS.215         	21.413         	5.899
MS.216         	21.37          	5.863
MS.217         	21.327         	5.932
MS.218         	21.285         	5.873
MS.219         	21.243         	5.875
MS.220         	21.2           	5.811
MS.221         	21.157         	5.861
MS.222         	21.115         	5.873
MS.223         	21.073         	5.883
MS.224         	21.03          	5.871
MS.225         	20.987         	5.873
MS.226         	20.948         	5.811
MS.227         	20.905         	5.801
MS.228         	20.862         	5.813
MS.229         	20.823         	5.728
MS.230         	20.78          	5.754
MS.231         	20.737         	5.712
MS.232         	20.698         	5.676
MS.233         	20.655         	5.75
MS.234         	20.615         	5.696
MS.235         	20.573         	5.72
MS.236         	20.532         	5.694
MS.237         	20.49          	5.676
MS.238         	20.45          	5.815
MS.239         	20.41          	5.736
MS.240         	20.368         	5.736
MS.241         	20.327         	5.712
MS.242         	20.288         	5.68
MS.243         	20.247         	5.62
MS.244         	20.205         	5.64
MS.245         	20.165         	5.555
MS.246         	20.125         	5.686
MS.247         	20.085         	5.634
MS.248         	20.045         	5.591
MS.249         	20.005         	5.545
MS.250         	19.965         	5.591
MS.251         	19.925         	5.561
MS.252         	19.885         	5.636
MS.253         	19.845         	5.477
MS.254         	19.805         	5.487
MS.255         	19.767         	5.555
MS.256         	19.727         	5.485
MS.257         	19.688         	5.501
MS.258         	19.647         	5.545
MS.259         	19.61          	5.464
MS.260         	19.57          	5.601
MS.261         	19.53          	5.545
MS.262         	19.493         	5.541
MS.263         	19.452         	5.493
MS.264         	19.415         	5.47
MS.265         	19.375         	5.537
MS.266         	19.337         	5.509
MS.267         	19.297         	5.529
MS.268         	19.26          	5.392
MS.269         	19.22          	5.485
MS.270         	19.182         	5.477
MS.271         	19.145         	5.414
MS.272         	19.105         	5.37
MS.273         	19.067         	5.412
MS.274         	19.03          	5.507
MS.275         	18.993         	5.481
MS.276         	18.952         	5.366
MS.277         	18.915         	5.269
MS.278         	18.877         	5.356
MS.279         	18.84          	5.311
MS.280         	18.802         	5.213
MS.281         	18.765         	5.319
MS.282         	18.727         	5.225
MS.283         	18.69          	5.176
MS.284         	18.653         	5.1
MS.285         	18.615         	5.271
MS.286         	18.577         	5.193
MS.287         	18.54          	5.221
MS.288         	18.505         	5.215
MS.289         	18.467         	5.066
MS.290         	18.43          	5.207
MS.291         	18.392         	5.09
MS.292         	18.358         	4.995
MS.293         	18.32          	5.062
MS.294         	18.282         	4.917
MS.295         	18.247         	5.047
MS.296         	18.21          	5.066
MS.297         	18.175         	4.913
MS.298         	18.137         	4.955
MS.299         	18.102         	4.888
MS.300         	18.065         	4.818
MS.301         	18.03          	4.919
MS.302         	17.993         	4.78
MS.303         	17.958         	4.872
MS.304         	17.92          	4.947
MS.305         	17.885         	4.894
MS.306         	17.85          	4.929
MS.307         	17.815         	4.969
MS.308         	17.778         	4.959
MS.309         	17.743         	4.886
MS.310         	17.708         	4.906
MS.311         	17.672         	4.739
MS.312         	17.637         	4.749
MS.313         	17.602         	4.745
MS.314         	17.567         	4.653
MS.315         	17.53          	4.713
MS.316         	17.495         	4.677
MS.317         	17.46          	4.741
MS.318         	17.427         	4.739
MS.319         	17.392         	4.667
MS.320         	17.358         	4.55
MS.321         	17.323         	4.653
MS.322         	17.288         	4.552
MS.323         	17.253         	4.659
MS.324         	17.217         	4.54
MS.325         	17.185         	4.534
MS.326         	17.15          	4.598
MS.327         	17.115         	4.52
MS.328         	17.083         	4.496
MS.329         	17.047         	4.508
MS.330         	17.012         	4.435
MS.331         	16.98          	4.532
MS.332         	16.945         	4.371
MS.333         	16.913         	4.417
MS.334         	16.878         	4.345
MS.335         	16.845         	4.367
MS.336         	16.81          	4.343
MS.337         	16.778         	4.332
MS.338         	16.743         	4.336
MS.339         	16.71          	4.326
MS.340         	16.675         	4.24
MS.341         	16.642         	4.357
MS.342         	16.61          	4.288
MS.343         	16.577         	4.246
MS.344         	16.542         	4.238
MS.345         	16.51          	4.274
MS.346         	16.477         	4.349
MS.347         	16.445         	4.298
MS.348         	16.413         	4.169
MS.349         	16.378         	4.131
MS.350         	16.345         	4.087
MS.351         	16.312         	4.052
MS.352         	16.28          	4.05
MS.353         	16.247         	4.081
MS.354         	16.215         	4.107
MS.355         	16.182         	4.135
MS.356         	16.15          	4.042
MS.357         	16.118         	4.294
MS.358         	16.087         	4.081
MS.359         	16.055         	3.93
MS.360         	16.022         	3.831
MS.361         	15.99          	4.052
MS.362         	15.957         	3.803
MS.363         	15.927         	3.829
MS.364         	15.895         	3.781
MS.365         	15.862         	4.155
MS.366         	15.83          	3.738
MS.367         	15.8           	3.766
MS.368         	15.767         	3.845
MS.369         	15.737         	3.678
MS.370         	15.705         	3.648
MS.371         	15.672         	3.674
MS.372         	15.642         	3.638
MS.373         	15.61          	3.684
MS.374         	15.58          	3.694
MS.375         	15.55          	3.621
MS.376         	15.517         	3.688
MS.377         	15.487         	3.783
MS.378         	15.455         	3.744
MS.379         	15.425         	3.766
MS.380         	15.395         	3.71
MS.381         	15.362         	3.704
MS.382         	15.332         	3.666
MS.383         	15.302         	3.65
MS.384         	15.273         	3.599
MS.385         	15.24          	3.652
MS.386         	15.21          	3.634
MS.387         	15.18          	3.48
MS.388         	15.15          	3.561
MS.389         	15.12          	3.442
MS.390         	15.09          	3.533
MS.391         	15.06          	3.295
MS.392         	15.03          	3.394
MS.393         	15             	3.356
MS.394         	14.97          	3.331
MS.395         	14.94          	3.482
MS.396         	14.91          	3.39
MS.397         	14.88          	3.319
MS.398         	14.85          	3.259
MS.399         	14.82          	3.178
MS.400         	14.79          	3.291
MS.401         	14.76          	3.064
MS.402         	14.733         	3.37
MS.403         	14.702         	3.168
MS.404         	14.672         	3.055
MS.405         	14.642         	3.007
MS.406         	14.615         	3.066
MS.407         	14.585         	2.923
MS.408         	14.555         	2.864
MS.409         	14.527         	2.838
MS.410         	14.497         	2.816
MS.411         	14.467         	2.814
MS.412         	14.44          	2.737
MS.413         	14.41          	2.804
MS.414         	14.382         	2.874
MS.415         	14.352         	2.834
MS.416         	14.325         	2.761
MS.417         	14.295         	2.719
MS.418         	14.267         	2.721
MS.419         	14.24          	2.657
MS.420         	14.21          	2.697
MS.421         	14.182         	2.673
MS.422         	14.155         	2.616
MS.423         	14.125         	2.518
MS.424         	14.097         	2.651
MS.425         	14.07          	2.542
MS.426         	14.04          	2.606
MS.427         	14.012         	2.51
MS.428         	13.985         	2.5
MS.429         	13.957         	2.506
MS.430         	13.93          	2.397
MS.431         	13.903         	2.365
MS.432         	13.872         	2.346
MS.433         	13.845         	2.429
MS.434         	13.818         	2.361
MS.435         	13.79          	2.393
MS.436         	13.762         	2.248
MS.437         	13.735         	2.369
MS.438         	13.707         	2.191
MS.439         	13.68          	2.3
MS.440         	13.653         	2.417
MS.441         	13.625         	2.203
MS.442         	13.6           	2.286
MS.443         	13.572         	2.175
MS.444         	13.545         	2.212
MS.445         	13.517         	2.087
MS.446         	13.49          	2.139
MS.447         	13.462         	2.042
MS.448         	13.438         	2.115
MS.449         	13.41          	2.075
MS.450         	13.382         	1.962
MS.451         	13.355         	2.016
MS.452         	13.33          	1.942
MS.453         	13.302         	1.857
MS.454         	13.278         	1.873
MS.455         	13.25          	1.885
MS.456         	13.222         	1.859
MS.457         	13.197         	1.877
MS.458         	13.17          	2.042
MS.459         	13.145         	1.867
MS.460         	13.117         	1.74
MS.461         	13.092         	1.688
MS.462         	13.065         	1.617
MS.463         	13.04          	1.539
MS.464         	13.012         	1.617
MS.465         	12.987         	1.543
MS.466         	12.962         	1.521
MS.467         	12.935         	1.452
MS.468         	12.91          	1.513
MS.469         	12.885         	1.458
MS.470         	12.858         	1.384
MS.471         	12.832         	1.45
MS.472         	12.807         	1.44
MS.473         	12.782         	1.341
MS.474         	12.755         	1.229
MS.475         	12.73          	1.287
MS.476         	12.705         	1.354
MS.477         	12.68          	1.17
MS.478         	12.655         	1.162
MS.479         	12.63          	1.277
MS.480         	12.602         	1.11
MS.481         	12.577         	1.136
MS.482         	12.552         	1.148
MS.483         	12.528         	1.206
MS.484         	12.502         	1.158
MS.485         	12.477         	1.16
MS.486         	12.452         	1.138
MS.487         	12.427         	1.096
MS.488         	12.403         	1.223
MS.489         	12.38          	1.057
MS.490         	12.355         	1.074
MS.491         	12.33          	1.045
MS.492         	12.305         	1.088
MS.493         	12.28          	1.045
MS.494         	12.255         	0.987
MS.495         	12.23          	1.013
MS.496         	12.207         	0.983
MS.497         	12.182         	0.904
MS.498         	12.157         	0.929
MS.499         	12.132         	0.852
MS.500         	12.11          	0.89
