File:              	C:\Qtrac\Data\Daniel M Sørensen\MScan multicentre study\Data from centres\Oslo\IronKey\Oslo_NC_first examination\SZC00610D.QZD
Name:              	NO.OSL.NC.17.1
Protocol:          	MSCAN-R2
Date:              	10/6/20
Start time:        	16:38:28
Age:               	52
Sex:               	F
Temperature:       	32.9
S/R sites:         	Peroneal-TA
NC/disease:        	NC17
Operator:          	SZ
Comments:          	Test1
M-SCAN DATA (10.3-3.2m)
Scanpts: 9, 15, 729, 749
Stim. (mA)     	Amp. (mV)
MS.1           	37.5           	9.142
MS.2           	37.5           	9.138
MS.3           	37.5           	9.003
MS.4           	37.5           	9.172
MS.5           	37.5           	9.011
MS.6           	37.5           	9.144
MS.7           	37.5           	9.152
MS.8           	37.5           	9.102
MS.9           	37.5           	9.168
MS.10          	37.5           	9.138
MS.11          	37.5           	9.152
MS.12          	37.5           	9.106
MS.13          	37.5           	9.086
MS.14          	37.5           	9.17
MS.15          	37.5           	9.068
MS.16          	37.5           	9.152
MS.17          	37.5           	9.11
MS.18          	37.5           	9.158
MS.19          	37.5           	9.11
MS.20          	37.5           	9.102
MS.21          	37.5           	9.054
MS.22          	37.5           	9.084
MS.23          	37.5           	9.084
MS.24          	37.35          	9.096
MS.25          	37.275         	9.044
MS.26          	37.2           	9.146
MS.27          	37.127         	9.038
MS.28          	37.052         	9.102
MS.29          	36.978         	9.04
MS.30          	36.905         	9.066
MS.31          	36.83          	8.981
MS.32          	36.757         	8.953
MS.33          	36.685         	8.997
MS.34          	36.61          	8.923
MS.35          	36.537         	8.828
MS.36          	36.465         	8.891
MS.37          	36.392         	8.81
MS.38          	36.32          	8.838
MS.39          	36.247         	8.81
MS.40          	36.175         	8.862
MS.41          	36.103         	8.878
MS.42          	36.03          	8.884
MS.43          	35.958         	8.836
MS.44          	35.885         	8.806
MS.45          	35.815         	8.772
MS.46          	35.743         	8.822
MS.47          	35.67          	8.818
MS.48          	35.6           	8.766
MS.49          	35.528         	8.78
MS.50          	35.458         	8.739
MS.51          	35.388         	8.727
MS.52          	35.315         	8.697
MS.53          	35.245         	8.673
MS.54          	35.175         	8.709
MS.55          	35.105         	8.733
MS.56          	35.035         	8.594
MS.57          	34.965         	8.685
MS.58          	34.895         	8.697
MS.59          	34.825         	8.629
MS.60          	34.755         	8.586
MS.61          	34.685         	8.57
MS.62          	34.618         	8.584
MS.63          	34.548         	8.594
MS.64          	34.478         	8.56
MS.65          	34.41          	8.55
MS.66          	34.34          	8.552
MS.67          	34.272         	8.554
MS.68          	34.205         	8.574
MS.69          	34.135         	8.607
MS.70          	34.068         	8.578
MS.71          	34             	8.542
MS.72          	33.93          	8.53
MS.73          	33.862         	8.52
MS.74          	33.795         	8.526
MS.75          	33.728         	8.558
MS.76          	33.66          	8.542
MS.77          	33.592         	8.498
MS.78          	33.528         	8.514
MS.79          	33.46          	8.528
MS.80          	33.392         	8.524
MS.81          	33.325         	8.504
MS.82          	33.26          	8.496
MS.83          	33.193         	8.49
MS.84          	33.127         	8.526
MS.85          	33.06          	8.518
MS.86          	32.995         	8.51
MS.87          	32.927         	8.464
MS.88          	32.862         	8.482
MS.89          	32.798         	8.486
MS.90          	32.732         	8.512
MS.91          	32.665         	8.484
MS.92          	32.6           	8.496
MS.93          	32.535         	8.488
MS.94          	32.47          	8.492
MS.95          	32.405         	8.474
MS.96          	32.34          	8.443
MS.97          	32.278         	8.474
MS.98          	32.212         	8.441
MS.99          	32.147         	8.474
MS.100         	32.083         	8.451
MS.101         	32.02          	8.502
MS.102         	31.955         	8.435
MS.103         	31.892         	8.443
MS.104         	31.827         	8.417
MS.105         	31.765         	8.437
MS.106         	31.7           	8.461
MS.107         	31.637         	8.437
MS.108         	31.575         	8.397
MS.109         	31.51          	8.466
MS.110         	31.448         	8.466
MS.111         	31.385         	8.395
MS.112         	31.323         	8.455
MS.113         	31.26          	8.407
MS.114         	31.198         	8.389
MS.115         	31.135         	8.349
MS.116         	31.073         	8.431
MS.117         	31.01          	8.405
MS.118         	30.95          	8.405
MS.119         	30.887         	8.377
MS.120         	30.825         	8.361
MS.121         	30.762         	8.339
MS.122         	30.702         	8.413
MS.123         	30.64          	8.365
MS.124         	30.58          	8.349
MS.125         	30.517         	8.361
MS.126         	30.457         	8.349
MS.127         	30.397         	8.308
MS.128         	30.335         	8.314
MS.129         	30.275         	8.353
MS.130         	30.215         	8.339
MS.131         	30.155         	8.304
MS.132         	30.095         	8.327
MS.133         	30.035         	8.327
MS.134         	29.975         	8.28
MS.135         	29.915         	8.286
MS.136         	29.855         	8.335
MS.137         	29.795         	8.238
MS.138         	29.735         	8.302
MS.139         	29.675         	8.318
MS.140         	29.617         	8.3
MS.141         	29.557         	8.28
MS.142         	29.497         	8.266
MS.143         	29.44          	8.252
MS.144         	29.38          	8.278
MS.145         	29.323         	8.272
MS.146         	29.262         	8.29
MS.147         	29.205         	8.26
MS.148         	29.147         	8.23
MS.149         	29.087         	8.228
MS.150         	29.03          	8.182
MS.151         	28.972         	8.196
MS.152         	28.915         	8.198
MS.153         	28.858         	8.272
MS.154         	28.8           	8.208
MS.155         	28.743         	8.182
MS.156         	28.685         	8.228
MS.157         	28.627         	8.196
MS.158         	28.57          	8.224
MS.159         	28.512         	8.22
MS.160         	28.455         	8.18
MS.161         	28.397         	8.18
MS.162         	28.342         	8.196
MS.163         	28.285         	8.155
MS.164         	28.227         	8.161
MS.165         	28.172         	8.202
MS.166         	28.115         	8.119
MS.167         	28.06          	8.125
MS.168         	28.002         	8.167
MS.169         	27.948         	8.145
MS.170         	27.892         	8.133
MS.171         	27.835         	8.143
MS.172         	27.78          	8.097
MS.173         	27.725         	8.081
MS.174         	27.67          	8.081
MS.175         	27.615         	8.079
MS.176         	27.56          	8.075
MS.177         	27.505         	7.988
MS.178         	27.45          	8.034
MS.179         	27.395         	8.053
MS.180         	27.34          	8.077
MS.181         	27.285         	8.049
MS.182         	27.23          	8.034
MS.183         	27.175         	8.081
MS.184         	27.122         	8.073
MS.185         	27.067         	7.992
MS.186         	27.012         	7.966
MS.187         	26.96          	8.006
MS.188         	26.905         	8.014
MS.189         	26.852         	7.99
MS.190         	26.797         	7.952
MS.191         	26.745         	7.958
MS.192         	26.692         	7.956
MS.193         	26.637         	7.966
MS.194         	26.585         	7.944
MS.195         	26.532         	7.881
MS.196         	26.477         	7.908
MS.197         	26.425         	7.912
MS.198         	26.372         	7.932
MS.199         	26.32          	7.904
MS.200         	26.267         	7.857
MS.201         	26.215         	7.877
MS.202         	26.162         	7.893
MS.203         	26.11          	7.851
MS.204         	26.057         	7.898
MS.205         	26.005         	7.912
MS.206         	25.955         	7.837
MS.207         	25.903         	7.871
MS.208         	25.85          	7.775
MS.209         	25.8           	7.837
MS.210         	25.747         	7.799
MS.211         	25.695         	7.817
MS.212         	25.645         	7.789
MS.213         	25.592         	7.722
MS.214         	25.542         	7.773
MS.215         	25.493         	7.779
MS.216         	25.44          	7.773
MS.217         	25.39          	7.72
MS.218         	25.34          	7.712
MS.219         	25.288         	7.744
MS.220         	25.237         	7.728
MS.221         	25.188         	7.72
MS.222         	25.137         	7.736
MS.223         	25.087         	7.7
MS.224         	25.038         	7.781
MS.225         	24.987         	7.684
MS.226         	24.938         	7.716
MS.227         	24.887         	7.716
MS.228         	24.837         	7.7
MS.229         	24.788         	7.724
MS.230         	24.737         	7.708
MS.231         	24.688         	7.714
MS.232         	24.64          	7.708
MS.233         	24.59          	7.658
MS.234         	24.54          	7.712
MS.235         	24.493         	7.68
MS.236         	24.442         	7.684
MS.237         	24.395         	7.634
MS.238         	24.345         	7.551
MS.239         	24.297         	7.605
MS.240         	24.247         	7.62
MS.241         	24.2           	7.585
MS.242         	24.153         	7.569
MS.243         	24.102         	7.577
MS.244         	24.055         	7.561
MS.245         	24.007         	7.559
MS.246         	23.96          	7.587
MS.247         	23.91          	7.535
MS.248         	23.862         	7.527
MS.249         	23.815         	7.487
MS.250         	23.767         	7.489
MS.251         	23.72          	7.473
MS.252         	23.672         	7.46
MS.253         	23.625         	7.481
MS.254         	23.577         	7.422
MS.255         	23.532         	7.43
MS.256         	23.485         	7.432
MS.257         	23.438         	7.402
MS.258         	23.39          	7.4
MS.259         	23.345         	7.382
MS.260         	23.297         	7.406
MS.261         	23.25          	7.309
MS.262         	23.205         	7.313
MS.263         	23.157         	7.33
MS.264         	23.112         	7.275
MS.265         	23.065         	7.255
MS.266         	23.02          	7.233
MS.267         	22.972         	7.293
MS.268         	22.927         	7.285
MS.269         	22.882         	7.237
MS.270         	22.835         	7.148
MS.271         	22.79          	7.205
MS.272         	22.745         	7.166
MS.273         	22.7           	7.197
MS.274         	22.655         	7.164
MS.275         	22.608         	7.152
MS.276         	22.562         	7.122
MS.277         	22.517         	7.13
MS.278         	22.472         	7.104
MS.279         	22.427         	7.098
MS.280         	22.385         	7.14
MS.281         	22.34          	7.054
MS.282         	22.295         	7.118
MS.283         	22.25          	7.076
MS.284         	22.205         	7.15
MS.285         	22.16          	6.999
MS.286         	22.118         	7.009
MS.287         	22.073         	7.015
MS.288         	22.028         	6.935
MS.289         	21.985         	6.981
MS.290         	21.94          	6.927
MS.291         	21.897         	6.864
MS.292         	21.852         	6.929
MS.293         	21.81          	6.921
MS.294         	21.765         	6.872
MS.295         	21.722         	6.929
MS.296         	21.68          	6.882
MS.297         	21.635         	6.778
MS.298         	21.592         	6.751
MS.299         	21.55          	6.721
MS.300         	21.505         	6.701
MS.301         	21.462         	6.816
MS.302         	21.42          	6.8
MS.303         	21.377         	6.675
MS.304         	21.335         	6.625
MS.305         	21.292         	6.753
MS.306         	21.25          	6.524
MS.307         	21.208         	6.598
MS.308         	21.165         	6.544
MS.309         	21.122         	6.508
MS.310         	21.08          	6.484
MS.311         	21.038         	6.457
MS.312         	20.995         	6.471
MS.313         	20.955         	6.463
MS.314         	20.913         	6.435
MS.315         	20.87          	6.359
MS.316         	20.83          	6.312
MS.317         	20.788         	6.369
MS.318         	20.745         	6.278
MS.319         	20.705         	6.149
MS.320         	20.663         	6.26
MS.321         	20.622         	6.328
MS.322         	20.58          	6.202
MS.323         	20.54          	6.103
MS.324         	20.497         	6.242
MS.325         	20.458         	6.232
MS.326         	20.417         	5.976
MS.327         	20.375         	6.161
MS.328         	20.335         	5.946
MS.329         	20.295         	5.875
MS.330         	20.252         	5.94
MS.331         	20.212         	5.875
MS.332         	20.172         	5.948
MS.333         	20.132         	5.811
MS.334         	20.092         	5.976
MS.335         	20.052         	5.734
MS.336         	20.012         	5.891
MS.337         	19.972         	5.748
MS.338         	19.932         	5.738
MS.339         	19.892         	5.738
MS.340         	19.852         	5.706
MS.341         	19.812         	5.732
MS.342         	19.772         	5.68
MS.343         	19.735         	5.611
MS.344         	19.695         	5.686
MS.345         	19.655         	5.686
MS.346         	19.615         	5.763
MS.347         	19.577         	5.545
MS.348         	19.538         	5.603
MS.349         	19.497         	5.481
MS.350         	19.46          	5.479
MS.351         	19.42          	5.364
MS.352         	19.382         	5.372
MS.353         	19.342         	5.386
MS.354         	19.305         	5.535
MS.355         	19.265         	5.221
MS.356         	19.227         	5.231
MS.357         	19.19          	5.223
MS.358         	19.15          	5.265
MS.359         	19.112         	5.281
MS.360         	19.075         	5.255
MS.361         	19.035         	5.186
MS.362         	18.997         	5.207
MS.363         	18.96          	5.132
MS.364         	18.922         	5.144
MS.365         	18.885         	5.106
MS.366         	18.847         	5.15
MS.367         	18.81          	5.062
MS.368         	18.772         	5.084
MS.369         	18.735         	5.086
MS.370         	18.698         	5.154
MS.371         	18.66          	5.066
MS.372         	18.622         	5.064
MS.373         	18.585         	4.987
MS.374         	18.547         	5.023
MS.375         	18.51          	5.001
MS.376         	18.472         	4.9
MS.377         	18.438         	4.919
MS.378         	18.4           	4.828
MS.379         	18.362         	4.904
MS.380         	18.327         	4.904
MS.381         	18.29          	4.816
MS.382         	18.253         	4.816
MS.383         	18.217         	4.792
MS.384         	18.18          	4.802
MS.385         	18.145         	4.673
MS.386         	18.108         	4.766
MS.387         	18.073         	4.717
MS.388         	18.035         	4.701
MS.389         	18             	4.645
MS.390         	17.962         	4.677
MS.391         	17.927         	4.614
MS.392         	17.892         	4.637
MS.393         	17.855         	4.54
MS.394         	17.82          	4.512
MS.395         	17.785         	4.427
MS.396         	17.75          	4.55
MS.397         	17.712         	4.574
MS.398         	17.677         	4.548
MS.399         	17.642         	4.62
MS.400         	17.608         	4.58
MS.401         	17.573         	4.453
MS.402         	17.538         	4.514
MS.403         	17.503         	4.419
MS.404         	17.467         	4.433
MS.405         	17.432         	4.469
MS.406         	17.397         	4.393
MS.407         	17.362         	4.171
MS.408         	17.327         	4.187
MS.409         	17.292         	4.332
MS.410         	17.26          	4.23
MS.411         	17.225         	4.212
MS.412         	17.19          	4.141
MS.413         	17.155         	4.153
MS.414         	17.122         	4.046
MS.415         	17.087         	4.141
MS.416         	17.052         	4.069
MS.417         	17.02          	3.944
MS.418         	16.985         	4.25
MS.419         	16.95          	3.984
MS.420         	16.917         	3.99
MS.421         	16.882         	4.04
MS.422         	16.85          	3.982
MS.423         	16.815         	3.934
MS.424         	16.782         	3.805
MS.425         	16.75          	3.924
MS.426         	16.715         	3.783
MS.427         	16.682         	3.853
MS.428         	16.65          	3.744
MS.429         	16.615         	3.64
MS.430         	16.583         	3.65
MS.431         	16.55          	3.543
MS.432         	16.515         	3.728
MS.433         	16.483         	3.781
MS.434         	16.45          	3.571
MS.435         	16.417         	3.557
MS.436         	16.385         	3.543
MS.437         	16.352         	3.487
MS.438         	16.32          	3.484
MS.439         	16.288         	3.503
MS.440         	16.255         	3.628
MS.441         	16.222         	3.454
MS.442         	16.19          	3.414
MS.443         	16.157         	3.45
MS.444         	16.125         	3.269
MS.445         	16.092         	3.356
MS.446         	16.06          	3.297
MS.447         	16.028         	3.235
MS.448         	15.995         	3.227
MS.449         	15.965         	3.198
MS.450         	15.932         	3.205
MS.451         	15.9           	3.215
MS.452         	15.867         	3.007
MS.453         	15.837         	3.1
MS.454         	15.805         	3.015
MS.455         	15.773         	2.874
MS.456         	15.742         	2.812
MS.457         	15.71          	2.949
MS.458         	15.68          	2.88
MS.459         	15.648         	2.814
MS.460         	15.617         	2.892
MS.461         	15.585         	2.814
MS.462         	15.555         	2.721
MS.463         	15.523         	2.669
MS.464         	15.492         	2.602
MS.465         	15.46          	2.554
MS.466         	15.43          	2.568
MS.467         	15.4           	2.397
MS.468         	15.37          	2.496
MS.469         	15.337         	2.403
MS.470         	15.307         	2.324
MS.471         	15.277         	2.379
MS.472         	15.247         	2.367
MS.473         	15.215         	2.065
MS.474         	15.185         	2.091
MS.475         	15.155         	2.016
MS.476         	15.125         	2.058
MS.477         	15.095         	1.996
MS.478         	15.065         	2.145
MS.479         	15.035         	2.06
MS.480         	15.005         	2.115
MS.481         	14.975         	1.893
MS.482         	14.945         	1.835
MS.483         	14.915         	1.615
MS.484         	14.885         	1.841
MS.485         	14.855         	2.016
MS.486         	14.825         	1.666
MS.487         	14.795         	1.811
MS.488         	14.765         	1.644
MS.489         	14.737         	1.631
MS.490         	14.707         	1.688
MS.491         	14.677         	1.625
MS.492         	14.648         	1.67
MS.493         	14.62          	1.507
MS.494         	14.59          	1.666
MS.495         	14.56          	1.382
MS.496         	14.532         	1.444
MS.497         	14.502         	1.414
MS.498         	14.475         	1.414
MS.499         	14.445         	1.497
MS.500         	14.415         	1.456
