File:              	C:\Qtrac\Data\Daniel M Sørensen\MScan multicentre study\Data from centres\Oslo\IronKey\Oslo_NC_first examination\SZC00429F.QZD
Name:              	NO.OSL.NC.3.1
Protocol:          	MSCAN-R2
Date:              	29/4/20
Start time:        	12:52:38
Age:               	37
Sex:               	M
Temperature:       	35.2
S/R sites:         	Ulnar Wr-ADM
NC/disease:        	NC3
Operator:          	SZ
Comments:          	Test1
M-SCAN DATA (8.1-3.6m)
Scanpts: 23, 30, 474, 495
Stim. (mA)     	Amp. (mV)
MS.1           	34             	11.745
MS.2           	34             	11.777
MS.3           	34             	11.781
MS.4           	34             	11.797
MS.5           	34             	11.771
MS.6           	34             	11.817
MS.7           	34             	11.855
MS.8           	34             	11.755
MS.9           	34             	11.739
MS.10          	34             	11.801
MS.11          	34             	11.759
MS.12          	34             	11.809
MS.13          	34             	11.843
MS.14          	34             	11.815
MS.15          	34             	11.859
MS.16          	34             	11.886
MS.17          	34             	11.839
MS.18          	34             	11.892
MS.19          	34             	11.843
MS.20          	34             	11.902
MS.21          	34             	11.878
MS.22          	34             	11.888
MS.23          	34             	11.898
MS.24          	33.865         	11.892
MS.25          	33.798         	11.914
MS.26          	33.73          	11.869
MS.27          	33.662         	11.908
MS.28          	33.595         	11.835
MS.29          	33.528         	11.869
MS.30          	33.46          	11.9
MS.31          	33.392         	11.873
MS.32          	33.327         	11.851
MS.33          	33.26          	11.88
MS.34          	33.193         	11.914
MS.35          	33.127         	11.91
MS.36          	33.06          	11.797
MS.37          	32.995         	11.875
MS.38          	32.93          	11.894
MS.39          	32.862         	11.841
MS.40          	32.798         	11.867
MS.41          	32.732         	11.793
MS.42          	32.667         	11.841
MS.43          	32.603         	11.757
MS.44          	32.537         	11.801
MS.45          	32.472         	11.799
MS.46          	32.407         	11.819
MS.47          	32.342         	11.817
MS.48          	32.278         	11.795
MS.49          	32.212         	11.706
MS.50          	32.147         	11.68
MS.51          	32.085         	11.732
MS.52          	32.02          	11.678
MS.53          	31.955         	11.622
MS.54          	31.892         	11.781
MS.55          	31.827         	11.636
MS.56          	31.765         	11.739
MS.57          	31.702         	11.737
MS.58          	31.637         	11.69
MS.59          	31.575         	11.622
MS.60          	31.512         	11.594
MS.61          	31.448         	11.64
MS.62          	31.385         	11.65
MS.63          	31.323         	11.485
MS.64          	31.26          	11.694
MS.65          	31.198         	11.43
MS.66          	31.135         	11.487
MS.67          	31.073         	11.587
MS.68          	31.012         	11.503
MS.69          	30.95          	11.448
MS.70          	30.887         	11.378
MS.71          	30.825         	11.489
MS.72          	30.765         	11.362
MS.73          	30.702         	11.259
MS.74          	30.642         	11.432
MS.75          	30.58          	11.372
MS.76          	30.52          	11.356
MS.77          	30.457         	11.471
MS.78          	30.397         	11.438
MS.79          	30.337         	11.235
MS.80          	30.275         	11.332
MS.81          	30.215         	11.116
MS.82          	30.155         	11.12
MS.83          	30.095         	11.36
MS.84          	30.035         	11.237
MS.85          	29.975         	10.963
MS.86          	29.915         	11.305
MS.87          	29.855         	11.191
MS.88          	29.795         	11.068
MS.89          	29.735         	10.554
MS.90          	29.677         	11.028
MS.91          	29.617         	10.798
MS.92          	29.557         	10.282
MS.93          	29.5           	11.028
MS.94          	29.44          	11.007
MS.95          	29.382         	10.169
MS.96          	29.323         	11.019
MS.97          	29.265         	10.54
MS.98          	29.205         	9.759
MS.99          	29.147         	10.268
MS.100         	29.09          	9.871
MS.101         	29.03          	9.608
MS.102         	28.972         	9.537
MS.103         	28.915         	9.688
MS.104         	28.858         	9.765
MS.105         	28.8           	9.386
MS.106         	28.743         	9.656
MS.107         	28.685         	9.563
MS.108         	28.627         	9.461
MS.109         	28.57          	9.745
MS.110         	28.512         	9.696
MS.111         	28.455         	9.577
MS.112         	28.4           	9.384
MS.113         	28.342         	9.491
MS.114         	28.285         	9.311
MS.115         	28.23          	9.009
MS.116         	28.172         	9.223
MS.117         	28.118         	9.235
MS.118         	28.06          	9.205
MS.119         	28.005         	9.112
MS.120         	27.948         	9.507
MS.121         	27.892         	9.118
MS.122         	27.837         	8.548
MS.123         	27.78          	9.072
MS.124         	27.725         	9.219
MS.125         	27.67          	8.943
MS.126         	27.615         	8.947
MS.127         	27.56          	8.743
MS.128         	27.505         	8.82
MS.129         	27.45          	8.554
MS.130         	27.395         	8.8
MS.131         	27.34          	8.719
MS.132         	27.285         	8.901
MS.133         	27.23          	8.2
MS.134         	27.177         	8.464
MS.135         	27.122         	8.794
MS.136         	27.067         	7.974
MS.137         	27.015         	8.312
MS.138         	26.96          	8.218
MS.139         	26.905         	8.081
MS.140         	26.852         	8.53
MS.141         	26.8           	8.304
MS.142         	26.745         	8.169
MS.143         	26.692         	8.036
MS.144         	26.637         	8.47
MS.145         	26.585         	8.028
MS.146         	26.532         	7.213
MS.147         	26.48          	7.605
MS.148         	26.425         	7.904
MS.149         	26.372         	7.638
MS.150         	26.32          	7.017
MS.151         	26.267         	8.169
MS.152         	26.215         	7.561
MS.153         	26.162         	7.042
MS.154         	26.11          	7.156
MS.155         	26.06          	7.251
MS.156         	26.007         	7.128
MS.157         	25.955         	6.782
MS.158         	25.903         	6.979
MS.159         	25.85          	6.425
MS.160         	25.8           	6.788
MS.161         	25.747         	6.983
MS.162         	25.698         	6.907
MS.163         	25.645         	6.476
MS.164         	25.595         	5.912
MS.165         	25.542         	6.711
MS.166         	25.493         	5.974
MS.167         	25.44          	5.821
MS.168         	25.39          	5.881
MS.169         	25.34          	6.115
MS.170         	25.288         	5.833
MS.171         	25.237         	5.555
MS.172         	25.188         	6.04
MS.173         	25.137         	5.569
MS.174         	25.087         	5.444
MS.175         	25.038         	5.138
MS.176         	24.987         	5.914
MS.177         	24.938         	5.259
MS.178         	24.887         	5.722
MS.179         	24.837         	5.164
MS.180         	24.788         	5.223
MS.181         	24.737         	5.14
MS.182         	24.69          	4.679
MS.183         	24.64          	5.235
MS.184         	24.59          	5.1
MS.185         	24.542         	5.039
MS.186         	24.493         	4.832
MS.187         	24.442         	4.953
MS.188         	24.395         	4.772
MS.189         	24.345         	4.58
MS.190         	24.297         	4.588
MS.191         	24.247         	4.844
MS.192         	24.2           	4.794
MS.193         	24.153         	4.069
MS.194         	24.102         	4.566
MS.195         	24.055         	4.083
MS.196         	24.007         	4.123
MS.197         	23.96          	3.984
MS.198         	23.913         	4.433
MS.199         	23.862         	4.316
MS.200         	23.815         	3.938
MS.201         	23.767         	4.028
MS.202         	23.72          	4.145
MS.203         	23.672         	3.946
MS.204         	23.625         	3.787
MS.205         	23.58          	4.286
MS.206         	23.532         	4.048
MS.207         	23.485         	3.503
MS.208         	23.438         	3.428
MS.209         	23.39          	3.928
MS.210         	23.345         	3.623
MS.211         	23.297         	3.46
MS.212         	23.25          	3.738
MS.213         	23.205         	3.654
MS.214         	23.157         	3.503
MS.215         	23.112         	3.398
MS.216         	23.065         	3.833
MS.217         	23.02          	3.648
MS.218         	22.975         	3.271
MS.219         	22.927         	3.466
MS.220         	22.882         	3.265
MS.221         	22.837         	3.132
MS.222         	22.79          	2.818
MS.223         	22.745         	2.749
MS.224         	22.7           	3.184
MS.225         	22.655         	2.633
MS.226         	22.61          	2.586
MS.227         	22.565         	2.469
MS.228         	22.52          	2.844
MS.229         	22.475         	2.612
MS.230         	22.43          	2.54
MS.231         	22.385         	2.274
MS.232         	22.34          	2.759
MS.233         	22.295         	2.479
MS.234         	22.25          	2.27
MS.235         	22.205         	2.105
MS.236         	22.163         	2.471
MS.237         	22.118         	2.504
MS.238         	22.073         	2.044
MS.239         	22.03          	2.214
MS.240         	21.985         	2.401
MS.241         	21.94          	2.169
MS.242         	21.897         	1.942
MS.243         	21.852         	2.332
MS.244         	21.81          	2.149
MS.245         	21.765         	1.825
MS.246         	21.722         	1.533
MS.247         	21.68          	2.187
MS.248         	21.635         	1.835
MS.249         	21.592         	1.631
MS.250         	21.55          	1.587
MS.251         	21.507         	1.881
MS.252         	21.462         	1.833
MS.253         	21.42          	1.702
MS.254         	21.377         	1.501
MS.255         	21.335         	1.928
MS.256         	21.292         	1.575
MS.257         	21.25          	1.561
MS.258         	21.208         	1.688
MS.259         	21.165         	1.71
MS.260         	21.122         	1.557
MS.261         	21.08          	1.317
MS.262         	21.038         	1.69
MS.263         	20.997         	1.583
MS.264         	20.955         	1.321
MS.265         	20.913         	1.368
MS.266         	20.87          	1.464
MS.267         	20.83          	1.323
MS.268         	20.788         	1.12
MS.269         	20.745         	1.569
MS.270         	20.705         	1.358
MS.271         	20.663         	1.329
MS.272         	20.622         	0.991
MS.273         	20.58          	1.239
MS.274         	20.54          	1.18
MS.275         	20.497         	1.108
MS.276         	20.458         	1.011
MS.277         	20.417         	1.057
MS.278         	20.375         	1.065
MS.279         	20.335         	0.963
MS.280         	20.295         	0.961
MS.281         	20.255         	0.814
MS.282         	20.212         	0.999
MS.283         	20.172         	0.999
MS.284         	20.132         	0.838
MS.285         	20.092         	0.856
MS.286         	20.052         	0.9
MS.287         	20.012         	1.013
MS.288         	19.972         	0.822
MS.289         	19.932         	0.788
MS.290         	19.892         	0.826
MS.291         	19.852         	0.888
MS.292         	19.812         	0.82
MS.293         	19.775         	0.628
MS.294         	19.735         	0.916
MS.295         	19.695         	0.759
MS.296         	19.655         	0.6
MS.297         	19.615         	0.54
MS.298         	19.577         	0.643
MS.299         	19.538         	0.657
MS.300         	19.5           	0.703
MS.301         	19.46          	0.54
MS.302         	19.42          	0.624
MS.303         	19.382         	0.602
MS.304         	19.342         	0.624
MS.305         	19.305         	0.584
MS.306         	19.267         	0.651
MS.307         	19.227         	0.495
MS.308         	19.19          	0.445
MS.309         	19.15          	0.326
MS.310         	19.112         	0.647
MS.311         	19.075         	0.514
MS.312         	19.038         	0.431
MS.313         	18.997         	0.485
MS.314         	18.96          	0.552
MS.315         	18.922         	0.431
MS.316         	18.885         	0.445
MS.317         	18.847         	0.405
MS.318         	18.81          	0.522
MS.319         	18.772         	0.465
MS.320         	18.735         	0.439
MS.321         	18.698         	0.391
MS.322         	18.66          	0.441
MS.323         	18.622         	0.477
MS.324         	18.585         	0.435
MS.325         	18.547         	0.423
MS.326         	18.51          	0.389
MS.327         	18.475         	0.417
MS.328         	18.438         	0.423
MS.329         	18.4           	0.395
MS.330         	18.362         	0.334
MS.331         	18.327         	0.389
MS.332         	18.29          	0.383
MS.333         	18.253         	0.381
MS.334         	18.217         	0.363
MS.335         	18.18          	0.383
MS.336         	18.145         	0.379
MS.337         	18.108         	0.32
MS.338         	18.073         	0.344
MS.339         	18.035         	0.359
MS.340         	18             	0.352
MS.341         	17.965         	0.342
MS.342         	17.927         	0.359
MS.343         	17.892         	0.348
MS.344         	17.858         	0.296
MS.345         	17.82          	0.318
MS.346         	17.785         	0.334
MS.347         	17.75          	0.312
MS.348         	17.715         	0.278
MS.349         	17.677         	0.328
MS.350         	17.642         	0.322
MS.351         	17.608         	0.324
MS.352         	17.573         	0.318
MS.353         	17.538         	0.266
MS.354         	17.503         	0.33
MS.355         	17.467         	0.29
MS.356         	17.432         	0.28
MS.357         	17.397         	0.286
MS.358         	17.362         	0.284
MS.359         	17.327         	0.294
MS.360         	17.295         	0.264
MS.361         	17.26          	0.252
MS.362         	17.225         	0.292
MS.363         	17.19          	0.276
MS.364         	17.155         	0.264
MS.365         	17.122         	0.296
MS.366         	17.087         	0.266
MS.367         	17.052         	0.252
MS.368         	17.02          	0.228
MS.369         	16.985         	0.26
MS.370         	16.952         	0.266
MS.371         	16.917         	0.226
MS.372         	16.885         	0.228
MS.373         	16.85          	0.224
MS.374         	16.817         	0.201
MS.375         	16.782         	0.248
MS.376         	16.75          	0.232
MS.377         	16.715         	0.24
MS.378         	16.682         	0.226
MS.379         	16.65          	0.209
MS.380         	16.615         	0.23
MS.381         	16.583         	0.214
MS.382         	16.55          	0.199
MS.383         	16.517         	0.22
MS.384         	16.483         	0.199
MS.385         	16.45          	0.207
MS.386         	16.417         	0.211
MS.387         	16.385         	0.199
MS.388         	16.352         	0.195
MS.389         	16.32          	0.193
MS.390         	16.288         	0.199
MS.391         	16.255         	0.185
MS.392         	16.222         	0.211
MS.393         	16.19          	0.205
MS.394         	16.157         	0.199
MS.395         	16.125         	0.214
MS.396         	16.092         	0.216
MS.397         	16.06          	0.197
MS.398         	16.028         	0.199
MS.399         	15.997         	0.191
MS.400         	15.965         	0.207
MS.401         	15.932         	0.211
MS.402         	15.9           	0.209
MS.403         	15.87          	0.193
MS.404         	15.837         	0.197
MS.405         	15.805         	0.207
MS.406         	15.775         	0.211
MS.407         	15.742         	0.203
MS.408         	15.71          	0.199
MS.409         	15.68          	0.201
MS.410         	15.648         	0.211
MS.411         	15.617         	0.205
MS.412         	15.585         	0.207
MS.413         	15.555         	0.211
MS.414         	15.523         	0.209
MS.415         	15.492         	0.187
MS.416         	15.462         	0.207
MS.417         	15.43          	0.216
MS.418         	15.4           	0.201
MS.419         	15.37          	0.207
MS.420         	15.337         	0.193
MS.421         	15.307         	0.211
MS.422         	15.277         	0.205
MS.423         	15.247         	0.199
MS.424         	15.215         	0.189
MS.425         	15.185         	0.195
MS.426         	15.155         	0.193
MS.427         	15.125         	0.207
MS.428         	15.095         	0.185
MS.429         	15.065         	0.191
MS.430         	15.035         	0.201
MS.431         	15.005         	0.199
MS.432         	14.975         	0.187
MS.433         	14.945         	0.205
MS.434         	14.915         	0.185
MS.435         	14.885         	0.191
MS.436         	14.855         	0.185
MS.437         	14.825         	0.205
MS.438         	14.795         	0.189
MS.439         	14.767         	0.183
MS.440         	14.737         	0.191
MS.441         	14.707         	0.189
MS.442         	14.677         	0.187
MS.443         	14.65          	0.191
MS.444         	14.62          	0.189
MS.445         	14.59          	0.191
MS.446         	14.56          	0.191
MS.447         	14.532         	0.187
MS.448         	14.502         	0.195
MS.449         	14.475         	0.183
MS.450         	14.445         	0.189
MS.451         	14.417         	0.189
MS.452         	14.387         	0.191
MS.453         	14.358         	0.191
MS.454         	14.33          	0.187
MS.455         	14.302         	0.195
MS.456         	14.273         	0.193
MS.457         	14.245         	0.187
MS.458         	14.215         	0.193
MS.459         	14.188         	0.193
MS.460         	14.16          	0.183
MS.461         	14.13          	0.193
MS.462         	14.102         	0.189
MS.463         	14.075         	0.189
MS.464         	14.047         	0.181
MS.465         	14.017         	0.189
MS.466         	13.99          	0.195
MS.467         	13.962         	0.187
MS.468         	13.935         	0.185
MS.469         	13.907         	0.183
MS.470         	13.877         	0.191
MS.471         	13.85          	0.185
MS.472         	13.822         	0.185
MS.473         	13.795         	0.187
MS.474         	13.767         	0.187
MS.475         	13.74          	0.187
MS.476         	13.712         	0.185
MS.477         	13.685         	0.191
MS.478         	13.657         	0.187
MS.479         	13.63          	0.191
MS.480         	13.605         	0.187
MS.481         	13.577         	0.185
MS.482         	13.55          	0.185
MS.483         	13.523         	0.181
MS.484         	13.495         	0.185
MS.485         	13.467         	0.183
MS.486         	13.443         	0.183
MS.487         	13.415         	0.193
MS.488         	13.387         	0.181
MS.489         	13.36          	0.187
MS.490         	13.335         	0.179
MS.491         	13.307         	0.177
MS.492         	13.282         	0.185
MS.493         	13.255         	0.179
MS.494         	13.227         	0.181
MS.495         	13.202         	0.181
DERIVED EXCITABILITY VARIABLES
Program = QTracP 3/4/2020
