File:              	C:\Qtrac\Data\Daniel M Sørensen\MScan multicentre study\Data from centres\Oslo\IronKey\Oslo_NC_first examination\SZC00508D.QZD
Name:              	NO.OSL.NC.9.1
Protocol:          	MSCAN-R2
Date:              	8/5/20
Start time:        	13:00:41
Age:               	20
Sex:               	F
Temperature:       	32.9
S/R sites:         	Median Wr-APB
NC/disease:        	NC9
Operator:          	SZ
Comments:          	Test1
M-SCAN DATA (8.4-4.7m)
Scanpts: 13, 16, 265, 280
Stim. (mA)     	Amp. (mV)
MS.1           	15.5           	11.624
MS.2           	15.5           	11.646
MS.3           	15.5           	11.62
MS.4           	15.5           	11.616
MS.5           	15.5           	11.616
MS.6           	15.5           	11.626
MS.7           	15.5           	11.656
MS.8           	15.5           	11.66
MS.9           	15.5           	11.654
MS.10          	15.5           	11.634
MS.11          	15.5           	11.626
MS.12          	15.5           	11.7
MS.13          	15.5           	11.608
MS.14          	15.5           	11.676
MS.15          	15.5           	11.656
MS.16          	15.5           	11.678
MS.17          	15.5           	11.674
MS.18          	15.5           	11.66
MS.19          	15.5           	11.674
MS.20          	15.5           	11.694
MS.21          	15.5           	11.674
MS.22          	15.5           	11.751
MS.23          	15.438         	11.642
MS.24          	15.407         	11.634
MS.25          	15.377         	11.672
MS.26          	15.345         	11.692
MS.27          	15.315         	11.618
MS.28          	15.285         	11.686
MS.29          	15.255         	11.63
MS.30          	15.222         	11.666
MS.31          	15.193         	11.598
MS.32          	15.162         	11.587
MS.33          	15.132         	11.499
MS.34          	15.102         	11.551
MS.35          	15.072         	11.573
MS.36          	15.042         	11.63
MS.37          	15.012         	11.579
MS.38          	14.983         	11.543
MS.39          	14.952         	11.575
MS.40          	14.922         	11.515
MS.41          	14.892         	11.503
MS.42          	14.862         	11.555
MS.43          	14.832         	11.525
MS.44          	14.802         	11.541
MS.45          	14.773         	11.495
MS.46          	14.745         	11.537
MS.47          	14.715         	11.382
MS.48          	14.685         	11.388
MS.49          	14.655         	11.4
MS.50          	14.627         	11.416
MS.51          	14.597         	11.223
MS.52          	14.568         	10.683
MS.53          	14.54          	10.983
MS.54          	14.51          	10.679
MS.55          	14.48          	10.784
MS.56          	14.452         	11.021
MS.57          	14.422         	10.703
MS.58          	14.395         	10.528
MS.59          	14.365         	10.347
MS.60          	14.337         	10.421
MS.61          	14.307         	10.651
MS.62          	14.28          	10.238
MS.63          	14.25          	10.208
MS.64          	14.222         	10.081
MS.65          	14.195         	10.119
MS.66          	14.165         	10.198
MS.67          	14.137         	10.149
MS.68          	14.11          	10.25
MS.69          	14.08          	10.047
MS.70          	14.052         	9.898
MS.71          	14.025         	10.014
MS.72          	13.997         	9.944
MS.73          	13.97          	9.819
MS.74          	13.94          	9.851
MS.75          	13.912         	9.73
MS.76          	13.885         	9.332
MS.77          	13.858         	9.753
MS.78          	13.83          	9.724
MS.79          	13.802         	9.398
MS.80          	13.775         	9.37
MS.81          	13.747         	9.209
MS.82          	13.72          	8.977
MS.83          	13.693         	9.261
MS.84          	13.665         	8.925
MS.85          	13.637         	9.243
MS.86          	13.61          	9.287
MS.87          	13.582         	9.088
MS.88          	13.555         	8.445
MS.89          	13.53          	8.59
MS.90          	13.502         	8.59
MS.91          	13.475         	8.478
MS.92          	13.447         	8.562
MS.93          	13.42          	8.488
MS.94          	13.395         	8.427
MS.95          	13.367         	7.994
MS.96          	13.34          	8.246
MS.97          	13.315         	8.087
MS.98          	13.287         	7.787
MS.99          	13.26          	7.996
MS.100         	13.235         	7.805
MS.101         	13.207         	7.601
MS.102         	13.182         	7.231
MS.103         	13.155         	7.43
MS.104         	13.13          	7.05
MS.105         	13.102         	7.356
MS.106         	13.077         	7.219
MS.107         	13.05          	6.554
MS.108         	13.025         	6.81
MS.109         	12.997         	6.409
MS.110         	12.972         	6.629
MS.111         	12.947         	6.254
MS.112         	12.92          	6.151
MS.113         	12.895         	5.996
MS.114         	12.87          	6.111
MS.115         	12.842         	5.664
MS.116         	12.818         	5.184
MS.117         	12.792         	5.908
MS.118         	12.767         	5.247
MS.119         	12.74          	5.229
MS.120         	12.715         	5.336
MS.121         	12.69          	5.333
MS.122         	12.665         	4.896
MS.123         	12.64          	4.848
MS.124         	12.615         	5.152
MS.125         	12.59          	4.729
MS.126         	12.565         	4.58
MS.127         	12.54          	4.55
MS.128         	12.515         	4.149
MS.129         	12.49          	4.119
MS.130         	12.465         	4.218
MS.131         	12.44          	3.889
MS.132         	12.415         	4.127
MS.133         	12.39          	3.601
MS.134         	12.365         	3.442
MS.135         	12.34          	3.692
MS.136         	12.315         	3.847
MS.137         	12.29          	2.804
MS.138         	12.265         	3.418
MS.139         	12.242         	3.094
MS.140         	12.217         	2.935
MS.141         	12.193         	2.598
MS.142         	12.167         	3.305
MS.143         	12.145         	2.997
MS.144         	12.12          	2.878
MS.145         	12.095         	2.681
MS.146         	12.072         	2.562
MS.147         	12.047         	2.383
MS.148         	12.023         	2.481
MS.149         	12             	2.24
MS.150         	11.975         	2.296
MS.151         	11.95          	2.383
MS.152         	11.927         	2.214
MS.153         	11.903         	1.779
MS.154         	11.88          	1.982
MS.155         	11.855         	1.831
MS.156         	11.832         	1.664
MS.157         	11.807         	1.728
MS.158         	11.785         	1.414
MS.159         	11.762         	1.505
MS.160         	11.738         	1.692
MS.161         	11.715         	1.525
MS.162         	11.69          	1.499
MS.163         	11.667         	1.287
MS.164         	11.645         	1.372
MS.165         	11.622         	1.37
MS.166         	11.597         	1.48
MS.167         	11.575         	1.152
MS.168         	11.552         	1.015
MS.169         	11.528         	1.104
MS.170         	11.505         	1.001
MS.171         	11.483         	1.138
MS.172         	11.46          	0.916
MS.173         	11.438         	1.08
MS.174         	11.415         	0.89
MS.175         	11.39          	0.886
MS.176         	11.367         	0.904
MS.177         	11.345         	0.723
MS.178         	11.322         	0.747
MS.179         	11.3           	0.592
MS.180         	11.278         	0.497
MS.181         	11.255         	0.759
MS.182         	11.233         	0.681
MS.183         	11.21          	0.596
MS.184         	11.188         	0.612
MS.185         	11.165         	0.554
MS.186         	11.142         	0.586
MS.187         	11.12          	0.447
MS.188         	11.1           	0.556
MS.189         	11.077         	0.514
MS.190         	11.055         	0.433
MS.191         	11.032         	0.518
MS.192         	11.01          	0.572
MS.193         	10.988         	0.421
MS.194         	10.967         	0.387
MS.195         	10.945         	0.528
MS.196         	10.922         	0.373
MS.197         	10.9           	0.485
MS.198         	10.88          	0.328
MS.199         	10.858         	0.33
MS.200         	10.835         	0.332
MS.201         	10.815         	0.334
MS.202         	10.792         	0.346
MS.203         	10.77          	0.32
MS.204         	10.75          	0.3
MS.205         	10.727         	0.302
MS.206         	10.707         	0.302
MS.207         	10.685         	0.3
MS.208         	10.662         	0.278
MS.209         	10.642         	0.28
MS.210         	10.62          	0.302
MS.211         	10.6           	0.282
MS.212         	10.577         	0.304
MS.213         	10.557         	0.288
MS.214         	10.537         	0.286
MS.215         	10.515         	0.3
MS.216         	10.495         	0.288
MS.217         	10.472         	0.286
MS.218         	10.452         	0.294
MS.219         	10.432         	0.276
MS.220         	10.41          	0.292
MS.221         	10.39          	0.282
MS.222         	10.37          	0.284
MS.223         	10.347         	0.278
MS.224         	10.327         	0.272
MS.225         	10.307         	0.28
MS.226         	10.287         	0.284
MS.227         	10.265         	0.272
MS.228         	10.245         	0.292
MS.229         	10.225         	0.224
MS.230         	10.205         	0.292
MS.231         	10.185         	0.272
MS.232         	10.165         	0.272
MS.233         	10.142         	0.216
MS.234         	10.122         	0.222
MS.235         	10.102         	0.22
MS.236         	10.082         	0.286
MS.237         	10.062         	0.171
MS.238         	10.042         	0.191
MS.239         	10.023         	0.228
MS.240         	10.002         	0.151
MS.241         	9.983          	0.157
MS.242         	9.962          	0.22
MS.243         	9.943          	0.22
MS.244         	9.922          	0.167
MS.245         	9.903          	0.214
MS.246         	9.882          	0.214
MS.247         	9.863          	0.147
MS.248         	9.842          	0.159
MS.249         	9.825          	0.159
MS.250         	9.805          	0.171
MS.251         	9.785          	0.155
MS.252         	9.765          	0.151
MS.253         	9.745          	0.155
MS.254         	9.727          	0.151
MS.255         	9.707          	0.153
MS.256         	9.688          	0.155
MS.257         	9.667          	0.149
MS.258         	9.65           	0.155
MS.259         	9.63           	0.149
MS.260         	9.61           	0.155
MS.261         	9.59           	0.149
MS.262         	9.573          	0.155
MS.263         	9.552          	0.151
MS.264         	9.532          	0.153
MS.265         	9.515          	0.157
MS.266         	9.495          	0.151
MS.267         	9.477          	0.149
MS.268         	9.457          	0.153
MS.269         	9.44           	0.147
MS.270         	9.42           	0.159
MS.271         	9.4            	0.153
MS.272         	9.382          	0.147
MS.273         	9.363          	0.149
MS.274         	9.345          	0.155
MS.275         	9.327          	0.151
MS.276         	9.307          	0.151
MS.277         	9.29           	0.153
MS.278         	9.27           	0.157
MS.279         	9.252          	0.149
MS.280         	9.233          	0.151
MS.281         	9.215          	0.153
MS.282         	9.198          	0.151
MS.283         	9.177          	0.151
MS.284         	9.16           	0.149
MS.285         	9.142          	0.151
MS.286         	9.122          	0.155
MS.287         	9.105          	0.149
MS.288         	9.087          	0.157
MS.289         	9.07           	0.153
MS.290         	9.05           	0.155
MS.291         	9.033          	0.143
MS.292         	9.015          	0.153
MS.293         	8.997          	0.151
MS.294         	8.977          	0.153
MS.295         	8.96           	0.155
MS.296         	8.943          	0.151
MS.297         	8.925          	0.143
MS.298         	8.908          	0.147
MS.299         	8.89           	0.155
MS.300         	8.872          	0.153
MS.301         	8.852          	0.157
MS.302         	8.835          	0.149
MS.303         	8.818          	0.147
MS.304         	8.8            	0.153
MS.305         	8.783          	0.153
MS.306         	8.765          	0.151
MS.307         	8.747          	0.149
MS.308         	8.73           	0.155
MS.309         	8.712          	0.153
MS.310         	8.695          	0.155
MS.311         	8.677          	0.153
MS.312         	8.66           	0.145
MS.313         	8.642          	0.149
MS.314         	8.627          	0.159
MS.315         	8.61           	0.157
MS.316         	8.592          	0.153
MS.317         	8.575          	0.147
MS.318         	8.557          	0.155
MS.319         	8.54           	0.155
MS.320         	8.523          	0.159
MS.321         	8.507          	0.157
MS.322         	8.49           	0.147
MS.323         	8.472          	0.151
MS.324         	8.455          	0.149
MS.325         	8.44           	0.147
MS.326         	8.422          	0.155
MS.327         	8.405          	0.155
MS.328         	8.387          	0.153
MS.329         	8.372          	0.155
MS.330         	8.355          	0.153
MS.331         	8.337          	0.157
MS.332         	8.323          	0.149
MS.333         	8.305          	0.147
MS.334         	8.287          	0.145
MS.335         	8.273          	0.157
MS.336         	8.255          	0.155
MS.337         	8.238          	0.151
MS.338         	8.222          	0.155
MS.339         	8.205          	0.157
MS.340         	8.19           	0.157
MS.341         	8.172          	0.153
MS.342         	8.158          	0.151
MS.343         	8.14           	0.151
MS.344         	8.125          	0.153
MS.345         	8.108          	0.155
MS.346         	8.092          	0.161
MS.347         	8.075          	0.155
MS.348         	8.06           	0.157
MS.349         	8.042          	0.153
MS.350         	8.028          	0.151
MS.351         	8.01           	0.155
MS.352         	7.995          	0.153
MS.353         	7.98           	0.157
MS.354         	7.962          	0.155
MS.355         	7.947          	0.153
MS.356         	7.932          	0.153
MS.357         	7.915          	0.149
MS.358         	7.9            	0.147
MS.359         	7.885          	0.151
MS.360         	7.867          	0.155
MS.361         	7.852          	0.155
MS.362         	7.837          	0.157
MS.363         	7.82           	0.155
MS.364         	7.805          	0.155
MS.365         	7.79           	0.147
MS.366         	7.775          	0.153
MS.367         	7.76           	0.155
MS.368         	7.742          	0.157
MS.369         	7.727          	0.161
MS.370         	7.712          	0.157
MS.371         	7.697          	0.155
MS.372         	7.682          	0.157
MS.373         	7.668          	0.151
MS.374         	7.65           	0.151
MS.375         	7.635          	0.145
MS.376         	7.62           	0.151
MS.377         	7.605          	0.159
MS.378         	7.59           	0.151
MS.379         	7.575          	0.157
MS.380         	7.56           	0.159
MS.381         	7.545          	0.151
MS.382         	7.53           	0.159
MS.383         	7.515          	0.153
MS.384         	7.5            	0.153
MS.385         	7.485          	0.155
MS.386         	7.47           	0.153
MS.387         	7.455          	0.155
MS.388         	7.44           	0.157
MS.389         	7.425          	0.153
MS.390         	7.41           	0.149
MS.391         	7.395          	0.149
MS.392         	7.38           	0.155
MS.393         	7.365          	0.159
MS.394         	7.35           	0.153
MS.395         	7.337          	0.159
MS.396         	7.322          	0.157
MS.397         	7.307          	0.157
MS.398         	7.293          	0.153
MS.399         	7.277          	0.155
MS.400         	7.262          	0.153
MS.401         	7.25           	0.151
MS.402         	7.235          	0.155
MS.403         	7.22           	0.157
MS.404         	7.205          	0.155
MS.405         	7.19           	0.155
MS.406         	7.177          	0.151
MS.407         	7.162          	0.153
MS.408         	7.148          	0.157
MS.409         	7.132          	0.157
MS.410         	7.12           	0.161
MS.411         	7.105          	0.153
MS.412         	7.09           	0.155
MS.413         	7.077          	0.149
MS.414         	7.062          	0.153
MS.415         	7.047          	0.147
MS.416         	7.035          	0.153
MS.417         	7.02           	0.151
MS.418         	7.007          	0.153
MS.419         	6.992          	0.161
MS.420         	6.977          	0.147
MS.421         	6.965          	0.153
DERIVED EXCITABILITY VARIABLES
Program = QTracP 3/4/2020
Threshold method = 6 (optimised for CAP, using data for present condition only)
SR method = 1 (using actual data values)
6.                 	0.000               	Peak response\(mV)
9.                 	32.9                	Temperature ( C)
17.                	20                  	Age (years)
18.                	2                   	Sex (M=1, F=2)

EXTRA VARIABLES

MScPeak(mV) = 11.5
MScS5(mA) = 11.21
MScS50(mA) = 12.81
MScS95(mA) = 14.51
MScNSteps = 5
MScSteps(%) = 12.9
MScStepMax(%) = 2.9
MScD50 = 29
MScSlope = 9.53
MSFPeakAmp(mV) = 11.5
MSFNUnits = 177
MSFMeanUnitAmp(uV) = 65
MSFHuntTime(m) = 1.94
MSFError(%) = 7.77
MSFNLarge = 55.06
MSFMedianAmp(%) = 0.476
MSFMedianAmp(mV) = 0.0547
MSFHalfAmpAmp(%) = 0.553
MSFHalfAmpAmp(mV) = 0.0636
MSFLargestAmp(%) = 3
MSFLargestAmp(mV) = 0.345
MSFMeanRS(%) = 1.99
MSFOpts = 10106121
MScDuration(min) = 3.7
MSFTraces = 268
MSFSizeLimit(uV) = 28.8
MSFLimitType = 1
MSFSmallestAmp(uV) = 31.1

EXTRA WAVEFORMS


!MScan Model
!177
	1	10.01	0.54	2
	2	10.26	0.49	2
	3	10.8	0.54	2
	4	10.85	0.3	2
	5	10.92	0.34	2
	6	11.02	0.66	2
	7	11.16	0.76	2
	8	11.24	0.53	2
	9	11.27	0.46	2
	10	11.32	0.55	2
	11	11.37	0.53	2
	12	11.39	0.34	2
	13	11.42	0.48	2
	14	11.44	0.48	2
	15	11.47	0.46	2
	16	11.49	0.44	2
	17	11.52	0.44	2
	18	11.54	0.4	2
	19	11.56	0.45	2
	20	11.6	0.42	2
	21	11.62	0.42	2
	22	11.64	0.41	2
	23	11.66	0.41	2
	24	11.68	0.35	2
	25	11.7	0.31	2
	26	11.72	0.34	2
	27	11.75	0.37	2
	28	11.76	0.36	2
	29	11.78	0.27	2
	30	11.79	0.33	2
	31	11.81	0.36	2
	32	11.82	0.33	2
	33	11.84	0.37	2
	34	11.85	0.43	2
	35	11.86	0.3	2
	36	11.87	0.28	2
	37	11.88	0.28	2
	38	11.89	0.28	2
	39	11.9	0.28	2
	40	11.91	0.28	2
	41	11.92	0.29	2
	42	11.93	0.29	2
	43	11.94	0.3	2
	44	11.95	0.3	2
	45	11.96	0.29	2
	46	11.97	0.29	2
	47	11.98	0.29	2
	48	11.99	0.29	2
	49	12	0.29	2
	50	12.02	0.69	2
	51	12.05	0.76	2
	52	12.07	0.72	2
	53	12.1	0.79	2
	54	12.13	0.82	2
	55	12.17	1.35	2
	56	12.24	2.21	2
	57	12.27	0.77	2
	58	12.3	0.95	2
	59	12.33	1.14	2
	60	12.36	1.08	2
	61	12.39	0.97	2
	62	12.4	0.32	2
	63	12.41	0.32	2
	64	12.42	0.33	2
	65	12.43	0.35	2
	66	12.44	0.35	2
	67	12.44	0.35	2
	68	12.45	0.35	2
	69	12.46	0.35	2
	70	12.47	0.39	2
	71	12.48	0.41	2
	72	12.49	0.41	2
	73	12.5	0.49	2
	74	12.51	0.51	2
	75	12.52	0.51	2
	76	12.53	0.51	2
	77	12.54	0.48	2
	78	12.55	0.38	2
	79	12.57	0.38	2
	80	12.58	0.38	2
	81	12.59	0.38	2
	82	12.6	0.41	2
	83	12.61	0.42	2
	84	12.62	0.42	2
	85	12.63	0.42	2
	86	12.65	0.64	2
	87	12.68	1.34	2
	88	12.71	1.43	2
	89	12.74	0.93	2
	90	12.76	0.41	2
	91	12.77	0.41	2
	92	12.78	0.41	2
	93	12.79	0.41	2
	94	12.81	0.42	2
	95	12.82	0.42	2
	96	12.83	0.46	2
	97	12.84	0.47	2
	98	12.86	0.59	2
	99	12.87	0.59	2
	100	12.88	0.59	2
	101	12.89	0.59	2
	102	12.9	0.49	2
	103	12.91	0.48	2
	104	12.93	0.49	2
	105	12.94	0.49	2
	106	12.95	0.49	2
	107	12.96	0.53	2
	108	12.97	0.53	2
