File:              	C:\Qtrac\Data\Daniel M Sørensen\MScan multicentre study\Data from centres\Oslo\Processed data\SZC00702D.QZD
Name:              	NO.OSL.NC.19.2
Protocol:          	MSCAN-R2
Date:              	2/7/20
Start time:        	10:18:02
Age:               	39
Sex:               	M
Temperature:       	34.6
S/R sites:         	APB
NC/disease:        	NC19
Operator:          	SZ
Comments:          	Test2
M-SCAN DATA (11.7-8.7m)
Scanpts: 14, 18, 277, 287
Stim. (mA)     	Amp. (mV)
MS.1           	16.5           	13.165
MS.2           	16.5           	13.273
MS.3           	16.5           	13.233
MS.4           	16.5           	13.243
MS.5           	16.5           	13.237
MS.6           	16.5           	13.084
MS.7           	16.5           	13.265
MS.8           	16.5           	13.205
MS.9           	16.5           	13.132
MS.10          	16.5           	13.346
MS.11          	16.5           	13.038
MS.12          	16.5           	13.451
MS.13          	16.5           	13.509
MS.14          	16.5           	13.338
MS.15          	16.5           	13.265
MS.16          	16.5           	13.497
MS.17          	16.5           	13.404
MS.18          	16.5           	13.428
MS.19          	16.5           	13.314
MS.20          	16.5           	13.299
MS.21          	16.5           	13.483
MS.22          	16.5           	13.191
MS.23          	16.5           	13.167
MS.24          	16.4           	13.312
MS.25          	16.368         	13.229
MS.26          	16.335         	13.146
MS.27          	16.302         	13.016
MS.28          	16.27          	13.118
MS.29          	16.237         	13.132
MS.30          	16.205         	12.949
MS.31          	16.172         	12.957
MS.32          	16.14          	12.838
MS.33          	16.108         	12.983
MS.34          	16.077         	12.615
MS.35          	16.045         	12.822
MS.36          	16.012         	12.935
MS.37          	15.98          	12.498
MS.38          	15.947         	12.806
MS.39          	15.917         	12.441
MS.40          	15.885         	12.363
MS.41          	15.852         	12.327
MS.42          	15.822         	12.258
MS.43          	15.79          	11.912
MS.44          	15.757         	12.089
MS.45          	15.727         	11.942
MS.46          	15.695         	12.315
MS.47          	15.665         	11.636
MS.48          	15.632         	12.073
MS.49          	15.602         	11.68
MS.50          	15.57          	11.892
MS.51          	15.54          	11.757
MS.52          	15.507         	11.73
MS.53          	15.477         	11.656
MS.54          	15.445         	11.459
MS.55          	15.415         	11.438
MS.56          	15.385         	11.473
MS.57          	15.352         	11.739
MS.58          	15.322         	11.231
MS.59          	15.292         	11.374
MS.60          	15.262         	11.215
MS.61          	15.233         	11.096
MS.62          	15.2           	11.046
MS.63          	15.17          	11.08
MS.64          	15.14          	11.034
MS.65          	15.11          	10.854
MS.66          	15.08          	10.504
MS.67          	15.05          	10.415
MS.68          	15.02          	10.089
MS.69          	14.99          	10.2
MS.70          	14.96          	10.292
MS.71          	14.93          	10.23
MS.72          	14.9           	10.282
MS.73          	14.87          	10.071
MS.74          	14.84          	10.069
MS.75          	14.81          	9.861
MS.76          	14.78          	9.328
MS.77          	14.752         	10.061
MS.78          	14.722         	9.398
MS.79          	14.693         	9.463
MS.80          	14.662         	8.75
MS.81          	14.635         	8.897
MS.82          	14.605         	9.191
MS.83          	14.575         	9.251
MS.84          	14.547         	9.392
MS.85          	14.517         	9.064
MS.86          	14.487         	8.661
MS.87          	14.46          	8.578
MS.88          	14.43          	8.361
MS.89          	14.403         	8.036
MS.90          	14.372         	7.904
MS.91          	14.345         	7.934
MS.92          	14.315         	7.795
MS.93          	14.287         	7.277
MS.94          	14.257         	7.626
MS.95          	14.23          	7.364
MS.96          	14.202         	7.69
MS.97          	14.172         	7.257
MS.98          	14.145         	7.156
MS.99          	14.117         	7.048
MS.100         	14.087         	6.792
MS.101         	14.06          	6.478
MS.102         	14.032         	6.502
MS.103         	14.005         	6.194
MS.104         	13.975         	5.823
MS.105         	13.947         	5.742
MS.106         	13.92          	6.179
MS.107         	13.892         	5.934
MS.108         	13.865         	5.603
MS.109         	13.837         	5.698
MS.110         	13.81          	5.813
MS.111         	13.782         	5.68
MS.112         	13.755         	5.466
MS.113         	13.727         	5.543
MS.114         	13.7           	5.225
MS.115         	13.672         	5.529
MS.116         	13.645         	4.79
MS.117         	13.617         	4.915
MS.118         	13.59          	4.24
MS.119         	13.562         	4.425
MS.120         	13.535         	4.423
MS.121         	13.51          	4.314
MS.122         	13.483         	4.155
MS.123         	13.455         	4.614
MS.124         	13.427         	4.171
MS.125         	13.403         	3.907
MS.126         	13.375         	4.606
MS.127         	13.347         	3.916
MS.128         	13.32          	3.601
MS.129         	13.295         	3.775
MS.130         	13.267         	4.04
MS.131         	13.242         	3.247
MS.132         	13.215         	3.65
MS.133         	13.188         	3.072
MS.134         	13.162         	3.39
MS.135         	13.135         	3.458
MS.136         	13.11          	3.327
MS.137         	13.082         	3.209
MS.138         	13.057         	3.205
MS.139         	13.032         	3.025
MS.140         	13.005         	2.836
MS.141         	12.98          	2.784
MS.142         	12.952         	2.876
MS.143         	12.927         	2.778
MS.144         	12.903         	2.665
MS.145         	12.875         	2.626
MS.146         	12.85          	2.467
MS.147         	12.825         	2.755
MS.148         	12.8           	2.542
MS.149         	12.773         	2.338
MS.150         	12.747         	2.481
MS.151         	12.722         	2.399
MS.152         	12.697         	2.161
MS.153         	12.672         	2.199
MS.154         	12.645         	2.042
MS.155         	12.62          	2.216
MS.156         	12.595         	1.98
MS.157         	12.57          	2.27
MS.158         	12.545         	1.823
MS.159         	12.52          	1.694
MS.160         	12.495         	1.676
MS.161         	12.47          	2.004
MS.162         	12.445         	1.497
MS.163         	12.42          	1.027
MS.164         	12.395         	1.708
MS.165         	12.37          	1.46
MS.166         	12.347         	1.531
MS.167         	12.322         	1.267
MS.168         	12.297         	1.47
MS.169         	12.273         	0.888
MS.170         	12.247         	1.412
MS.171         	12.222         	1.368
MS.172         	12.2           	1.267
MS.173         	12.175         	1.476
MS.174         	12.15          	0.935
MS.175         	12.125         	0.771
MS.176         	12.102         	1.088
MS.177         	12.077         	1.235
MS.178         	12.052         	0.757
MS.179         	12.03          	1.221
MS.180         	12.005         	0.739
MS.181         	11.983         	0.634
MS.182         	11.957         	0.681
MS.183         	11.932         	0.407
MS.184         	11.91          	0.775
MS.185         	11.885         	0.624
MS.186         	11.863         	0.661
MS.187         	11.837         	0.54
MS.188         	11.815         	0.536
MS.189         	11.79          	0.449
MS.190         	11.767         	0.608
MS.191         	11.745         	0.6
MS.192         	11.72          	0.588
MS.193         	11.697         	0.449
MS.194         	11.675         	0.427
MS.195         	11.65          	0.479
MS.196         	11.627         	0.318
MS.197         	11.605         	0.26
MS.198         	11.58          	0.546
MS.199         	11.557         	0.379
MS.200         	11.535         	0.385
MS.201         	11.512         	0.34
MS.202         	11.488         	0.32
MS.203         	11.465         	0.296
MS.204         	11.443         	0.389
MS.205         	11.42          	0.381
MS.206         	11.398         	0.28
MS.207         	11.375         	0.322
MS.208         	11.352         	0.286
MS.209         	11.33          	0.296
MS.210         	11.307         	0.27
MS.211         	11.282         	0.29
MS.212         	11.26          	0.288
MS.213         	11.238         	0.274
MS.214         	11.215         	0.314
MS.215         	11.195         	0.26
MS.216         	11.172         	0.29
MS.217         	11.15          	0.274
MS.218         	11.127         	0.284
MS.219         	11.105         	0.266
MS.220         	11.082         	0.23
MS.221         	11.06          	0.254
MS.222         	11.037         	0.278
MS.223         	11.015         	0.278
MS.224         	10.995         	0.258
MS.225         	10.972         	0.242
MS.226         	10.95          	0.276
MS.227         	10.927         	0.262
MS.228         	10.907         	0.27
MS.229         	10.885         	0.246
MS.230         	10.863         	0.266
MS.231         	10.84          	0.238
MS.232         	10.82          	0.244
MS.233         	10.797         	0.187
MS.234         	10.778         	0.262
MS.235         	10.755         	0.224
MS.236         	10.733         	0.211
MS.237         	10.712         	0.199
MS.238         	10.69          	0.171
MS.239         	10.67          	0.24
MS.240         	10.648         	0.252
MS.241         	10.627         	0.218
MS.242         	10.605         	0.159
MS.243         	10.585         	0.163
MS.244         	10.562         	0.169
MS.245         	10.542         	0.149
MS.246         	10.52          	0.151
MS.247         	10.5           	0.155
MS.248         	10.48          	0.153
MS.249         	10.457         	0.169
MS.250         	10.438         	0.149
MS.251         	10.415         	0.191
MS.252         	10.395         	0.157
MS.253         	10.375         	0.149
MS.254         	10.355         	0.155
MS.255         	10.332         	0.151
MS.256         	10.312         	0.081
MS.257         	10.292         	0.157
MS.258         	10.273         	0.147
MS.259         	10.25          	0.147
MS.260         	10.23          	0.153
MS.261         	10.21          	0.149
MS.262         	10.19          	0.091
MS.263         	10.17          	0.079
MS.264         	10.15          	0.157
MS.265         	10.127         	0.151
MS.266         	10.108         	0.159
MS.267         	10.087         	0.081
MS.268         	10.068         	0.145
MS.269         	10.047         	0.085
MS.270         	10.028         	0.085
MS.271         	10.007         	0.149
MS.272         	9.988          	0.157
MS.273         	9.967          	0.143
MS.274         	9.948          	0.087
MS.275         	9.927          	0.087
MS.276         	9.907          	0.087
MS.277         	9.887          	0.087
MS.278         	9.867          	0.093
MS.279         	9.85           	0.091
MS.280         	9.83           	0.091
MS.281         	9.81           	0.093
MS.282         	9.79           	0.091
MS.283         	9.77           	0.089
MS.284         	9.75           	0.097
MS.285         	9.733          	0.091
MS.286         	9.712          	0.093
MS.287         	9.693          	0.095
MS.288         	9.672          	0.087
MS.289         	9.655          	0.091
MS.290         	9.635          	0.089
MS.291         	9.615          	0.083
MS.292         	9.595          	0.089
MS.293         	9.577          	0.087
MS.294         	9.557          	0.091
MS.295         	9.537          	0.087
MS.296         	9.52           	0.085
MS.297         	9.5            	0.091
MS.298         	9.483          	0.091
MS.299         	9.462          	0.095
MS.300         	9.445          	0.087
MS.301         	9.425          	0.087
MS.302         	9.405          	0.089
MS.303         	9.387          	0.097
MS.304         	9.367          	0.091
MS.305         	9.35           	0.089
MS.306         	9.33           	0.087
MS.307         	9.312          	0.097
MS.308         	9.295          	0.093
MS.309         	9.275          	0.093
MS.310         	9.257          	0.095
MS.311         	9.238          	0.097
MS.312         	9.22           	0.093
MS.313         	9.202          	0.089
MS.314         	9.182          	0.095
MS.315         	9.165          	0.093
MS.316         	9.148          	0.097
MS.317         	9.127          	0.097
MS.318         	9.11           	0.095
MS.319         	9.092          	0.095
MS.320         	9.073          	0.099
MS.321         	9.055          	0.085
MS.322         	9.037          	0.093
MS.323         	9.02           	0.097
MS.324         	9              	0.091
MS.325         	8.983          	0.095
MS.326         	8.965          	0.097
MS.327         	8.948          	0.091
MS.328         	8.93           	0.085
MS.329         	8.912          	0.093
MS.330         	8.895          	0.089
MS.331         	8.875          	0.101
MS.332         	8.858          	0.093
MS.333         	8.84           	0.093
MS.334         	8.823          	0.085
MS.335         	8.805          	0.085
MS.336         	8.787          	0.097
MS.337         	8.77           	0.089
MS.338         	8.752          	0.087
MS.339         	8.735          	0.097
MS.340         	8.717          	0.087
MS.341         	8.7            	0.097
MS.342         	8.682          	0.099
MS.343         	8.665          	0.087
MS.344         	8.648          	0.095
MS.345         	8.63           	0.097
MS.346         	8.613          	0.095
MS.347         	8.597          	0.093
MS.348         	8.58           	0.089
MS.349         	8.562          	0.095
MS.350         	8.545          	0.097
DERIVED EXCITABILITY VARIABLES
Program = QTracP 3/4/2020
Threshold method = 6 (optimised for CAP, using data for present condition only)
SR method = 1 (using actual data values)
6.                 	0.000               	Peak response\(mV)
9.                 	34.6                	Temperature ( C)
17.                	39                  	Age (years)
18.                	1                   	Sex (M=1, F=2)

EXTRA VARIABLES

MScPeak(mV) = 13.2
MScS5(mA) = 11.92
MScS50(mA) = 14.07
MScS95(mA) = 15.96
MScNSteps = 2
MScSteps(%) = 5.7
MScStepMax(%) = 3
MScD50 = 35
MScSlope = 8.89
MSFPeakAmp(mV) = 13.3
MSFNUnits = 132
MSFMeanUnitAmp(uV) = 100.7
MSFHuntTime(m) = 1.76
MSFError(%) = 5.27
MSFNLarge = 42.42
MSFMedianAmp(%) = 0.65
MSFMedianAmp(mV) = 0.0864
MSFHalfAmpAmp(%) = 0.835
MSFHalfAmpAmp(mV) = 0.111
MSFLargestAmp(%) = 2.29
MSFLargestAmp(mV) = 0.305
MSFMeanRS(%) = 2
MSFOpts = 10106121
MScDuration(min) = 3
MSFTraces = 274
MSFSizeLimit(uV) = 33.2
MSFLimitType = 1
MSFSmallestAmp(uV) = 35.2

EXTRA WAVEFORMS


!MScan Model
!132
	1	10.2	0.31	2
	2	10.52	0.31	2
	3	10.78	0.5	2
	4	11.28	0.42	2
	5	11.48	0.41	2
	6	11.58	0.51	2
	7	11.68	0.41	2
	8	11.85	0.84	2
	9	11.95	1.44	2
	10	12.01	0.65	2
	11	12.09	1.39	2
	12	12.22	1.5	2
	13	12.34	1.35	2
	14	12.41	1.29	2
	15	12.46	0.92	2
	16	12.5	0.63	2
	17	12.55	0.91	2
	18	12.58	0.63	2
	19	12.61	0.76	2
	20	12.65	0.59	2
	21	12.68	0.5	2
	22	12.69	0.32	2
	23	12.71	0.33	2
	24	12.75	0.53	2
	25	12.77	0.32	2
	26	12.79	0.31	2
	27	12.82	0.49	2
	28	12.85	0.39	2
	29	12.86	0.5	2
	30	12.88	0.44	2
	31	12.91	0.45	2
	32	12.92	0.26	2
	33	12.95	0.46	2
	34	12.98	0.73	2
	35	13.04	0.79	2
	36	13.08	0.84	2
	37	13.13	0.96	2
	38	13.17	1.05	2
	39	13.23	1.25	2
	40	13.28	1.19	2
	41	13.34	1.38	2
	42	13.41	1.55	2
	43	13.47	1.45	2
	44	13.51	0.99	2
	45	13.55	1.64	2
	46	13.59	1.17	2
	47	13.62	0.95	2
	48	13.68	0.96	2
	49	13.71	1.06	2
	50	13.75	1.19	2
	51	13.8	1.49	2
	52	13.84	1.36	2
	53	13.87	0.82	2
	54	13.89	0.46	2
	55	13.91	0.43	2
	56	13.93	0.63	2
	57	13.95	0.88	2
	58	13.97	0.57	2
	59	13.98	0.61	2
	60	14	0.65	2
	61	14.02	0.65	2
	62	14.04	0.7	2
	63	14.06	0.76	2
	64	14.1	0.44	2
	65	14.11	0.78	2
	66	14.13	0.69	2
	67	14.15	0.62	2
	68	14.16	0.53	2
	69	14.18	0.5	2
	70	14.19	0.48	2
	71	14.21	0.61	2
	72	14.22	0.81	2
	73	14.24	0.65	2
	74	14.25	0.46	2
	75	14.27	0.49	2
	76	14.28	0.51	2
	77	14.3	0.78	2
	78	14.33	1.08	2
	79	14.36	1	2
	80	14.39	0.99	2
	81	14.42	1	2
	82	14.46	1.17	2
	83	14.5	1.24	2
	84	14.53	1.3	2
	85	14.57	1.17	2
	86	14.61	1.19	2
	87	14.68	2.29	2
	88	14.74	1.42	2
	89	14.78	0.99	2
	90	14.82	0.81	2
	91	14.86	0.53	2
	92	14.89	1.01	2
	93	14.92	0.62	2
	94	14.94	0.34	1.6
	95	14.96	0.7	2.4
	96	14.98	0.83	2.4
	97	15	0.59	2
	98	15.03	0.47	2
	99	15.05	0.5	2
	100	15.07	0.51	2
	101	15.09	0.56	2
	102	15.11	0.51	2
	103	15.16	0.5	2
	104	15.18	0.56	2
	105	15.2	0.55	2
	106	15.24	0.8	2
	107	15.27	0.91	2
	108	15.31	0.88	2
	109	15.35	0.48	2
	110	15.4	0.78	2
	111	15.46	1	2
	112	15.52	0.7	2
	113	15.57	0.61	2
	114	15.61	0.4	2
	115	15.66	0.64	2
	116	15.7	0.64	2
	117	15.75	0.85	2
	118	15.8	0.77	2
	119	15.84	0.61	2
	120	15.86	0.47	2
	121	15.92	0.52	2
	122	15.94	0.52	2
	123	15.97	0.47	2
	124	16.01	0.67	2
	125	16.06	0.75	2
	126	16.1	0.67	2
	127	16.15	0.52	2
	128	16.19	0.5	2
	129	16.23	0.3	2
	130	16.27	0.39	2
	131	16.33	0.49	2
	132	16.41	0.69	2

