File:              	C:\Qtrac\Data\Daniel M Sørensen\MScan multicentre study\Data from centres\Oslo\IronKey\Oslo_NC_first examination\SZC00508B.QZD
Name:              	NO.OSL.NC.8.1
Protocol:          	MSCAN-R2
Date:              	8/5/20
Start time:        	11:47:55
Age:               	68
Sex:               	F
Temperature:       	33.3
S/R sites:         	Ulnar Wr-ADM
NC/disease:        	NC8
Operator:          	SZ
Comments:          	Test 1
M-SCAN DATA (7.4-2.8m)
Scanpts: 27, 31, 477, 484
Stim. (mA)     	Amp. (mV)
MS.1           	21             	7.853
MS.2           	21             	7.841
MS.3           	21             	7.829
MS.4           	21             	7.819
MS.5           	21             	7.803
MS.6           	21             	7.841
MS.7           	21             	7.819
MS.8           	21             	7.807
MS.9           	21             	7.759
MS.10          	21             	7.722
MS.11          	21             	7.732
MS.12          	21             	7.734
MS.13          	21             	7.771
MS.14          	21             	7.748
MS.15          	21             	7.759
MS.16          	21             	7.724
MS.17          	21             	7.75
MS.18          	21             	7.746
MS.19          	21             	7.738
MS.20          	21             	7.755
MS.21          	21             	7.728
MS.22          	21             	7.728
MS.23          	21             	7.716
MS.24          	20.915         	7.69
MS.25          	20.875         	7.69
MS.26          	20.833         	7.688
MS.27          	20.79          	7.688
MS.28          	20.75          	7.68
MS.29          	20.708         	7.666
MS.30          	20.667         	7.674
MS.31          	20.625         	7.672
MS.32          	20.585         	7.656
MS.33          	20.542         	7.658
MS.34          	20.502         	7.642
MS.35          	20.46          	7.666
MS.36          	20.42          	7.646
MS.37          	20.38          	7.66
MS.38          	20.337         	7.626
MS.39          	20.297         	7.632
MS.40          	20.257         	7.636
MS.41          	20.217         	7.648
MS.42          	20.177         	7.618
MS.43          	20.135         	7.605
MS.44          	20.095         	7.636
MS.45          	20.055         	7.614
MS.46          	20.015         	7.589
MS.47          	19.975         	7.601
MS.48          	19.935         	7.603
MS.49          	19.895         	7.605
MS.50          	19.855         	7.607
MS.51          	19.817         	7.561
MS.52          	19.778         	7.599
MS.53          	19.737         	7.537
MS.54          	19.698         	7.593
MS.55          	19.657         	7.527
MS.56          	19.62          	7.545
MS.57          	19.58          	7.533
MS.58          	19.54          	7.583
MS.59          	19.502         	7.533
MS.60          	19.462         	7.571
MS.61          	19.425         	7.557
MS.62          	19.385         	7.529
MS.63          	19.347         	7.527
MS.64          	19.307         	7.541
MS.65          	19.27          	7.547
MS.66          	19.23          	7.537
MS.67          	19.192         	7.545
MS.68          	19.155         	7.515
MS.69          	19.115         	7.497
MS.70          	19.077         	7.499
MS.71          	19.04          	7.521
MS.72          	19.002         	7.493
MS.73          	18.962         	7.537
MS.74          	18.925         	7.521
MS.75          	18.887         	7.533
MS.76          	18.85          	7.497
MS.77          	18.812         	7.515
MS.78          	18.775         	7.503
MS.79          	18.737         	7.491
MS.80          	18.7           	7.464
MS.81          	18.663         	7.491
MS.82          	18.625         	7.501
MS.83          	18.587         	7.483
MS.84          	18.55          	7.489
MS.85          	18.515         	7.481
MS.86          	18.477         	7.442
MS.87          	18.44          	7.46
MS.88          	18.403         	7.495
MS.89          	18.368         	7.448
MS.90          	18.33          	7.495
MS.91          	18.292         	7.495
MS.92          	18.257         	7.525
MS.93          	18.22          	7.491
MS.94          	18.182         	7.505
MS.95          	18.147         	7.487
MS.96          	18.11          	7.479
MS.97          	18.075         	7.471
MS.98          	18.038         	7.479
MS.99          	18.003         	7.444
MS.100         	17.967         	7.483
MS.101         	17.93          	7.454
MS.102         	17.895         	7.396
MS.103         	17.86          	7.507
MS.104         	17.823         	7.495
MS.105         	17.788         	7.517
MS.106         	17.753         	7.43
MS.107         	17.717         	7.354
MS.108         	17.682         	7.257
MS.109         	17.645         	7.378
MS.110         	17.61          	7.466
MS.111         	17.575         	7.442
MS.112         	17.54          	7.469
MS.113         	17.505         	7.372
MS.114         	17.47          	7.36
MS.115         	17.435         	7.424
MS.116         	17.4           	7.372
MS.117         	17.365         	7.356
MS.118         	17.333         	7.255
MS.119         	17.297         	7.247
MS.120         	17.262         	7.273
MS.121         	17.227         	7.217
MS.122         	17.192         	7.277
MS.123         	17.16          	7.16
MS.124         	17.125         	7.16
MS.125         	17.09          	7.245
MS.126         	17.057         	7.12
MS.127         	17.022         	7.084
MS.128         	16.987         	7.132
MS.129         	16.955         	7.007
MS.130         	16.92          	7.106
MS.131         	16.887         	7.15
MS.132         	16.852         	7.148
MS.133         	16.82          	7.207
MS.134         	16.785         	7.191
MS.135         	16.753         	7.052
MS.136         	16.717         	6.973
MS.137         	16.685         	7.017
MS.138         	16.653         	6.941
MS.139         	16.618         	7.044
MS.140         	16.585         	6.999
MS.141         	16.552         	6.993
MS.142         	16.52          	6.886
MS.143         	16.485         	6.89
MS.144         	16.452         	7.009
MS.145         	16.42          	6.939
MS.146         	16.387         	6.82
MS.147         	16.355         	6.717
MS.148         	16.323         	6.741
MS.149         	16.29          	6.8
MS.150         	16.257         	6.725
MS.151         	16.225         	6.58
MS.152         	16.192         	6.534
MS.153         	16.16          	6.707
MS.154         	16.128         	6.57
MS.155         	16.095         	6.459
MS.156         	16.062         	6.514
MS.157         	16.03          	6.562
MS.158         	16             	6.562
MS.159         	15.967         	6.391
MS.160         	15.935         	6.463
MS.161         	15.902         	6.445
MS.162         	15.872         	6.387
MS.163         	15.84          	6.345
MS.164         	15.807         	6.343
MS.165         	15.777         	6.246
MS.166         	15.745         	6.214
MS.167         	15.712         	6.29
MS.168         	15.682         	6.302
MS.169         	15.65          	6.123
MS.170         	15.62          	6.049
MS.171         	15.587         	6.055
MS.172         	15.557         	5.966
MS.173         	15.525         	6.183
MS.174         	15.495         	6.026
MS.175         	15.465         	6.085
MS.176         	15.432         	6.073
MS.177         	15.402         	6.042
MS.178         	15.372         	6.214
MS.179         	15.34          	5.952
MS.180         	15.31          	5.976
MS.181         	15.28          	6.053
MS.182         	15.25          	5.96
MS.183         	15.217         	5.908
MS.184         	15.188         	6.065
MS.185         	15.157         	5.853
MS.186         	15.127         	5.875
MS.187         	15.097         	6.024
MS.188         	15.068         	5.763
MS.189         	15.037         	5.71
MS.190         	15.007         	5.684
MS.191         	14.977         	5.881
MS.192         	14.947         	5.813
MS.193         	14.917         	5.767
MS.194         	14.887         	5.708
MS.195         	14.858         	5.575
MS.196         	14.827         	5.597
MS.197         	14.797         	5.615
MS.198         	14.77          	5.692
MS.199         	14.74          	5.394
MS.200         	14.71          	5.398
MS.201         	14.68          	5.595
MS.202         	14.65          	5.392
MS.203         	14.622         	5.585
MS.204         	14.592         	5.573
MS.205         	14.562         	5.348
MS.206         	14.535         	5.384
MS.207         	14.505         	5.579
MS.208         	14.477         	5.188
MS.209         	14.447         	5.217
MS.210         	14.417         	5.354
MS.211         	14.39          	5.199
MS.212         	14.36          	5.313
MS.213         	14.332         	5.336
MS.214         	14.302         	5.16
MS.215         	14.275         	5.178
MS.216         	14.247         	5.174
MS.217         	14.217         	5.178
MS.218         	14.19          	5.174
MS.219         	14.162         	5.088
MS.220         	14.132         	5.106
MS.221         	14.105         	5.114
MS.222         	14.077         	5.118
MS.223         	14.047         	5.168
MS.224         	14.02          	5.128
MS.225         	13.992         	5.122
MS.226         	13.965         	5.068
MS.227         	13.938         	4.949
MS.228         	13.91          	4.985
MS.229         	13.88          	4.981
MS.230         	13.852         	4.576
MS.231         	13.825         	4.977
MS.232         	13.797         	5.078
MS.233         	13.77          	4.502
MS.234         	13.742         	4.669
MS.235         	13.715         	4.683
MS.236         	13.688         	4.341
MS.237         	13.66          	4.459
MS.238         	13.632         	4.735
MS.239         	13.605         	4.328
MS.240         	13.58          	4.812
MS.241         	13.552         	4.741
MS.242         	13.525         	4.592
MS.243         	13.497         	4.282
MS.244         	13.47          	4.526
MS.245         	13.445         	4.584
MS.246         	13.417         	4.24
MS.247         	13.39          	4.471
MS.248         	13.362         	4.187
MS.249         	13.337         	4.532
MS.250         	13.31          	4.351
MS.251         	13.282         	4.33
MS.252         	13.257         	4.357
MS.253         	13.23          	4.008
MS.254         	13.205         	4.014
MS.255         	13.177         	4.407
MS.256         	13.153         	4.069
MS.257         	13.125         	4.238
MS.258         	13.1           	4.006
MS.259         	13.072         	3.956
MS.260         	13.047         	4.119
MS.261         	13.02          	4.115
MS.262         	12.995         	3.738
MS.263         	12.967         	4.103
MS.264         	12.943         	4.016
MS.265         	12.917         	3.911
MS.266         	12.89          	3.873
MS.267         	12.865         	3.954
MS.268         	12.84          	3.579
MS.269         	12.812         	3.873
MS.270         	12.787         	3.996
MS.271         	12.762         	3.809
MS.272         	12.738         	3.519
MS.273         	12.712         	3.76
MS.274         	12.685         	3.932
MS.275         	12.66          	3.718
MS.276         	12.635         	3.478
MS.277         	12.61          	3.561
MS.278         	12.585         	3.71
MS.279         	12.56          	3.507
MS.280         	12.535         	3.464
MS.281         	12.51          	3.619
MS.282         	12.485         	3.499
MS.283         	12.46          	3.472
MS.284         	12.435         	3.48
MS.285         	12.41          	3.172
MS.286         	12.385         	3.384
MS.287         	12.36          	3.404
MS.288         	12.335         	3.497
MS.289         	12.312         	3.368
MS.290         	12.287         	3.36
MS.291         	12.262         	3.418
MS.292         	12.238         	3.42
MS.293         	12.212         	3.082
MS.294         	12.19          	3.122
MS.295         	12.165         	3.235
MS.296         	12.14          	2.82
MS.297         	12.115         	2.846
MS.298         	12.092         	3.337
MS.299         	12.068         	2.743
MS.300         	12.042         	3.039
MS.301         	12.02          	3.184
MS.302         	11.995         	2.86
MS.303         	11.972         	2.925
MS.304         	11.947         	3.007
MS.305         	11.922         	2.624
MS.306         	11.9           	2.917
MS.307         	11.875         	3.39
MS.308         	11.852         	2.598
MS.309         	11.827         	2.769
MS.310         	11.805         	2.804
MS.311         	11.782         	2.63
MS.312         	11.757         	2.618
MS.313         	11.735         	2.594
MS.314         	11.71          	2.536
MS.315         	11.688         	2.695
MS.316         	11.665         	2.55
MS.317         	11.64          	2.765
MS.318         	11.617         	2.635
MS.319         	11.595         	2.586
MS.320         	11.57          	2.373
MS.321         	11.547         	2.542
MS.322         	11.525         	2.663
MS.323         	11.502         	2.584
MS.324         	11.48          	2.58
MS.325         	11.455         	2.471
MS.326         	11.432         	2.381
MS.327         	11.41          	2.477
MS.328         	11.387         	2.336
MS.329         	11.365         	2.375
MS.330         	11.342         	2.449
MS.331         	11.32          	2.312
MS.332         	11.297         	2.328
MS.333         	11.275         	2.387
MS.334         	11.252         	2.312
MS.335         	11.23          	2.278
MS.336         	11.207         	2.248
MS.337         	11.185         	2.258
MS.338         	11.162         	2.413
MS.339         	11.14          	2.109
MS.340         	11.117         	2.264
MS.341         	11.095         	2.31
MS.342         	11.073         	2.244
MS.343         	11.05          	2.135
MS.344         	11.03          	2.099
MS.345         	11.007         	2.165
MS.346         	10.985         	2.369
MS.347         	10.962         	2.018
MS.348         	10.94          	2.151
MS.349         	10.92          	2.224
MS.350         	10.898         	1.883
MS.351         	10.875         	1.853
MS.352         	10.855         	2.33
MS.353         	10.832         	1.954
MS.354         	10.81          	1.922
MS.355         	10.79          	1.948
MS.356         	10.767         	1.754
MS.357         	10.745         	1.837
MS.358         	10.725         	1.72
MS.359         	10.702         	1.863
MS.360         	10.682         	1.648
MS.361         	10.66          	1.992
MS.362         	10.64          	1.644
MS.363         	10.617         	1.607
MS.364         	10.597         	1.605
MS.365         	10.575         	1.633
MS.366         	10.555         	1.603
MS.367         	10.532         	1.779
MS.368         	10.512         	1.648
MS.369         	10.49          	1.432
MS.370         	10.47          	1.456
MS.371         	10.45          	1.533
MS.372         	10.427         	1.577
MS.373         	10.407         	1.525
MS.374         	10.387         	1.69
MS.375         	10.365         	1.583
MS.376         	10.345         	1.478
MS.377         	10.325         	1.356
MS.378         	10.305         	1.333
MS.379         	10.282         	1.376
MS.380         	10.262         	1.204
MS.381         	10.242         	1.472
MS.382         	10.222         	1.378
MS.383         	10.202         	1.277
MS.384         	10.18          	1.293
MS.385         	10.16          	1.249
MS.386         	10.14          	1.259
MS.387         	10.12          	1.223
MS.388         	10.1           	1.319
MS.389         	10.08          	1.213
MS.390         	10.06          	1.283
MS.391         	10.04          	1.164
MS.392         	10.02          	1.144
MS.393         	10             	1.144
MS.394         	9.98           	1.063
MS.395         	9.96           	1.116
MS.396         	9.94           	1.192
MS.397         	9.92           	0.991
MS.398         	9.9            	1.315
MS.399         	9.88           	1.253
MS.400         	9.86           	1.182
MS.401         	9.84           	0.965
MS.402         	9.82           	0.91
MS.403         	9.802          	1.027
MS.404         	9.782          	1.015
MS.405         	9.762          	0.8
MS.406         	9.742          	0.912
MS.407         	9.722          	0.981
MS.408         	9.705          	0.959
MS.409         	9.685          	0.949
MS.410         	9.665          	0.868
MS.411         	9.645          	0.882
MS.412         	9.627          	0.868
MS.413         	9.608          	0.929
MS.414         	9.587          	0.743
MS.415         	9.57           	0.834
MS.416         	9.55           	0.582
MS.417         	9.53           	0.773
MS.418         	9.512          	0.596
MS.419         	9.492          	0.544
MS.420         	9.472          	0.675
MS.421         	9.455          	0.602
MS.422         	9.435          	0.707
MS.423         	9.417          	0.63
MS.424         	9.398          	0.58
MS.425         	9.38           	0.532
MS.426         	9.36           	0.35
MS.427         	9.342          	0.487
MS.428         	9.323          	0.399
MS.429         	9.305          	0.506
MS.430         	9.285          	0.495
MS.431         	9.267          	0.395
MS.432         	9.25           	0.429
MS.433         	9.23           	0.614
MS.434         	9.212          	0.361
MS.435         	9.193          	0.445
MS.436         	9.175          	0.354
MS.437         	9.158          	0.399
MS.438         	9.137          	0.336
MS.439         	9.12           	0.197
MS.440         	9.102          	0.449
MS.441         	9.085          	0.393
MS.442         	9.065          	0.22
MS.443         	9.047          	0.266
MS.444         	9.03           	0.256
MS.445         	9.012          	0.248
MS.446         	8.992          	0.189
MS.447         	8.975          	0.205
MS.448         	8.957          	0.25
MS.449         	8.94           	0.238
MS.450         	8.922          	0.165
MS.451         	8.905          	0.193
MS.452         	8.887          	0.149
MS.453         	8.867          	0.177
MS.454         	8.85           	0.127
MS.455         	8.832          	0.185
MS.456         	8.815          	0.153
MS.457         	8.797          	0.147
MS.458         	8.78           	0.187
MS.459         	8.762          	0.187
MS.460         	8.745          	0.167
MS.461         	8.727          	0.147
MS.462         	8.71           	0.147
MS.463         	8.693          	0.127
MS.464         	8.675          	0.248
MS.465         	8.658          	0.149
MS.466         	8.64           	0.149
MS.467         	8.622          	0.147
MS.468         	8.608          	0.151
MS.469         	8.59           	0.147
MS.470         	8.573          	0.149
MS.471         	8.555          	0.133
MS.472         	8.537          	0.149
MS.473         	8.52           	0.129
MS.474         	8.505          	0.151
MS.475         	8.488          	0.149
MS.476         	8.47           	0.131
MS.477         	8.452          	0.129
MS.478         	8.435          	0.131
MS.479         	8.42           	0.149
MS.480         	8.403          	0.151
MS.481         	8.385          	0.127
MS.482         	8.37           	0.125
MS.483         	8.352          	0.143
MS.484         	8.335          	0.129
MS.485         	8.32           	0.125
MS.486         	8.302          	0.129
MS.487         	8.285          	0.127
MS.488         	8.27           	0.147
MS.489         	8.252          	0.145
MS.490         	8.235          	0.125
MS.491         	8.22           	0.141
MS.492         	8.202          	0.125
MS.493         	8.188          	0.133
MS.494         	8.17           	0.145
MS.495         	8.155          	0.125
MS.496         	8.137          	0.149
MS.497         	8.122          	0.127
MS.498         	8.105          	0.125
MS.499         	8.09           	0.127
MS.500         	8.073          	0.143
