File:              	C:\Qtrac\Data\Daniel M Sørensen\MScan multicentre study\Data from centres\Oslo\Processed data\SZC00714G.QZD
Name:              	NO.OSL.NC.24.2
Protocol:          	MSCAN-R2
Date:              	14/7/20
Start time:        	17:25:29
Age:               	24
Sex:               	M
Temperature:       	33.3
S/R sites:         	TA
NC/disease:        	NC24
Operator:          	SZ
Comments:          	Test2
M-SCAN DATA (8-2.4m)
Scanpts: 61, 71, 557, 565
Stim. (mA)     	Amp. (mV)
MS.1           	21             	11.247
MS.2           	21             	11.295
MS.3           	21             	11.336
MS.4           	21             	11.112
MS.5           	21             	11.14
MS.6           	21             	11.152
MS.7           	21             	11.152
MS.8           	21             	11.167
MS.9           	21             	11.211
MS.10          	21             	11.241
MS.11          	21             	11.386
MS.12          	21             	11.162
MS.13          	21             	11.283
MS.14          	21             	11.094
MS.15          	21             	11.108
MS.16          	21             	11.251
MS.17          	21             	11.146
MS.18          	21             	11.251
MS.19          	21             	11.199
MS.20          	21             	11.231
MS.21          	21             	11.233
MS.22          	21             	11.189
MS.23          	21             	11.255
MS.24          	20.915         	11.219
MS.25          	20.875         	11.169
MS.26          	20.833         	11.195
MS.27          	20.79          	11.056
MS.28          	20.75          	11.251
MS.29          	20.708         	11.167
MS.30          	20.667         	10.802
MS.31          	20.625         	11.03
MS.32          	20.585         	11.201
MS.33          	20.542         	11.463
MS.34          	20.502         	11.289
MS.35          	20.46          	11.362
MS.36          	20.42          	11.342
MS.37          	20.38          	11.116
MS.38          	20.337         	11.181
MS.39          	20.297         	11.231
MS.40          	20.257         	11.227
MS.41          	20.217         	11.213
MS.42          	20.177         	11.32
MS.43          	20.135         	11.187
MS.44          	20.095         	11.144
MS.45          	20.055         	11.245
MS.46          	20.015         	11.169
MS.47          	19.975         	11.164
MS.48          	19.935         	11.245
MS.49          	19.895         	11.158
MS.50          	19.855         	11.267
MS.51          	19.817         	11.235
MS.52          	19.778         	11.239
MS.53          	19.737         	11.243
MS.54          	19.698         	11.237
MS.55          	19.657         	11.255
MS.56          	19.62          	11.219
MS.57          	19.58          	11.249
MS.58          	19.54          	11.316
MS.59          	19.502         	11.42
MS.60          	19.462         	11.43
MS.61          	19.425         	11.416
MS.62          	19.385         	11.291
MS.63          	19.347         	11.398
MS.64          	19.307         	11.448
MS.65          	19.27          	11.402
MS.66          	19.23          	11.404
MS.67          	19.192         	11.332
MS.68          	19.155         	11.305
MS.69          	19.115         	11.37
MS.70          	19.077         	11.388
MS.71          	19.04          	11.297
MS.72          	19.002         	11.239
MS.73          	18.962         	11.404
MS.74          	18.925         	11.314
MS.75          	18.887         	11.273
MS.76          	18.85          	11.346
MS.77          	18.812         	11.314
MS.78          	18.775         	11.344
MS.79          	18.737         	11.247
MS.80          	18.7           	11.207
MS.81          	18.663         	11.38
MS.82          	18.625         	11.265
MS.83          	18.587         	11.283
MS.84          	18.55          	11.217
MS.85          	18.515         	11.181
MS.86          	18.477         	11.307
MS.87          	18.44          	11.237
MS.88          	18.403         	11.207
MS.89          	18.368         	11.277
MS.90          	18.33          	11.376
MS.91          	18.292         	11.217
MS.92          	18.257         	11.173
MS.93          	18.22          	10.997
MS.94          	18.182         	11.271
MS.95          	18.147         	11.16
MS.96          	18.11          	11.235
MS.97          	18.075         	11.06
MS.98          	18.038         	11.114
MS.99          	18.003         	11.314
MS.100         	17.967         	11.314
MS.101         	17.93          	11.346
MS.102         	17.895         	11.332
MS.103         	17.86          	11.388
MS.104         	17.823         	11.209
MS.105         	17.788         	11.366
MS.106         	17.753         	11.388
MS.107         	17.717         	11.332
MS.108         	17.682         	11.152
MS.109         	17.645         	11.112
MS.110         	17.61          	11.158
MS.111         	17.575         	11.142
MS.112         	17.54          	11.185
MS.113         	17.505         	11.16
MS.114         	17.47          	11.152
MS.115         	17.435         	11.213
MS.116         	17.4           	11.056
MS.117         	17.365         	11.096
MS.118         	17.333         	11.072
MS.119         	17.297         	11.026
MS.120         	17.262         	11.066
MS.121         	17.227         	11.106
MS.122         	17.192         	10.915
MS.123         	17.16          	11.03
MS.124         	17.125         	10.977
MS.125         	17.09          	10.891
MS.126         	17.057         	10.919
MS.127         	17.022         	10.878
MS.128         	16.987         	10.973
MS.129         	16.955         	10.86
MS.130         	16.92          	10.951
MS.131         	16.887         	11.086
MS.132         	16.852         	11.092
MS.133         	16.82          	11.132
MS.134         	16.785         	11.08
MS.135         	16.753         	11.032
MS.136         	16.717         	11.054
MS.137         	16.685         	10.999
MS.138         	16.653         	10.909
MS.139         	16.618         	10.953
MS.140         	16.585         	11.005
MS.141         	16.552         	10.913
MS.142         	16.52          	10.957
MS.143         	16.485         	10.909
MS.144         	16.452         	11.007
MS.145         	16.42          	10.939
MS.146         	16.387         	11.044
MS.147         	16.355         	11.005
MS.148         	16.323         	10.87
MS.149         	16.29          	10.862
MS.150         	16.257         	10.87
MS.151         	16.225         	10.858
MS.152         	16.192         	10.975
MS.153         	16.16          	10.812
MS.154         	16.128         	10.937
MS.155         	16.095         	10.927
MS.156         	16.062         	10.842
MS.157         	16.03          	10.889
MS.158         	16             	10.665
MS.159         	15.967         	10.752
MS.160         	15.935         	10.713
MS.161         	15.902         	10.568
MS.162         	15.872         	10.709
MS.163         	15.84          	10.764
MS.164         	15.807         	10.619
MS.165         	15.777         	10.538
MS.166         	15.745         	10.613
MS.167         	15.712         	10.603
MS.168         	15.682         	10.701
MS.169         	15.65          	10.647
MS.170         	15.62          	10.667
MS.171         	15.587         	10.615
MS.172         	15.557         	10.468
MS.173         	15.525         	10.445
MS.174         	15.495         	10.623
MS.175         	15.465         	10.599
MS.176         	15.432         	10.518
MS.177         	15.402         	10.542
MS.178         	15.372         	10.391
MS.179         	15.34          	10.427
MS.180         	15.31          	10.488
MS.181         	15.28          	10.377
MS.182         	15.25          	10.407
MS.183         	15.217         	10.449
MS.184         	15.188         	10.254
MS.185         	15.157         	10.403
MS.186         	15.127         	10.339
MS.187         	15.097         	10.409
MS.188         	15.068         	10.409
MS.189         	15.037         	10.234
MS.190         	15.007         	10.31
MS.191         	14.977         	10.121
MS.192         	14.947         	10.111
MS.193         	14.917         	9.831
MS.194         	14.887         	9.988
MS.195         	14.858         	9.853
MS.196         	14.827         	10.079
MS.197         	14.797         	9.97
MS.198         	14.77          	10.091
MS.199         	14.74          	9.974
MS.200         	14.71          	9.74
MS.201         	14.68          	9.668
MS.202         	14.65          	9.795
MS.203         	14.622         	9.827
MS.204         	14.592         	9.66
MS.205         	14.562         	9.902
MS.206         	14.535         	9.636
MS.207         	14.505         	9.734
MS.208         	14.477         	9.545
MS.209         	14.447         	9.418
MS.210         	14.417         	9.571
MS.211         	14.39          	9.4
MS.212         	14.36          	9.438
MS.213         	14.332         	9.483
MS.214         	14.302         	9.253
MS.215         	14.275         	9.189
MS.216         	14.247         	9.352
MS.217         	14.217         	9.227
MS.218         	14.19          	9.197
MS.219         	14.162         	9.064
MS.220         	14.132         	9.13
MS.221         	14.105         	9.231
MS.222         	14.077         	9.084
MS.223         	14.047         	9.195
MS.224         	14.02          	9.295
MS.225         	13.992         	8.731
MS.226         	13.965         	9.054
MS.227         	13.938         	9.174
MS.228         	13.91          	9.017
MS.229         	13.88          	9.174
MS.230         	13.852         	9.086
MS.231         	13.825         	9.066
MS.232         	13.797         	9.009
MS.233         	13.77          	9.112
MS.234         	13.742         	8.925
MS.235         	13.715         	8.506
MS.236         	13.688         	8.905
MS.237         	13.66          	8.86
MS.238         	13.632         	8.915
MS.239         	13.605         	8.522
MS.240         	13.58          	8.447
MS.241         	13.552         	8.681
MS.242         	13.525         	8.48
MS.243         	13.497         	8.478
MS.244         	13.47          	8.163
MS.245         	13.445         	8.417
MS.246         	13.417         	8.439
MS.247         	13.39          	8.234
MS.248         	13.362         	8.137
MS.249         	13.337         	8.167
MS.250         	13.31          	7.95
MS.251         	13.282         	7.744
MS.252         	13.257         	7.714
MS.253         	13.23          	7.994
MS.254         	13.205         	7.869
MS.255         	13.177         	7.902
MS.256         	13.153         	7.922
MS.257         	13.125         	7.66
MS.258         	13.1           	7.912
MS.259         	13.072         	7.591
MS.260         	13.047         	7.605
MS.261         	13.02          	7.69
MS.262         	12.995         	7.807
MS.263         	12.967         	7.575
MS.264         	12.943         	7.452
MS.265         	12.917         	7.462
MS.266         	12.89          	7.1
MS.267         	12.865         	7.418
MS.268         	12.84          	7.289
MS.269         	12.812         	6.933
MS.270         	12.787         	7.108
MS.271         	12.762         	7.289
MS.272         	12.738         	7.039
MS.273         	12.712         	7.124
MS.274         	12.685         	7.243
MS.275         	12.66          	7.291
MS.276         	12.635         	7.182
MS.277         	12.61          	6.848
MS.278         	12.585         	7.052
MS.279         	12.56          	6.681
MS.280         	12.535         	6.502
MS.281         	12.51          	6.409
MS.282         	12.485         	6.3
MS.283         	12.46          	6.526
MS.284         	12.435         	6.399
MS.285         	12.41          	6.429
MS.286         	12.385         	6.449
MS.287         	12.36          	6.469
MS.288         	12.335         	6.292
MS.289         	12.312         	6.27
MS.290         	12.287         	6.192
MS.291         	12.262         	6.357
MS.292         	12.238         	6.133
MS.293         	12.212         	5.978
MS.294         	12.19          	6.149
MS.295         	12.165         	5.801
MS.296         	12.14          	5.763
MS.297         	12.115         	5.702
MS.298         	12.092         	5.702
MS.299         	12.068         	5.632
MS.300         	12.042         	5.72
MS.301         	12.02          	5.696
MS.302         	11.995         	5.583
MS.303         	11.972         	5.497
MS.304         	11.947         	5.46
MS.305         	11.922         	5.382
MS.306         	11.9           	5.567
MS.307         	11.875         	5.368
MS.308         	11.852         	5.313
MS.309         	11.827         	5.364
MS.310         	11.805         	5.269
MS.311         	11.782         	5.197
MS.312         	11.757         	5.138
MS.313         	11.735         	5.142
MS.314         	11.71          	5.247
MS.315         	11.688         	5.193
MS.316         	11.665         	5.168
MS.317         	11.64          	5.007
MS.318         	11.617         	5.027
MS.319         	11.595         	5.027
MS.320         	11.57          	5.102
MS.321         	11.547         	5.029
MS.322         	11.525         	4.935
MS.323         	11.502         	4.911
MS.324         	11.48          	4.904
MS.325         	11.455         	5.031
MS.326         	11.432         	5.017
MS.327         	11.41          	4.669
MS.328         	11.387         	4.806
MS.329         	11.365         	4.715
MS.330         	11.342         	4.635
MS.331         	11.32          	4.677
MS.332         	11.297         	4.618
MS.333         	11.275         	4.689
MS.334         	11.252         	4.675
MS.335         	11.23          	4.61
MS.336         	11.207         	4.433
MS.337         	11.185         	4.375
MS.338         	11.162         	4.504
MS.339         	11.14          	4.387
MS.340         	11.117         	4.224
MS.341         	11.095         	4.274
MS.342         	11.073         	4.177
MS.343         	11.05          	4.026
MS.344         	11.03          	4.161
MS.345         	11.007         	4.21
MS.346         	10.985         	3.811
MS.347         	10.962         	4.067
MS.348         	10.94          	3.801
MS.349         	10.92          	4.195
MS.350         	10.898         	3.885
MS.351         	10.875         	3.591
MS.352         	10.855         	3.883
MS.353         	10.832         	3.652
MS.354         	10.81          	3.841
MS.355         	10.79          	3.702
MS.356         	10.767         	3.762
MS.357         	10.745         	3.529
MS.358         	10.725         	3.317
MS.359         	10.702         	3.533
MS.360         	10.682         	3.541
MS.361         	10.66          	3.344
MS.362         	10.64          	3.462
MS.363         	10.617         	3.374
MS.364         	10.597         	3.249
MS.365         	10.575         	3.158
MS.366         	10.555         	3.194
MS.367         	10.532         	3.11
MS.368         	10.512         	3.374
MS.369         	10.49          	3.194
MS.370         	10.47          	3.029
MS.371         	10.45          	3.092
MS.372         	10.427         	2.955
MS.373         	10.407         	2.963
MS.374         	10.387         	2.993
MS.375         	10.365         	2.832
MS.376         	10.345         	2.862
MS.377         	10.325         	2.82
MS.378         	10.305         	2.955
MS.379         	10.282         	2.735
MS.380         	10.262         	2.663
MS.381         	10.242         	2.588
MS.382         	10.222         	2.594
MS.383         	10.202         	2.568
MS.384         	10.18          	2.467
MS.385         	10.16          	2.49
MS.386         	10.14          	2.415
MS.387         	10.12          	2.344
MS.388         	10.1           	2.292
MS.389         	10.08          	2.399
MS.390         	10.06          	2.389
MS.391         	10.04          	2.214
MS.392         	10.02          	2.417
MS.393         	10             	2.107
MS.394         	9.98           	1.895
MS.395         	9.96           	2.113
MS.396         	9.94           	2.028
MS.397         	9.92           	2.137
MS.398         	9.9            	1.883
MS.399         	9.88           	1.799
MS.400         	9.86           	1.801
MS.401         	9.84           	1.853
MS.402         	9.82           	1.698
MS.403         	9.802          	1.654
MS.404         	9.782          	1.785
MS.405         	9.762          	1.527
MS.406         	9.742          	1.619
MS.407         	9.722          	1.422
MS.408         	9.705          	1.549
MS.409         	9.685          	1.529
MS.410         	9.665          	1.454
MS.411         	9.645          	1.392
MS.412         	9.627          	1.44
MS.413         	9.608          	1.4
MS.414         	9.587          	1.368
MS.415         	9.57           	1.229
MS.416         	9.55           	1.301
MS.417         	9.53           	1.219
MS.418         	9.512          	1.206
MS.419         	9.492          	1.186
MS.420         	9.472          	1.182
MS.421         	9.455          	1.215
MS.422         	9.435          	1.144
MS.423         	9.417          	1.168
MS.424         	9.398          	1.102
MS.425         	9.38           	1.128
MS.426         	9.36           	1.176
MS.427         	9.342          	1.068
MS.428         	9.323          	1.102
MS.429         	9.305          	0.977
MS.430         	9.285          	0.961
MS.431         	9.267          	1.057
MS.432         	9.25           	0.882
MS.433         	9.23           	1.041
MS.434         	9.212          	0.967
MS.435         	9.193          	0.888
MS.436         	9.175          	0.892
MS.437         	9.158          	0.852
MS.438         	9.137          	0.812
MS.439         	9.12           	0.765
MS.440         	9.102          	0.814
MS.441         	9.085          	0.929
MS.442         	9.065          	0.755
MS.443         	9.047          	0.826
MS.444         	9.03           	0.61
MS.445         	9.012          	0.818
MS.446         	8.992          	0.798
MS.447         	8.975          	0.632
MS.448         	8.957          	0.634
MS.449         	8.94           	0.745
MS.450         	8.922          	0.59
MS.451         	8.905          	0.584
MS.452         	8.887          	0.489
MS.453         	8.867          	0.6
MS.454         	8.85           	0.655
MS.455         	8.832          	0.576
MS.456         	8.815          	0.584
MS.457         	8.797          	0.522
MS.458         	8.78           	0.562
MS.459         	8.762          	0.59
MS.460         	8.745          	0.55
MS.461         	8.727          	0.423
MS.462         	8.71           	0.536
MS.463         	8.693          	0.568
MS.464         	8.675          	0.5
MS.465         	8.658          	0.411
MS.466         	8.64           	0.383
MS.467         	8.622          	0.514
MS.468         	8.608          	0.542
MS.469         	8.59           	0.53
MS.470         	8.573          	0.431
MS.471         	8.555          	0.471
MS.472         	8.537          	0.463
MS.473         	8.52           	0.489
MS.474         	8.505          	0.375
MS.475         	8.488          	0.369
MS.476         	8.47           	0.391
MS.477         	8.452          	0.375
MS.478         	8.435          	0.286
MS.479         	8.42           	0.395
MS.480         	8.403          	0.304
MS.481         	8.385          	0.407
MS.482         	8.37           	0.399
MS.483         	8.352          	0.435
MS.484         	8.335          	0.187
MS.485         	8.32           	0.288
MS.486         	8.302          	0.262
MS.487         	8.285          	0.205
MS.488         	8.27           	0.292
MS.489         	8.252          	0.3
MS.490         	8.235          	0.264
MS.491         	8.22           	0.242
MS.492         	8.202          	0.252
MS.493         	8.188          	0.185
MS.494         	8.17           	0.238
MS.495         	8.155          	0.214
MS.496         	8.137          	0.125
