File:              	C:\Qtrac\Data\Daniel M Sørensen\MScan multicentre study\Data from centres\Oslo\Processed data\SZC00611C (2).QZD
Name:              	NO.OSL.NC.16.2
Protocol:          	MSCAN-R2
Date:              	11/6/20
Start time:        	15:49:49
Age:               	64
Sex:               	M
Temperature:       	33.6
S/R sites:         	TA
NC/disease:        	NC16
Operator:          	SZ
Comments:          	Test2
M-SCAN DATA (9.7-2.4m)
Scanpts: 7, 14, 751, 771
Stim. (mA)     	Amp. (mV)
MS.1           	28             	10.725
MS.2           	28             	10.764
MS.3           	28             	10.733
MS.4           	28             	10.657
MS.5           	28             	10.673
MS.6           	28             	10.707
MS.7           	28             	10.675
MS.8           	28             	10.637
MS.9           	28             	10.695
MS.10          	28             	10.665
MS.11          	28             	10.669
MS.12          	28             	10.713
MS.13          	28             	10.677
MS.14          	28             	10.669
MS.15          	28             	10.707
MS.16          	28             	10.705
MS.17          	28             	10.671
MS.18          	28             	10.653
MS.19          	28             	10.673
MS.20          	28             	10.721
MS.21          	28             	10.661
MS.22          	28             	10.697
MS.23          	28             	10.794
MS.24          	27.887         	10.776
MS.25          	27.832         	10.697
MS.26          	27.778         	10.679
MS.27          	27.722         	10.703
MS.28          	27.665         	10.695
MS.29          	27.61          	10.645
MS.30          	27.555         	10.665
MS.31          	27.5           	10.677
MS.32          	27.445         	10.659
MS.33          	27.39          	10.663
MS.34          	27.335         	10.667
MS.35          	27.282         	10.655
MS.36          	27.227         	10.665
MS.37          	27.172         	10.663
MS.38          	27.118         	10.621
MS.39          	27.065         	10.655
MS.40          	27.01          	10.663
MS.41          	26.955         	10.667
MS.42          	26.903         	10.627
MS.43          	26.847         	10.619
MS.44          	26.795         	10.623
MS.45          	26.74          	10.625
MS.46          	26.688         	10.649
MS.47          	26.635         	10.643
MS.48          	26.58          	10.59
MS.49          	26.528         	10.649
MS.50          	26.475         	10.609
MS.51          	26.422         	10.582
MS.52          	26.37          	10.609
MS.53          	26.317         	10.619
MS.54          	26.265         	10.643
MS.55          	26.212         	10.613
MS.56          	26.16          	10.615
MS.57          	26.108         	10.552
MS.58          	26.055         	10.599
MS.59          	26.002         	10.56
MS.60          	25.95          	10.536
MS.61          	25.9           	10.609
MS.62          	25.847         	10.609
MS.63          	25.795         	10.599
MS.64          	25.745         	10.55
MS.65          	25.692         	10.558
MS.66          	25.64          	10.679
MS.67          	25.59          	10.558
MS.68          	25.54          	10.542
MS.69          	25.487         	10.544
MS.70          	25.438         	10.574
MS.71          	25.385         	10.578
MS.72          	25.335         	10.514
MS.73          	25.285         	10.508
MS.74          	25.235         	10.564
MS.75          	25.185         	10.518
MS.76          	25.132         	10.518
MS.77          	25.082         	10.586
MS.78          	25.032         	10.528
MS.79          	24.983         	10.53
MS.80          	24.932         	10.546
MS.81          	24.882         	10.508
MS.82          	24.832         	10.58
MS.83          	24.785         	10.504
MS.84          	24.735         	10.496
MS.85          	24.685         	10.504
MS.86          	24.635         	10.512
MS.87          	24.587         	10.532
MS.88          	24.538         	10.522
MS.89          	24.487         	10.536
MS.90          	24.44          	10.518
MS.91          	24.39          	10.506
MS.92          	24.342         	10.532
MS.93          	24.292         	10.498
MS.94          	24.245         	10.524
MS.95          	24.198         	10.498
MS.96          	24.147         	10.494
MS.97          	24.1           	10.502
MS.98          	24.052         	10.512
MS.99          	24.002         	10.508
MS.100         	23.955         	10.453
MS.101         	23.907         	10.476
MS.102         	23.86          	10.464
MS.103         	23.812         	10.488
MS.104         	23.765         	10.466
MS.105         	23.717         	10.49
MS.106         	23.67          	10.482
MS.107         	23.622         	10.468
MS.108         	23.575         	10.435
MS.109         	23.528         	10.429
MS.110         	23.48          	10.466
MS.111         	23.435         	10.474
MS.112         	23.387         	10.48
MS.113         	23.34          	10.443
MS.114         	23.295         	10.399
MS.115         	23.247         	10.361
MS.116         	23.2           	10.335
MS.117         	23.155         	10.349
MS.118         	23.108         	10.383
MS.119         	23.062         	10.359
MS.120         	23.017         	10.377
MS.121         	22.97          	10.294
MS.122         	22.925         	10.387
MS.123         	22.877         	10.308
MS.124         	22.832         	10.306
MS.125         	22.788         	10.367
MS.126         	22.743         	10.28
MS.127         	22.698         	10.288
MS.128         	22.65          	10.28
MS.129         	22.605         	10.264
MS.130         	22.56          	10.266
MS.131         	22.515         	10.242
MS.132         	22.47          	10.286
MS.133         	22.425         	10.232
MS.134         	22.38          	10.276
MS.135         	22.335         	10.248
MS.136         	22.292         	10.206
MS.137         	22.247         	10.22
MS.138         	22.202         	10.266
MS.139         	22.157         	10.186
MS.140         	22.115         	10.161
MS.141         	22.07          	10.161
MS.142         	22.025         	10.21
MS.143         	21.983         	10.18
MS.144         	21.938         	10.18
MS.145         	21.892         	10.188
MS.146         	21.85          	10.145
MS.147         	21.807         	10.113
MS.148         	21.762         	10.165
MS.149         	21.72          	10.184
MS.150         	21.675         	10.172
MS.151         	21.632         	10.071
MS.152         	21.59          	10.137
MS.153         	21.545         	10.143
MS.154         	21.502         	10.137
MS.155         	21.46          	10.097
MS.156         	21.417         	10.133
MS.157         	21.375         	10.139
MS.158         	21.333         	10.087
MS.159         	21.29          	10.143
MS.160         	21.247         	10.093
MS.161         	21.205         	10.105
MS.162         	21.163         	10.109
MS.163         	21.12          	10.041
MS.164         	21.077         	10.071
MS.165         	21.035         	10.029
MS.166         	20.993         	10.061
MS.167         	20.952         	10.051
MS.168         	20.91          	10.077
MS.169         	20.868         	10.02
MS.170         	20.825         	10.047
MS.171         	20.785         	9.952
MS.172         	20.743         	9.948
MS.173         	20.702         	9.908
MS.174         	20.66          	9.89
MS.175         	20.62          	9.954
MS.176         	20.577         	9.99
MS.177         	20.538         	9.964
MS.178         	20.495         	9.9
MS.179         	20.455         	9.765
MS.180         	20.413         	9.805
MS.181         	20.372         	9.728
MS.182         	20.333         	9.885
MS.183         	20.292         	9.803
MS.184         	20.25          	9.767
MS.185         	20.21          	9.632
MS.186         	20.17          	9.843
MS.187         	20.13          	9.7
MS.188         	20.09          	9.716
MS.189         	20.05          	9.847
MS.190         	20.01          	9.602
MS.191         	19.97          	9.541
MS.192         	19.93          	9.499
MS.193         	19.89          	9.63
MS.194         	19.85          	9.505
MS.195         	19.81          	9.571
MS.196         	19.77          	9.583
MS.197         	19.73          	9.396
MS.198         	19.692         	9.529
MS.199         	19.653         	9.531
MS.200         	19.612         	9.376
MS.201         	19.575         	9.406
MS.202         	19.535         	9.336
MS.203         	19.495         	9.473
MS.204         	19.458         	9.45
MS.205         	19.417         	9.148
MS.206         	19.38          	9.199
MS.207         	19.34          	9.271
MS.208         	19.302         	9.166
MS.209         	19.262         	9.253
MS.210         	19.225         	9.154
MS.211         	19.188         	9.394
MS.212         	19.147         	9.134
MS.213         	19.11          	9.076
MS.214         	19.073         	9.001
MS.215         	19.032         	8.943
MS.216         	18.995         	8.991
MS.217         	18.958         	9.181
MS.218         	18.92          	8.969
MS.219         	18.882         	9.017
MS.220         	18.845         	8.931
MS.221         	18.807         	8.927
MS.222         	18.77          	9.029
MS.223         	18.733         	8.925
MS.224         	18.695         	8.929
MS.225         	18.657         	8.85
MS.226         	18.62          	8.888
MS.227         	18.583         	8.816
MS.228         	18.545         	8.852
MS.229         	18.507         	8.878
MS.230         	18.47          	8.955
MS.231         	18.435         	8.8
MS.232         	18.397         	8.86
MS.233         	18.36          	8.752
MS.234         	18.325         	8.782
MS.235         	18.288         	8.635
MS.236         	18.25          	8.741
MS.237         	18.215         	8.689
MS.238         	18.177         	8.697
MS.239         	18.142         	8.655
MS.240         	18.105         	8.719
MS.241         	18.07          	8.683
MS.242         	18.032         	8.675
MS.243         	17.997         	8.731
MS.244         	17.96          	8.631
MS.245         	17.925         	8.627
MS.246         	17.89          	8.643
MS.247         	17.852         	8.607
MS.248         	17.817         	8.615
MS.249         	17.782         	8.647
MS.250         	17.747         	8.57
MS.251         	17.712         	8.647
MS.252         	17.675         	8.727
MS.253         	17.64          	8.588
MS.254         	17.605         	8.566
MS.255         	17.57          	8.59
MS.256         	17.535         	8.5
MS.257         	17.5           	8.49
MS.258         	17.465         	8.49
MS.259         	17.43          	8.459
MS.260         	17.395         	8.419
MS.261         	17.36          	8.397
MS.262         	17.325         	8.339
MS.263         	17.292         	8.437
MS.264         	17.257         	8.411
MS.265         	17.222         	8.337
MS.266         	17.188         	8.32
MS.267         	17.153         	8.367
MS.268         	17.12          	8.28
MS.269         	17.085         	8.28
MS.270         	17.05          	8.21
MS.271         	17.017         	8.276
MS.272         	16.983         	8.244
MS.273         	16.95          	8.204
MS.274         	16.915         	8.222
MS.275         	16.88          	8.081
MS.276         	16.847         	8.254
MS.277         	16.815         	8.266
MS.278         	16.78          	8.143
MS.279         	16.747         	8.091
MS.280         	16.712         	8.204
MS.281         	16.68          	8.077
MS.282         	16.647         	8.105
MS.283         	16.612         	7.906
MS.284         	16.58          	8.041
MS.285         	16.547         	8.022
MS.286         	16.515         	7.954
MS.287         	16.48          	8.045
MS.288         	16.448         	7.992
MS.289         	16.415         	7.9
MS.290         	16.382         	7.869
MS.291         	16.35          	7.847
MS.292         	16.317         	7.831
MS.293         	16.285         	7.827
MS.294         	16.253         	7.904
MS.295         	16.22          	7.805
MS.296         	16.188         	7.71
MS.297         	16.155         	7.755
MS.298         	16.122         	7.789
MS.299         	16.09          	7.654
MS.300         	16.057         	7.575
MS.301         	16.025         	7.674
MS.302         	15.995         	7.662
MS.303         	15.962         	7.626
MS.304         	15.93          	7.43
MS.305         	15.898         	7.366
MS.306         	15.867         	7.426
MS.307         	15.835         	7.396
MS.308         	15.802         	7.41
MS.309         	15.773         	7.44
MS.310         	15.74          	7.338
MS.311         	15.707         	7.277
MS.312         	15.677         	7.201
MS.313         	15.645         	7.255
MS.314         	15.615         	7.044
MS.315         	15.582         	7.098
MS.316         	15.552         	7.14
MS.317         	15.52          	7.082
MS.318         	15.49          	7.068
MS.319         	15.46          	6.973
MS.320         	15.427         	6.903
MS.321         	15.398         	6.905
MS.322         	15.367         	6.856
MS.323         	15.335         	6.796
MS.324         	15.305         	6.88
MS.325         	15.275         	6.933
MS.326         	15.245         	6.78
MS.327         	15.215         	6.673
MS.328         	15.182         	6.729
MS.329         	15.152         	6.683
MS.330         	15.122         	6.655
MS.331         	15.092         	6.625
MS.332         	15.062         	6.602
MS.333         	15.032         	6.721
MS.334         	15.002         	6.647
MS.335         	14.972         	6.28
MS.336         	14.943         	6.397
MS.337         	14.912         	6.53
MS.338         	14.882         	6.441
MS.339         	14.852         	6.385
MS.340         	14.822         	6.304
MS.341         	14.792         	6.433
MS.342         	14.765         	6.331
MS.343         	14.735         	6.252
MS.344         	14.705         	6.312
MS.345         	14.675         	6.105
MS.346         	14.648         	6.137
MS.347         	14.617         	6.278
MS.348         	14.587         	6.196
MS.349         	14.56          	6.006
MS.350         	14.53          	6.25
MS.351         	14.5           	5.998
MS.352         	14.472         	5.978
MS.353         	14.443         	5.853
MS.354         	14.415         	6.109
MS.355         	14.385         	6.026
MS.356         	14.358         	5.96
MS.357         	14.327         	5.797
MS.358         	14.3           	5.827
MS.359         	14.27          	5.895
MS.360         	14.242         	5.835
MS.361         	14.212         	5.887
MS.362         	14.185         	5.859
MS.363         	14.157         	5.652
MS.364         	14.127         	5.706
MS.365         	14.1           	5.777
MS.366         	14.072         	5.75
MS.367         	14.045         	5.658
MS.368         	14.015         	5.599
MS.369         	13.987         	5.634
MS.370         	13.96          	5.585
MS.371         	13.932         	5.418
MS.372         	13.905         	5.406
MS.373         	13.877         	5.45
MS.374         	13.85          	5.408
MS.375         	13.82          	5.338
MS.376         	13.792         	5.259
MS.377         	13.765         	5.327
MS.378         	13.737         	5.35
MS.379         	13.71          	5.283
MS.380         	13.682         	5.329
MS.381         	13.657         	5.249
MS.382         	13.63          	5.229
MS.383         	13.602         	5.247
MS.384         	13.575         	5.072
MS.385         	13.547         	5.106
MS.386         	13.52          	5.134
MS.387         	13.492         	5.054
MS.388         	13.467         	4.955
MS.389         	13.44          	5.013
MS.390         	13.412         	5.118
MS.391         	13.385         	4.951
MS.392         	13.36          	4.931
MS.393         	13.332         	5.003
MS.394         	13.305         	4.923
MS.395         	13.28          	4.929
MS.396         	13.252         	4.898
MS.397         	13.225         	4.808
MS.398         	13.2           	4.794
MS.399         	13.172         	4.83
MS.400         	13.148         	4.79
MS.401         	13.12          	4.717
MS.402         	13.095         	4.717
MS.403         	13.068         	4.733
MS.404         	13.042         	4.639
MS.405         	13.017         	4.604
MS.406         	12.99          	4.52
MS.407         	12.965         	4.669
MS.408         	12.938         	4.479
MS.409         	12.912         	4.435
MS.410         	12.887         	4.59
MS.411         	12.86          	4.349
MS.412         	12.835         	4.441
MS.413         	12.81          	4.236
MS.414         	12.785         	4.236
MS.415         	12.757         	4.357
MS.416         	12.733         	4.177
MS.417         	12.707         	4.3
MS.418         	12.682         	4.189
MS.419         	12.657         	4.109
MS.420         	12.632         	4.268
MS.421         	12.608         	4.091
MS.422         	12.58          	4.107
MS.423         	12.555         	4.05
MS.424         	12.53          	4.052
MS.425         	12.505         	4.024
MS.426         	12.48          	3.835
MS.427         	12.455         	3.843
MS.428         	12.43          	3.905
MS.429         	12.405         	3.978
MS.430         	12.382         	3.859
MS.431         	12.358         	3.815
MS.432         	12.332         	3.891
MS.433         	12.307         	3.746
MS.434         	12.282         	3.879
MS.435         	12.257         	3.861
MS.436         	12.235         	3.722
MS.437         	12.21          	3.698
MS.438         	12.185         	3.567
MS.439         	12.16          	3.625
MS.440         	12.137         	3.678
MS.441         	12.113         	3.666
MS.442         	12.087         	3.603
MS.443         	12.062         	3.559
MS.444         	12.04          	3.442
MS.445         	12.015         	3.541
MS.446         	11.992         	3.408
MS.447         	11.967         	3.384
MS.448         	11.943         	3.269
MS.449         	11.92          	3.478
MS.450         	11.895         	3.255
MS.451         	11.872         	3.311
MS.452         	11.847         	3.305
MS.453         	11.825         	3.337
MS.454         	11.8           	3.104
MS.455         	11.778         	3.295
MS.456         	11.755         	3.178
MS.457         	11.73          	3.279
MS.458         	11.707         	3.122
MS.459         	11.685         	3.188
MS.460         	11.66          	2.979
MS.461         	11.637         	3.013
MS.462         	11.615         	3.074
MS.463         	11.59          	3.072
MS.464         	11.568         	2.999
MS.465         	11.545         	2.689
MS.466         	11.523         	3.035
MS.467         	11.497         	2.941
MS.468         	11.475         	3.041
MS.469         	11.452         	2.981
MS.470         	11.43          	2.844
MS.471         	11.407         	2.898
MS.472         	11.385         	2.882
MS.473         	11.36          	2.786
MS.474         	11.337         	2.838
MS.475         	11.315         	2.8
MS.476         	11.292         	2.832
MS.477         	11.27          	2.679
MS.478         	11.247         	2.828
MS.479         	11.225         	2.5
MS.480         	11.202         	2.508
MS.481         	11.18          	2.518
MS.482         	11.157         	2.558
MS.483         	11.135         	2.538
MS.484         	11.115         	2.552
MS.485         	11.092         	2.546
MS.486         	11.07          	2.421
MS.487         	11.047         	2.365
MS.488         	11.025         	2.397
MS.489         	11.002         	2.381
MS.490         	10.983         	2.256
MS.491         	10.96          	2.328
MS.492         	10.938         	2.534
MS.493         	10.915         	2.197
MS.494         	10.895         	2.288
MS.495         	10.872         	2.308
MS.496         	10.85          	2.216
MS.497         	10.827         	2.171
