File:              	C:\Qtrac\Data\Daniel M Sørensen\MScan multicentre study\Data from centres\Oslo\Processed data\SZC00707C.QZD
Name:              	NO.OSL.NC.22.2
Protocol:          	MSCAN-R2
Date:              	7/7/20
Start time:        	17:13:02
Age:               	23
Sex:               	F
Temperature:       	31.4
S/R sites:         	ADM
NC/disease:        	NC22
Operator:          	SZ
Comments:          	Test2
M-SCAN DATA (8.4-2.1m)
Scanpts: 81, 110, 650, 672
Stim. (mA)     	Amp. (mV)
MS.1           	12             	10.373
MS.2           	12             	10.363
MS.3           	12             	10.367
MS.4           	12             	10.359
MS.5           	12             	10.355
MS.6           	12             	10.343
MS.7           	12             	10.327
MS.8           	12             	10.357
MS.9           	12             	10.339
MS.10          	12             	10.329
MS.11          	12             	10.315
MS.12          	12             	10.315
MS.13          	12             	10.292
MS.14          	12             	10.302
MS.15          	12             	10.317
MS.16          	12             	10.308
MS.17          	12             	10.262
MS.18          	12             	10.304
MS.19          	12             	10.29
MS.20          	12             	10.298
MS.21          	12             	10.282
MS.22          	12             	10.288
MS.23          	12             	10.312
MS.24          	11.952         	10.284
MS.25          	11.927         	10.28
MS.26          	11.905         	10.28
MS.27          	11.88          	10.294
MS.28          	11.858         	10.266
MS.29          	11.832         	10.278
MS.30          	11.81          	10.278
MS.31          	11.785         	10.246
MS.32          	11.762         	10.264
MS.33          	11.74          	10.27
MS.34          	11.715         	10.284
MS.35          	11.693         	10.276
MS.36          	11.667         	10.262
MS.37          	11.645         	10.26
MS.38          	11.622         	10.264
MS.39          	11.6           	10.266
MS.40          	11.575         	10.262
MS.41          	11.552         	10.252
MS.42          	11.53          	10.268
MS.43          	11.507         	10.266
MS.44          	11.483         	10.268
MS.45          	11.46          	10.266
MS.46          	11.438         	10.27
MS.47          	11.415         	10.264
MS.48          	11.392         	10.258
MS.49          	11.37          	10.254
MS.50          	11.347         	10.268
MS.51          	11.325         	10.26
MS.52          	11.3           	10.264
MS.53          	11.278         	10.246
MS.54          	11.255         	10.276
MS.55          	11.233         	10.266
MS.56          	11.21          	10.266
MS.57          	11.188         	10.25
MS.58          	11.167         	10.25
MS.59          	11.145         	10.248
MS.60          	11.122         	10.258
MS.61          	11.1           	10.256
MS.62          	11.077         	10.238
MS.63          	11.055         	10.23
MS.64          	11.032         	10.254
MS.65          	11.01          	10.272
MS.66          	10.99          	10.26
MS.67          	10.967         	10.22
MS.68          	10.945         	10.24
MS.69          	10.922         	10.242
MS.70          	10.903         	10.22
MS.71          	10.88          	10.232
MS.72          	10.858         	10.228
MS.73          	10.837         	10.24
MS.74          	10.815         	10.208
MS.75          	10.792         	10.212
MS.76          	10.773         	10.2
MS.77          	10.75          	10.218
MS.78          	10.727         	10.222
MS.79          	10.707         	10.208
MS.80          	10.685         	10.228
MS.81          	10.665         	10.212
MS.82          	10.642         	10.238
MS.83          	10.622         	10.224
MS.84          	10.6           	10.224
MS.85          	10.58          	10.208
MS.86          	10.557         	10.196
MS.87          	10.537         	10.21
MS.88          	10.515         	10.212
MS.89          	10.495         	10.196
MS.90          	10.475         	10.194
MS.91          	10.452         	10.19
MS.92          	10.432         	10.204
MS.93          	10.412         	10.216
MS.94          	10.39          	10.222
MS.95          	10.37          	10.178
MS.96          	10.35          	10.188
MS.97          	10.327         	10.216
MS.98          	10.307         	10.224
MS.99          	10.287         	10.186
MS.100         	10.267         	10.208
MS.101         	10.245         	10.19
MS.102         	10.225         	10.172
MS.103         	10.205         	10.19
MS.104         	10.185         	10.192
MS.105         	10.165         	10.174
MS.106         	10.145         	10.157
MS.107         	10.125         	10.212
MS.108         	10.102         	10.216
MS.109         	10.082         	10.182
MS.110         	10.062         	10.192
MS.111         	10.042         	10.167
MS.112         	10.023         	10.172
MS.113         	10.002         	10.172
MS.114         	9.983          	10.182
MS.115         	9.962          	10.188
MS.116         	9.943          	10.18
MS.117         	9.922          	10.194
MS.118         	9.903          	10.174
MS.119         	9.885          	10.184
MS.120         	9.865          	10.169
MS.121         	9.845          	10.149
MS.122         	9.825          	10.159
MS.123         	9.805          	10.18
MS.124         	9.785          	10.172
MS.125         	9.765          	10.192
MS.126         	9.747          	10.172
MS.127         	9.727          	10.155
MS.128         	9.707          	10.101
MS.129         	9.688          	10.093
MS.130         	9.67           	10.073
MS.131         	9.65           	10.167
MS.132         	9.63           	10.067
MS.133         	9.61           	10.149
MS.134         	9.592          	10.157
MS.135         	9.573          	10.073
MS.136         	9.552          	10.065
MS.137         	9.535          	10.137
MS.138         	9.515          	10.083
MS.139         	9.497          	10.041
MS.140         	9.477          	10.147
MS.141         	9.457          	10.075
MS.142         	9.44           	10.087
MS.143         	9.42           	10.157
MS.144         	9.403          	10.051
MS.145         	9.382          	10.075
MS.146         	9.365          	10.073
MS.147         	9.345          	10.087
MS.148         	9.327          	10.041
MS.149         	9.307          	10.029
MS.150         	9.29           	10.051
MS.151         	9.27           	10.083
MS.152         	9.252          	10.026
MS.153         	9.235          	10.026
MS.154         	9.215          	10.063
MS.155         	9.198          	10.033
MS.156         	9.18           	10.037
MS.157         	9.16           	10.033
MS.158         	9.142          	10.012
MS.159         	9.125          	10.026
MS.160         	9.105          	10.067
MS.161         	9.087          	10.111
MS.162         	9.07           	10.008
MS.163         	9.052          	10.039
MS.164         	9.033          	10.061
MS.165         	9.015          	10.049
MS.166         	8.997          	10.033
MS.167         	8.98           	10.055
MS.168         	8.96           	9.982
MS.169         	8.943          	10.029
MS.170         	8.925          	10.024
MS.171         	8.908          	10.024
MS.172         	8.89           	10.035
MS.173         	8.872          	10.039
MS.174         	8.855          	10.073
MS.175         	8.837          	10.026
MS.176         	8.82           	10.075
MS.177         	8.802          	10.075
MS.178         	8.783          	10.037
MS.179         	8.765          	10.033
MS.180         	8.747          	9.978
MS.181         	8.73           	10.051
MS.182         	8.715          	9.984
MS.183         	8.698          	10.041
MS.184         	8.68           	10.031
MS.185         	8.662          	10.039
MS.186         	8.645          	10.045
MS.187         	8.627          	10.029
MS.188         	8.61           	10.01
MS.189         	8.592          	9.944
MS.190         	8.575          	9.974
MS.191         	8.557          	9.928
MS.192         	8.54           	9.94
MS.193         	8.525          	9.982
MS.194         	8.507          	9.978
MS.195         	8.49           	9.93
MS.196         	8.472          	9.992
MS.197         	8.455          	9.918
MS.198         	8.44           	9.912
MS.199         	8.422          	9.952
MS.200         	8.405          	9.906
MS.201         	8.39           	9.914
MS.202         	8.372          	9.93
MS.203         	8.355          	9.95
MS.204         	8.337          	9.95
MS.205         	8.323          	9.914
MS.206         	8.305          	9.898
MS.207         	8.29           	9.918
MS.208         	8.273          	9.888
MS.209         	8.255          	9.938
MS.210         	8.24           	9.906
MS.211         	8.222          	9.932
MS.212         	8.207          	9.916
MS.213         	8.19           	9.948
MS.214         	8.172          	9.956
MS.215         	8.158          	9.928
MS.216         	8.14           	9.865
MS.217         	8.125          	9.879
MS.218         	8.108          	9.865
MS.219         	8.092          	9.896
MS.220         	8.075          	9.843
MS.221         	8.06           	9.591
MS.222         	8.045          	9.827
MS.223         	8.028          	9.809
MS.224         	8.012          	9.581
MS.225         	7.995          	9.839
MS.226         	7.98           	9.799
MS.227         	7.965          	9.493
MS.228         	7.947          	9.573
MS.229         	7.932          	9.853
MS.230         	7.915          	9.565
MS.231         	7.9            	9.565
MS.232         	7.885          	9.593
MS.233         	7.87           	9.557
MS.234         	7.852          	9.589
MS.235         	7.837          	9.815
MS.236         	7.822          	9.563
MS.237         	7.805          	9.587
MS.238         	7.79           	9.569
MS.239         	7.775          	9.879
MS.240         	7.76           	9.583
MS.241         	7.745          	9.531
MS.242         	7.727          	9.608
MS.243         	7.712          	9.426
MS.244         	7.697          	9.614
MS.245         	7.682          	9.577
MS.246         	7.668          	9.559
MS.247         	7.652          	9.469
MS.248         	7.635          	9.438
MS.249         	7.62           	9.606
MS.250         	7.605          	9.577
MS.251         	7.59           	9.436
MS.252         	7.575          	9.489
MS.253         	7.56           	9.471
MS.254         	7.545          	9.688
MS.255         	7.53           	9.39
MS.256         	7.515          	9.311
MS.257         	7.5            	9.38
MS.258         	7.485          	9.467
MS.259         	7.47           	9.384
MS.260         	7.455          	9.396
MS.261         	7.44           	9.454
MS.262         	7.425          	9.34
MS.263         	7.41           	9.295
MS.264         	7.395          	9.368
MS.265         	7.38           	9.382
MS.266         	7.365          	9.326
MS.267         	7.352          	9.382
MS.268         	7.337          	9.315
MS.269         	7.322          	9.191
MS.270         	7.307          	9.207
MS.271         	7.293          	9.172
MS.272         	7.277          	9.277
MS.273         	7.265          	9.318
MS.274         	7.25           	9.209
MS.275         	7.235          	9.219
MS.276         	7.22           	9.362
MS.277         	7.205          	9.227
MS.278         	7.192          	9.136
MS.279         	7.177          	9.193
MS.280         	7.162          	9.263
MS.281         	7.148          	9.285
MS.282         	7.135          	9.029
MS.283         	7.12           	9.263
MS.284         	7.105          	9.098
MS.285         	7.092          	8.975
MS.286         	7.077          	9.13
MS.287         	7.062          	9.203
MS.288         	7.05           	9.044
MS.289         	7.035          	8.981
MS.290         	7.02           	9.078
MS.291         	7.007          	9.044
MS.292         	6.992          	8.949
MS.293         	6.98           	9.017
MS.294         	6.965          	8.848
MS.295         	6.95           	8.895
MS.296         	6.938          	8.882
MS.297         	6.922          	8.84
MS.298         	6.91           	8.697
MS.299         	6.895          	8.814
MS.300         	6.882          	8.917
MS.301         	6.867          	8.804
MS.302         	6.855          	8.693
MS.303         	6.84           	8.786
MS.304         	6.827          	8.818
MS.305         	6.812          	8.85
MS.306         	6.8            	8.607
MS.307         	6.787          	8.705
MS.308         	6.773          	8.756
MS.309         	6.76           	8.697
MS.310         	6.745          	8.711
MS.311         	6.733          	8.691
MS.312         	6.72           	8.586
MS.313         	6.705          	8.554
MS.314         	6.692          	8.506
MS.315         	6.677          	8.576
MS.316         	6.665          	8.57
MS.317         	6.652          	8.548
MS.318         	6.637          	8.286
MS.319         	6.625          	8.56
MS.320         	6.612          	8.329
MS.321         	6.6            	8.224
MS.322         	6.585          	8.329
MS.323         	6.572          	8.296
MS.324         	6.56           	8.351
MS.325         	6.547          	8.163
MS.326         	6.532          	8.214
MS.327         	6.52           	8.049
MS.328         	6.507          	8.045
MS.329         	6.495          	8.242
MS.330         	6.48           	8.097
MS.331         	6.467          	8.041
MS.332         	6.455          	8.01
MS.333         	6.442          	7.992
MS.334         	6.43           	8.149
MS.335         	6.418          	8.069
MS.336         	6.405          	7.992
MS.337         	6.39           	7.914
MS.338         	6.378          	7.998
MS.339         	6.365          	8.02
MS.340         	6.352          	8.016
MS.341         	6.34           	7.805
MS.342         	6.327          	7.875
MS.343         	6.315          	7.879
MS.344         	6.302          	7.944
MS.345         	6.29           	7.777
MS.346         	6.277          	7.922
MS.347         	6.265          	7.825
MS.348         	6.253          	7.779
MS.349         	6.24           	7.791
MS.350         	6.227          	7.674
MS.351         	6.215          	7.69
MS.352         	6.202          	7.722
MS.353         	6.19           	7.632
MS.354         	6.177          	7.821
MS.355         	6.165          	7.742
MS.356         	6.152          	7.708
MS.357         	6.14           	7.609
MS.358         	6.128          	7.523
MS.359         	6.115          	7.674
MS.360         	6.102          	7.654
MS.361         	6.092          	7.489
MS.362         	6.08           	7.599
MS.363         	6.067          	7.448
MS.364         	6.055          	7.269
MS.365         	6.043          	7.191
MS.366         	6.03           	7.469
MS.367         	6.02           	7.021
MS.368         	6.007          	7.293
MS.369         	5.995          	7.291
MS.370         	5.983          	7.293
MS.371         	5.97           	7.166
MS.372         	5.96           	7.271
MS.373         	5.947          	7.172
MS.374         	5.935          	7.136
MS.375         	5.922          	7.219
MS.376         	5.912          	6.886
MS.377         	5.9            	7.14
MS.378         	5.887          	7.054
MS.379         	5.875          	7.007
MS.380         	5.865          	7.08
MS.381         	5.852          	7.015
MS.382         	5.84           	7.058
MS.383         	5.83           	7.044
MS.384         	5.817          	6.782
MS.385         	5.805          	6.705
MS.386         	5.795          	6.985
MS.387         	5.782          	6.703
MS.388         	5.773          	6.619
MS.389         	5.76           	6.653
MS.390         	5.747          	6.711
MS.391         	5.737          	6.627
MS.392         	5.725          	6.606
MS.393         	5.715          	6.502
MS.394         	5.702          	6.637
MS.395         	5.69           	6.661
MS.396         	5.68           	6.6
MS.397         	5.668          	6.486
MS.398         	5.657          	6.399
MS.399         	5.645          	6.53
MS.400         	5.635          	6.564
MS.401         	5.622          	6.467
MS.402         	5.612          	6.393
MS.403         	5.6            	6.435
MS.404         	5.59           	6.415
MS.405         	5.577          	6.463
MS.406         	5.567          	6.316
MS.407         	5.555          	6.242
MS.408         	5.545          	6.244
MS.409         	5.535          	6.363
MS.410         	5.523          	6.32
MS.411         	5.512          	6.256
MS.412         	5.5            	6.337
MS.413         	5.49           	6.264
MS.414         	5.48           	6.139
MS.415         	5.467          	6.089
MS.416         	5.457          	6.228
MS.417         	5.445          	5.809
MS.418         	5.435          	6.069
MS.419         	5.425          	5.962
MS.420         	5.412          	6.057
MS.421         	5.402          	5.924
MS.422         	5.392          	6.04
MS.423         	5.38           	5.758
MS.424         	5.37           	5.797
MS.425         	5.36           	5.585
MS.426         	5.35           	5.589
MS.427         	5.338          	5.462
MS.428         	5.327          	5.72
MS.429         	5.318          	5.622
MS.430         	5.307          	5.197
MS.431         	5.295          	5.007
MS.432         	5.285          	5.311
MS.433         	5.275          	5.092
MS.434         	5.265          	5.311
MS.435         	5.253          	5.078
MS.436         	5.242          	4.874
MS.437         	5.233          	4.753
MS.438         	5.222          	5.058
MS.439         	5.213          	5.168
MS.440         	5.202          	4.844
MS.441         	5.19           	4.757
MS.442         	5.18           	4.884
MS.443         	5.17           	4.741
MS.444         	5.16           	4.445
MS.445         	5.15           	4.633
MS.446         	5.14           	4.361
MS.447         	5.13           	4.417
MS.448         	5.117          	4.159
MS.449         	5.108          	4.274
MS.450         	5.097          	4.272
MS.451         	5.088          	4.467
MS.452         	5.077          	4.453
MS.453         	5.068          	4.391
MS.454         	5.057          	3.966
MS.455         	5.047          	4.004
MS.456         	5.037          	3.905
MS.457         	5.027          	4.181
MS.458         	5.017          	3.901
MS.459         	5.007          	4.004
MS.460         	4.997          	3.883
MS.461         	4.987          	3.71
MS.462         	4.977          	3.7
MS.463         	4.967          	3.623
MS.464         	4.957          	3.652
MS.465         	4.947          	3.67
MS.466         	4.938          	3.69
MS.467         	4.927          	3.573
MS.468         	4.918          	3.569
MS.469         	4.907          	2.917
MS.470         	4.898          	3.565
MS.471         	4.887          	3.619
MS.472         	4.88           	3.388
MS.473         	4.87           	3.283
MS.474         	4.86           	3.194
MS.475         	4.85           	3.257
MS.476         	4.84           	3.182
MS.477         	4.83           	3.096
MS.478         	4.82           	2.929
MS.479         	4.81           	2.816
MS.480         	4.802          	2.755
MS.481         	4.793          	2.757
MS.482         	4.782          	2.87
MS.483         	4.773          	2.673
MS.484         	4.762          	2.435
MS.485         	4.753          	2.447
MS.486         	4.745          	2.626
MS.487         	4.735          	2.195
MS.488         	4.725          	2.405
MS.489         	4.715          	2.379
MS.490         	4.707          	2.357
MS.491         	4.697          	2.516
MS.492         	4.688          	2.524
MS.493         	4.677          	2.014
MS.494         	4.67           	1.891
MS.495         	4.66           	2.085
MS.496         	4.65           	2.081
