File:              	C:\Qtrac\Data\Daniel M Sørensen\MScan multicentre study\Data from centres\Oslo\Processed data\SZC00714E.QZD
Name:              	NO.OSL.NC.24.2
Protocol:          	MSCAN-R2
Date:              	14/7/20
Start time:        	16:57:57
Age:               	24
Sex:               	M
Temperature:       	32.7
S/R sites:         	APB
NC/disease:        	NC24
Operator:          	SZ
Comments:          	Test2
M-SCAN DATA (6.2-2.4m)
Scanpts: 98, 108, 391, 399
Stim. (mA)     	Amp. (mV)
MS.1           	10             	14.125
MS.2           	10             	13.735
MS.3           	10             	14.133
MS.4           	10             	14.369
MS.5           	10             	14.46
MS.6           	10             	14.433
MS.7           	10             	14.502
MS.8           	10             	14.335
MS.9           	10             	14.335
MS.10          	10             	14.375
MS.11          	10             	14.399
MS.12          	10             	14.397
MS.13          	10             	14.333
MS.14          	10             	14.431
MS.15          	10             	14.433
MS.16          	10             	14.49
MS.17          	10             	14.347
MS.18          	10             	14.367
MS.19          	10             	14.381
MS.20          	10             	14.359
MS.21          	10             	14.353
MS.22          	10             	14.359
MS.23          	9.96           	14.476
MS.24          	9.94           	14.431
MS.25          	9.92           	14.444
MS.26          	9.9            	14.423
MS.27          	9.88           	14.462
MS.28          	9.86           	14.705
MS.29          	9.84           	14.681
MS.30          	9.823          	14.677
MS.31          	9.802          	14.695
MS.32          	9.782          	14.581
MS.33          	9.762          	14.685
MS.34          	9.742          	14.615
MS.35          	9.725          	14.629
MS.36          	9.705          	14.309
MS.37          	9.685          	14.452
MS.38          	9.665          	14.564
MS.39          	9.648          	14.583
MS.40          	9.627          	14.574
MS.41          	9.608          	14.589
MS.42          	9.587          	14.607
MS.43          	9.57           	14.603
MS.44          	9.55           	14.615
MS.45          	9.532          	14.629
MS.46          	9.512          	14.609
MS.47          	9.492          	14.681
MS.48          	9.475          	14.711
MS.49          	9.455          	14.683
MS.50          	9.438          	14.752
MS.51          	9.417          	14.685
MS.52          	9.4            	14.699
MS.53          	9.38           	14.744
MS.54          	9.363          	14.709
MS.55          	9.342          	14.663
MS.56          	9.325          	14.701
MS.57          	9.305          	14.744
MS.58          	9.287          	14.796
MS.59          	9.267          	14.808
MS.60          	9.25           	14.77
MS.61          	9.23           	14.768
MS.62          	9.212          	14.792
MS.63          	9.195          	14.818
MS.64          	9.175          	14.774
MS.65          	9.158          	14.867
MS.66          	9.14           	15.003
MS.67          	9.12           	14.967
MS.68          	9.102          	14.927
MS.69          	9.085          	14.846
MS.70          	9.068          	14.881
MS.71          	9.047          	14.883
MS.72          	9.03           	14.903
MS.73          	9.012          	14.792
MS.74          	8.995          	14.862
MS.75          	8.975          	14.949
MS.76          	8.957          	14.901
MS.77          	8.94           	14.8
MS.78          	8.922          	14.832
MS.79          	8.905          	14.881
MS.80          	8.887          	14.881
MS.81          	8.87           	14.867
MS.82          	8.852          	14.965
MS.83          	8.835          	14.925
MS.84          	8.815          	14.957
MS.85          	8.797          	14.995
MS.86          	8.78           	15.008
MS.87          	8.762          	14.979
MS.88          	8.745          	14.935
MS.89          	8.727          	15.01
MS.90          	8.71           	14.961
MS.91          	8.693          	14.965
MS.92          	8.675          	14.961
MS.93          	8.66           	14.997
MS.94          	8.642          	14.993
MS.95          	8.625          	15.003
MS.96          	8.608          	15.036
MS.97          	8.59           	15.04
MS.98          	8.573          	15.012
MS.99          	8.555          	14.955
MS.100         	8.537          	14.931
MS.101         	8.523          	15.001
MS.102         	8.505          	15.038
MS.103         	8.488          	14.955
MS.104         	8.47           	14.967
MS.105         	8.452          	14.985
MS.106         	8.438          	15.078
MS.107         	8.42           	14.993
MS.108         	8.403          	15.034
MS.109         	8.385          	14.977
MS.110         	8.37           	14.997
MS.111         	8.352          	15.026
MS.112         	8.335          	14.909
MS.113         	8.32           	14.945
MS.114         	8.302          	14.995
MS.115         	8.285          	14.985
MS.116         	8.27           	14.991
MS.117         	8.252          	14.967
MS.118         	8.238          	14.911
MS.119         	8.22           	14.953
MS.120         	8.202          	14.909
MS.121         	8.188          	14.885
MS.122         	8.17           	14.979
MS.123         	8.155          	14.977
MS.124         	8.137          	14.917
MS.125         	8.122          	14.937
MS.126         	8.105          	14.822
MS.127         	8.09           	14.965
MS.128         	8.073          	14.778
MS.129         	8.057          	14.899
MS.130         	8.04           	14.762
MS.131         	8.025          	14.758
MS.132         	8.01           	14.784
MS.133         	7.992          	14.796
MS.134         	7.977          	14.808
MS.135         	7.96           	14.75
MS.136         	7.945          	14.766
MS.137         	7.93           	14.776
MS.138         	7.912          	14.766
MS.139         	7.898          	14.814
MS.140         	7.882          	14.842
MS.141         	7.865          	14.78
MS.142         	7.85           	14.794
MS.143         	7.835          	14.786
MS.144         	7.82           	14.724
MS.145         	7.802          	14.742
MS.146         	7.787          	14.752
MS.147         	7.773          	14.754
MS.148         	7.757          	14.717
MS.149         	7.742          	14.758
MS.150         	7.725          	14.685
MS.151         	7.71           	14.693
MS.152         	7.695          	14.732
MS.153         	7.68           	14.635
MS.154         	7.665          	14.756
MS.155         	7.65           	14.355
MS.156         	7.635          	14.284
MS.157         	7.617          	14.341
MS.158         	7.602          	14.089
MS.159         	7.587          	14.401
MS.160         	7.572          	14.49
MS.161         	7.557          	14.256
MS.162         	7.543          	14.264
MS.163         	7.527          	14.059
MS.164         	7.512          	14.103
MS.165         	7.497          	13.88
MS.166         	7.482          	14.182
MS.167         	7.467          	13.974
MS.168         	7.452          	13.908
MS.169         	7.438          	13.332
MS.170         	7.422          	13.551
MS.171         	7.407          	13.727
MS.172         	7.392          	13.539
MS.173         	7.378          	12.983
MS.174         	7.365          	13.217
MS.175         	7.35           	13.09
MS.176         	7.335          	13.34
MS.177         	7.32           	13.058
MS.178         	7.305          	13.251
MS.179         	7.29           	13.005
MS.180         	7.275          	12.832
MS.181         	7.262          	12.862
MS.182         	7.247          	12.945
MS.183         	7.233          	12.919
MS.184         	7.217          	12.554
MS.185         	7.202          	12.778
MS.186         	7.19           	12.826
MS.187         	7.175          	12.431
MS.188         	7.16           	12.518
MS.189         	7.145          	11.932
MS.190         	7.132          	12.029
MS.191         	7.117          	11.88
MS.192         	7.102          	11.547
MS.193         	7.09           	11.93
MS.194         	7.075          	11.678
MS.195         	7.06           	11.253
MS.196         	7.047          	11.402
MS.197         	7.032          	11.048
MS.198         	7.017          	10.405
MS.199         	7.005          	10.864
MS.200         	6.99           	10.528
MS.201         	6.977          	10.695
MS.202         	6.962          	10.462
MS.203         	6.95           	10.256
MS.204         	6.935          	10.57
MS.205         	6.92           	10.051
MS.206         	6.907          	10.25
MS.207         	6.892          	9.898
MS.208         	6.88           	9.485
MS.209         	6.865          	9.843
MS.210         	6.852          	9.362
MS.211         	6.837          	9.487
MS.212         	6.825          	8.931
MS.213         	6.812          	8.733
MS.214         	6.797          	9.124
MS.215         	6.785          	8.814
MS.216         	6.77           	8.514
MS.217         	6.757          	8.067
MS.218         	6.742          	8.552
MS.219         	6.73           	8
MS.220         	6.717          	7.458
MS.221         	6.702          	7.821
MS.222         	6.69           	7.728
MS.223         	6.677          	7.771
MS.224         	6.662          	7.819
MS.225         	6.65           	7.152
MS.226         	6.637          	7.628
MS.227         	6.622          	7.08
MS.228         	6.61           	7.033
MS.229         	6.597          	7.104
MS.230         	6.582          	6.876
MS.231         	6.57           	6.731
MS.232         	6.557          	6.516
MS.233         	6.545          	6.635
MS.234         	6.53           	6.643
MS.235         	6.517          	6.554
MS.236         	6.505          	6.387
MS.237         	6.492          	6.238
MS.238         	6.48           	5.996
MS.239         	6.465          	6.147
MS.240         	6.452          	6.079
MS.241         	6.44           	5.906
MS.242         	6.427          	6.121
MS.243         	6.415          	5.164
MS.244         	6.402          	5.08
MS.245         	6.39           	5.573
MS.246         	6.378          	4.52
MS.247         	6.362          	4.433
MS.248         	6.35           	4.089
MS.249         	6.338          	4.399
MS.250         	6.325          	4.397
MS.251         	6.312          	4.107
MS.252         	6.3            	4.516
MS.253         	6.287          	4.087
MS.254         	6.275          	3.835
MS.255         	6.262          	3.966
MS.256         	6.25           	3.903
MS.257         	6.237          	3.887
MS.258         	6.225          	3.807
MS.259         	6.213          	3.398
MS.260         	6.2            	3.952
MS.261         	6.188          	3.41
MS.262         	6.175          	3.716
MS.263         	6.162          	3.71
MS.264         	6.15           	3.196
MS.265         	6.137          	3.45
MS.266         	6.125          	3.253
MS.267         	6.115          	2.697
MS.268         	6.102          	2.9
MS.269         	6.09           	2.85
MS.270         	6.077          	2.856
MS.271         	6.065          	2.834
MS.272         	6.052          	2.681
MS.273         	6.04           	2.208
MS.274         	6.03           	2.63
MS.275         	6.017          	2.369
MS.276         	6.005          	2.316
MS.277         	5.992          	2.443
MS.278         	5.98           	2.234
MS.279         	5.97           	2.117
MS.280         	5.957          	2.06
MS.281         	5.945          	2.008
MS.282         	5.932          	1.66
MS.283         	5.922          	1.924
MS.284         	5.91           	1.903
MS.285         	5.898          	1.962
MS.286         	5.885          	1.776
MS.287         	5.875          	1.74
MS.288         	5.862          	1.583
MS.289         	5.85           	1.291
MS.290         	5.84           	1.388
MS.291         	5.827          	1.307
MS.292         	5.815          	1.386
MS.293         	5.805          	1.247
MS.294         	5.793          	1.36
MS.295         	5.78           	1.283
MS.296         	5.77           	1.412
MS.297         	5.757          	1.132
MS.298         	5.747          	1.112
MS.299         	5.735          	1.366
MS.300         	5.722          	1.255
MS.301         	5.713          	0.771
MS.302         	5.7            	0.951
MS.303         	5.69           	0.749
MS.304         	5.677          	0.695
MS.305         	5.668          	0.677
MS.306         	5.655          	0.636
MS.307         	5.645          	0.628
MS.308         	5.632          	0.669
MS.309         	5.622          	0.463
MS.310         	5.61           	0.641
MS.311         	5.6            	0.487
MS.312         	5.588          	0.554
MS.313         	5.577          	0.58
MS.314         	5.565          	0.479
MS.315         	5.555          	0.566
MS.316         	5.543          	0.314
MS.317         	5.532          	0.405
MS.318         	5.52           	0.256
MS.319         	5.51           	0.262
MS.320         	5.5            	0.473
MS.321         	5.487          	0.449
MS.322         	5.477          	0.354
MS.323         	5.465          	0.373
MS.324         	5.455          	0.326
MS.325         	5.445          	0.121
MS.326         	5.432          	0.246
MS.327         	5.422          	0.266
MS.328         	5.412          	0.205
MS.329         	5.4            	0.344
MS.330         	5.39           	0.342
MS.331         	5.38           	0.224
MS.332         	5.367          	0.304
MS.333         	5.358          	0.095
MS.334         	5.347          	0.111
MS.335         	5.338          	0.139
MS.336         	5.325          	0.056
MS.337         	5.315          	0.183
MS.338         	5.305          	0.048
MS.339         	5.295          	0.119
MS.340         	5.282          	-0.022
MS.341         	5.273          	0.062
MS.342         	5.262          	0.093
MS.343         	5.253          	0.085
MS.344         	5.242          	0.056
MS.345         	5.23           	0.052
MS.346         	5.22           	0.05
MS.347         	5.21           	0.056
MS.348         	5.2            	0.052
MS.349         	5.19           	0.054
MS.350         	5.18           	0.054
MS.351         	5.168          	0.04
MS.352         	5.157          	0.046
MS.353         	5.148          	0.052
MS.354         	5.137          	0.054
MS.355         	5.128          	0.052
MS.356         	5.117          	0.048
MS.357         	5.108          	0.05
MS.358         	5.097          	0.073
MS.359         	5.088          	0.000
MS.360         	5.077          	0.026
MS.361         	5.065          	0.016
MS.362         	5.055          	0.002
MS.363         	5.045          	0.006
MS.364         	5.035          	0.004
MS.365         	5.025          	0.012
MS.366         	5.015          	0.032
MS.367         	5.005          	0.113
MS.368         	4.995          	-0.014
MS.369         	4.985          	0.000
MS.370         	4.975          	-0.018
MS.371         	4.965          	0.018
MS.372         	4.955          	-0.02
MS.373         	4.945          	-0.022
MS.374         	4.935          	-0.016
MS.375         	4.927          	-0.01
MS.376         	4.918          	-0.018
MS.377         	4.907          	-0.02
MS.378         	4.898          	-0.012
MS.379         	4.887          	-0.014
MS.380         	4.878          	-0.018
MS.381         	4.867          	-0.016
MS.382         	4.858          	0.004
MS.383         	4.847          	-0.016
MS.384         	4.838          	-0.026
MS.385         	4.827          	-0.024
MS.386         	4.82           	-0.008
MS.387         	4.81           	-0.016
MS.388         	4.8            	-0.01
MS.389         	4.79           	-0.012
MS.390         	4.78           	-0.018
MS.391         	4.77           	-0.016
MS.392         	4.762          	-0.014
MS.393         	4.753          	-0.016
MS.394         	4.742          	-0.016
MS.395         	4.733          	-0.02
MS.396         	4.722          	-0.02
MS.397         	4.715          	-0.016
MS.398         	4.705          	-0.028
MS.399         	4.695          	-0.008
MS.400         	4.685          	-0.008
MS.401         	4.677          	-0.01
MS.402         	4.668          	-0.012
MS.403         	4.657          	-0.016
MS.404         	4.648          	-0.014
MS.405         	4.64           	-0.012
MS.406         	4.63           	-0.02
MS.407         	4.62           	-0.024
MS.408         	4.612          	-0.014
MS.409         	4.602          	-0.02
MS.410         	4.592          	-0.016
MS.411         	4.585          	0.000
MS.412         	4.575          	-0.03
MS.413         	4.565          	-0.01
MS.414         	4.557          	-0.014
MS.415         	4.548          	-0.018
MS.416         	4.537          	-0.018
MS.417         	4.53           	-0.02
MS.418         	4.52           	-0.012
MS.419         	4.512          	-0.012
MS.420         	4.503          	-0.004
MS.421         	4.492          	-0.02
MS.422         	4.485          	-0.01
MS.423         	4.475          	-0.01
MS.424         	4.467          	-0.01
MS.425         	4.457          	-0.01
MS.426         	4.447          	-0.018
MS.427         	4.44           	-0.014
MS.428         	4.43           	-0.014
DERIVED EXCITABILITY VARIABLES
Program = QTracP 3/4/2020
Threshold method = 6 (optimised for CAP, using data for present condition only)
SR method = 1 (using actual data values)
6.                 	0.000               	Peak response\(mV)
9.                 	32.7                	Temperature ( C)
17.                	24                  	Age (years)
18.                	1                   	Sex (M=1, F=2)

EXTRA VARIABLES

MScPeak(mV) = 14.35
MScS5(mA) = 5.68
MScS50(mA) = 6.64
MScS95(mA) = 7.42
MScNSteps = 6
MScSteps(%) = 14.6
MScStepMax(%) = 3.1
MScD50 = 32
MScSlope = 8.1
MSFPeakAmp(mV) = 15
MSFNUnits = 162
MSFMeanUnitAmp(uV) = 92.7
MSFHuntTime(m) = 2.13
MSFError(%) = 6.98
MSFNLarge = 58.91
MSFMedianAmp(%) = 0.56
MSFMedianAmp(mV) = 0.0841
MSFHalfAmpAmp(%) = 0.635
MSFHalfAmpAmp(mV) = 0.0954
MSFLargestAmp(%) = 1.69
MSFLargestAmp(mV) = 0.253
MSFMeanRS(%) = 1.99
MSFOpts = 10106121
MScDuration(min) = 3.8
MSFTraces = 302
MSFSizeLimit(uV) = 37.5
MSFLimitType = 1
MSFSmallestAmp(uV) = 38.1

EXTRA WAVEFORMS


!MScan Model
!162
	1	4.99	0.32	2
	2	5.29	0.4	2
	3	5.35	0.38	2
	4	5.42	0.66	2
	5	5.5	0.68	2
	6	5.56	0.69	2
	7	5.59	0.36	2
	8	5.62	0.65	2
	9	5.64	0.46	2
	10	5.65	0.4	2
	11	5.67	0.51	2
	12	5.7	0.63	2
	13	5.72	0.25	2
	14	5.75	0.45	2
	15	5.75	0.3	2
	16	5.77	0.77	2
	17	5.79	0.72	2
	18	5.81	0.64	2
	19	5.83	0.65	2
	20	5.85	0.58	2
	21	5.86	0.28	2
	22	5.88	0.52	2
	23	5.89	0.44	2
	24	5.9	0.32	2
	25	5.91	0.33	2
	26	5.92	0.37	2
	27	5.93	0.35	2
	28	5.94	0.35	2
	29	5.95	0.36	2
	30	5.96	0.37	2
	31	5.97	0.4	2
	32	5.98	0.43	2
	33	5.99	0.35	2
	34	6	0.39	2
	35	6.01	0.42	2
	36	6.02	0.44	2
	37	6.04	0.52	2
	38	6.05	0.62	2
	39	6.07	0.69	2
	40	6.08	0.71	2
	41	6.1	0.65	2
	42	6.11	0.7	2
	43	6.13	0.6	2
	44	6.14	0.67	2
	45	6.16	0.77	2
	46	6.18	0.84	2
	47	6.2	0.82	2
	48	6.22	0.95	2
	49	6.26	1.68	2
	50	6.28	0.99	2
	51	6.3	0.64	2
	52	6.31	1.01	2
	53	6.33	1.19	2
	54	6.34	0.78	2
	55	6.36	0.95	1.6
	56	6.37	0.7	2
	57	6.38	0.49	2
	58	6.39	0.65	1.6
	59	6.4	0.89	2
	60	6.41	0.89	1.9
	61	6.43	1.11	2
	62	6.44	0.79	2
	63	6.45	0.68	2
	64	6.47	0.8	2
	65	6.48	0.92	2
	66	6.49	0.89	2
	67	6.51	1.02	2
	68	6.52	1	2
	69	6.53	0.78	2
	70	6.54	0.62	2
	71	6.55	0.56	2
	72	6.57	0.47	2
	73	6.58	0.45	2
	74	6.59	0.46	2
	75	6.6	0.49	2
	76	6.61	0.52	2
	77	6.62	0.52	2
	78	6.63	0.52	2
	79	6.64	0.51	2
	80	6.65	0.54	2
	81	6.66	0.58	2
	82	6.67	0.6	2
	83	6.68	0.58	2
	84	6.68	0.55	2
	85	6.69	0.54	2
	86	6.7	0.52	2
	87	6.71	0.58	2
	88	6.72	0.59	2
	89	6.73	0.61	2
	90	6.74	0.6	2
