File:              	C:\Qtrac\Data\Daniel M Sørensen\MScan multicentre study\Data from centres\Oslo\Processed data\SZC00520D.QZD
Name:              	NO.OSL.NC.9.2
Protocol:          	MSCAN-R2
Date:              	20/5/20
Start time:        	17:57:19
Age:               	20
Sex:               	F
Temperature:       	35.1
S/R sites:         	TA
NC/disease:        	NC9
Operator:          	SZ
Comments:          	Test2
M-SCAN DATA (10.4-5m)
Scanpts: 27, 30, 548, 555
Stim. (mA)     	Amp. (mV)
MS.1           	24.5           	9.422
MS.2           	24.5           	9.356
MS.3           	24.5           	9.471
MS.4           	24.5           	9.283
MS.5           	24.5           	9.35
MS.6           	24.5           	9.277
MS.7           	24.5           	9.313
MS.8           	24.5           	9.297
MS.9           	24.5           	9.231
MS.10          	24.5           	9.249
MS.11          	24.5           	9.231
MS.12          	24.5           	9.257
MS.13          	24.5           	9.342
MS.14          	24.5           	9.231
MS.15          	24.5           	9.249
MS.16          	24.5           	9.229
MS.17          	24.5           	9.326
MS.18          	24.5           	9.235
MS.19          	24.5           	9.203
MS.20          	24.5           	9.289
MS.21          	24.5           	9.231
MS.22          	24.5           	9.227
MS.23          	24.5           	9.263
MS.24          	24.352         	9.187
MS.25          	24.305         	9.257
MS.26          	24.255         	9.251
MS.27          	24.207         	9.267
MS.28          	24.16          	9.217
MS.29          	24.11          	9.313
MS.30          	24.062         	9.287
MS.31          	24.015         	9.273
MS.32          	23.967         	9.285
MS.33          	23.92          	9.271
MS.34          	23.87          	9.209
MS.35          	23.823         	9.174
MS.36          	23.775         	9.223
MS.37          	23.727         	9.164
MS.38          	23.68          	9.315
MS.39          	23.632         	9.172
MS.40          	23.587         	9.211
MS.41          	23.54          	9.152
MS.42          	23.493         	9.142
MS.43          	23.445         	9.158
MS.44          	23.397         	9.285
MS.45          	23.352         	9.307
MS.46          	23.305         	9.34
MS.47          	23.257         	9.261
MS.48          	23.212         	9.279
MS.49          	23.165         	9.263
MS.50          	23.12          	9.195
MS.51          	23.073         	9.277
MS.52          	23.028         	9.271
MS.53          	22.98          	9.158
MS.54          	22.935         	9.249
MS.55          	22.89          	9.187
MS.56          	22.842         	9.195
MS.57          	22.797         	9.265
MS.58          	22.752         	9.185
MS.59          	22.707         	9.191
MS.60          	22.663         	9.229
MS.61          	22.618         	9.219
MS.62          	22.57          	9.291
MS.63          	22.525         	9.279
MS.64          	22.48          	9.249
MS.65          	22.435         	9.273
MS.66          	22.39          	9.227
MS.67          	22.347         	9.245
MS.68          	22.302         	9.336
MS.69          	22.257         	9.17
MS.70          	22.212         	9.195
MS.71          	22.167         	9.223
MS.72          	22.125         	9.166
MS.73          	22.08          	9.265
MS.74          	22.035         	9.142
MS.75          	21.993         	9.136
MS.76          	21.948         	9.309
MS.77          	21.905         	9.241
MS.78          	21.86          	9.166
MS.79          	21.817         	9.193
MS.80          	21.772         	9.207
MS.81          	21.73          	9.219
MS.82          	21.685         	9.172
MS.83          	21.642         	9.154
MS.84          	21.6           	9.177
MS.85          	21.557         	9.233
MS.86          	21.512         	9.187
MS.87          	21.47          	9.243
MS.88          	21.427         	9.156
MS.89          	21.385         	9.191
MS.90          	21.342         	9.201
MS.91          	21.3           	9.042
MS.92          	21.257         	8.987
MS.93          	21.215         	9.07
MS.94          	21.172         	9.048
MS.95          	21.13          	8.961
MS.96          	21.087         	8.965
MS.97          	21.045         	8.965
MS.98          	21.002         	8.925
MS.99          	20.96          	8.915
MS.100         	20.92          	8.947
MS.101         	20.877         	8.999
MS.102         	20.835         	8.903
MS.103         	20.795         	8.993
MS.104         	20.752         	8.856
MS.105         	20.71          	8.816
MS.106         	20.67          	8.939
MS.107         	20.627         	8.897
MS.108         	20.587         	8.808
MS.109         	20.545         	8.854
MS.110         	20.505         	8.852
MS.111         	20.465         	8.796
MS.112         	20.422         	8.796
MS.113         	20.382         	8.78
MS.114         	20.342         	8.868
MS.115         	20.3           	8.794
MS.116         	20.26          	8.79
MS.117         	20.22          	8.788
MS.118         	20.18          	8.814
MS.119         	20.14          	8.758
MS.120         	20.1           	8.808
MS.121         	20.06          	8.899
MS.122         	20.017         	8.878
MS.123         	19.977         	8.782
MS.124         	19.94          	8.739
MS.125         	19.9           	8.77
MS.126         	19.86          	8.86
MS.127         	19.82          	8.745
MS.128         	19.78          	8.84
MS.129         	19.74          	8.745
MS.130         	19.7           	8.721
MS.131         	19.663         	8.786
MS.132         	19.622         	8.798
MS.133         	19.583         	8.75
MS.134         	19.545         	8.663
MS.135         	19.505         	8.75
MS.136         	19.465         	8.788
MS.137         	19.427         	8.727
MS.138         	19.387         	8.808
MS.139         	19.35          	8.8
MS.140         	19.31          	8.663
MS.141         	19.272         	8.671
MS.142         	19.235         	8.691
MS.143         	19.195         	8.701
MS.144         	19.157         	8.685
MS.145         	19.118         	8.697
MS.146         	19.08          	8.57
MS.147         	19.042         	8.647
MS.148         	19.005         	8.649
MS.149         	18.967         	8.681
MS.150         	18.927         	8.731
MS.151         	18.89          	8.623
MS.152         	18.852         	8.818
MS.153         	18.815         	8.745
MS.154         	18.778         	8.586
MS.155         	18.74          	8.596
MS.156         	18.702         	8.667
MS.157         	18.665         	8.607
MS.158         	18.628         	8.582
MS.159         	18.59          	8.625
MS.160         	18.552         	8.508
MS.161         	18.517         	8.554
MS.162         	18.48          	8.498
MS.163         	18.442         	8.472
MS.164         	18.405         	8.607
MS.165         	18.37          	8.419
MS.166         	18.333         	8.333
MS.167         	18.295         	8.409
MS.168         	18.26          	8.461
MS.169         	18.222         	8.53
MS.170         	18.188         	8.457
MS.171         	18.15          	8.381
MS.172         	18.112         	8.31
MS.173         	18.077         	8.48
MS.174         	18.042         	8.367
MS.175         	18.005         	8.367
MS.176         	17.97          	8.194
MS.177         	17.932         	8.339
MS.178         	17.897         	8.308
MS.179         	17.862         	8.244
MS.180         	17.825         	8.395
MS.181         	17.79          	8.19
MS.182         	17.755         	8.087
MS.183         	17.72          	8.079
MS.184         	17.685         	8.055
MS.185         	17.65          	7.942
MS.186         	17.612         	8.077
MS.187         	17.577         	8.111
MS.188         	17.542         	7.96
MS.189         	17.507         	7.958
MS.190         	17.472         	7.893
MS.191         	17.438         	7.885
MS.192         	17.403         	7.946
MS.193         	17.368         	8.02
MS.194         	17.335         	7.773
MS.195         	17.3           	7.783
MS.196         	17.265         	7.837
MS.197         	17.23          	7.829
MS.198         	17.195         	7.912
MS.199         	17.163         	7.861
MS.200         	17.128         	7.759
MS.201         	17.092         	7.769
MS.202         	17.06          	7.773
MS.203         	17.025         	8.039
MS.204         	16.99          	7.777
MS.205         	16.958         	7.738
MS.206         	16.922         	7.674
MS.207         	16.89          	7.603
MS.208         	16.855         	7.434
MS.209         	16.823         	7.605
MS.210         	16.788         	7.674
MS.211         	16.755         	7.69
MS.212         	16.72          	7.527
MS.213         	16.688         	7.579
MS.214         	16.655         	7.396
MS.215         	16.62          	7.585
MS.216         	16.587         	7.585
MS.217         	16.555         	7.412
MS.218         	16.522         	7.533
MS.219         	16.487         	7.406
MS.220         	16.455         	7.394
MS.221         	16.422         	7.404
MS.222         	16.39          	7.464
MS.223         	16.358         	7.414
MS.224         	16.325         	7.386
MS.225         	16.292         	7.483
MS.226         	16.26          	7.209
MS.227         	16.227         	7.269
MS.228         	16.195         	7.283
MS.229         	16.163         	7.199
MS.230         	16.13          	7.289
MS.231         	16.097         	7.044
MS.232         	16.065         	7.074
MS.233         	16.032         	7.15
MS.234         	16.003         	7.34
MS.235         	15.97          	7.136
MS.236         	15.938         	6.931
MS.237         	15.905         	7.265
MS.238         	15.875         	7.092
MS.239         	15.842         	6.981
MS.240         	15.81          	7.195
MS.241         	15.78          	7.052
MS.242         	15.747         	7.112
MS.243         	15.715         	6.898
MS.244         	15.685         	6.933
MS.245         	15.652         	6.814
MS.246         	15.622         	6.741
MS.247         	15.59          	6.737
MS.248         	15.56          	6.731
MS.249         	15.527         	6.719
MS.250         	15.497         	6.842
MS.251         	15.467         	6.689
MS.252         	15.435         	6.764
MS.253         	15.405         	6.685
MS.254         	15.375         	6.669
MS.255         	15.342         	6.55
MS.256         	15.312         	6.486
MS.257         	15.282         	6.5
MS.258         	15.252         	6.486
MS.259         	15.22          	6.588
MS.260         	15.19          	6.373
MS.261         	15.16          	6.196
MS.262         	15.13          	6.494
MS.263         	15.1           	6.423
MS.264         	15.07          	6.304
MS.265         	15.04          	6.314
MS.266         	15.01          	6.256
MS.267         	14.98          	6.349
MS.268         	14.95          	6.163
MS.269         	14.92          	6.107
MS.270         	14.89          	6.024
MS.271         	14.86          	5.924
MS.272         	14.83          	6.081
MS.273         	14.8           	6.135
MS.274         	14.77          	5.797
MS.275         	14.742         	5.773
MS.276         	14.712         	5.69
MS.277         	14.682         	5.66
MS.278         	14.652         	5.813
MS.279         	14.625         	5.684
MS.280         	14.595         	5.779
MS.281         	14.565         	5.912
MS.282         	14.537         	5.491
MS.283         	14.507         	5.638
MS.284         	14.477         	5.338
MS.285         	14.45          	5.43
MS.286         	14.42          	5.259
MS.287         	14.392         	5.472
MS.288         	14.362         	5.615
MS.289         	14.335         	5.412
MS.290         	14.305         	4.925
MS.291         	14.278         	5.142
MS.292         	14.247         	5.462
MS.293         	14.22          	5.195
MS.294         	14.193         	5.088
MS.295         	14.162         	5.047
MS.296         	14.135         	5.037
MS.297         	14.108         	4.735
MS.298         	14.08          	4.806
MS.299         	14.05          	4.715
MS.300         	14.023         	4.838
MS.301         	13.995         	4.78
MS.302         	13.967         	4.655
MS.303         	13.938         	4.836
MS.304         	13.91          	4.608
MS.305         	13.882         	4.518
MS.306         	13.855         	4.643
MS.307         	13.827         	4.494
MS.308         	13.8           	4.54
MS.309         	13.773         	4.195
MS.310         	13.745         	4.363
MS.311         	13.717         	4.359
MS.312         	13.69          	4.226
MS.313         	13.662         	4.208
MS.314         	13.635         	4.163
MS.315         	13.608         	4.204
MS.316         	13.58          	4.171
MS.317         	13.555         	4.103
MS.318         	13.528         	4.012
MS.319         	13.5           	3.936
MS.320         	13.472         	3.998
MS.321         	13.445         	3.901
MS.322         	13.42          	3.911
MS.323         	13.392         	3.879
MS.324         	13.365         	3.863
MS.325         	13.337         	3.712
MS.326         	13.312         	3.744
MS.327         	13.285         	3.849
MS.328         	13.26          	3.722
MS.329         	13.233         	3.581
MS.330         	13.205         	3.46
MS.331         	13.18          	3.416
MS.332         	13.153         	3.583
MS.333         	13.127         	3.428
MS.334         	13.1           	3.422
MS.335         	13.075         	3.408
MS.336         	13.047         	3.408
MS.337         	13.023         	3.273
MS.338         	12.997         	3.412
MS.339         	12.97          	3.394
MS.340         	12.945         	3.245
MS.341         	12.917         	3.194
MS.342         	12.892         	3.376
MS.343         	12.867         	3.219
MS.344         	12.842         	3.126
MS.345         	12.815         	3.062
MS.346         	12.79          	2.965
MS.347         	12.765         	3.13
MS.348         	12.74          	2.89
MS.349         	12.712         	2.935
MS.350         	12.688         	2.83
MS.351         	12.662         	2.848
MS.352         	12.637         	2.641
MS.353         	12.613         	2.806
MS.354         	12.587         	2.782
MS.355         	12.562         	2.689
MS.356         	12.537         	2.643
MS.357         	12.512         	2.616
MS.358         	12.488         	2.697
MS.359         	12.462         	2.679
MS.360         	12.438         	2.522
MS.361         	12.412         	2.459
MS.362         	12.387         	2.399
MS.363         	12.363         	2.395
MS.364         	12.337         	2.427
MS.365         	12.312         	2.308
MS.366         	12.287         	2.322
MS.367         	12.265         	2.326
MS.368         	12.24          	2.351
MS.369         	12.215         	2.183
MS.370         	12.19          	2.175
MS.371         	12.167         	2.155
MS.372         	12.142         	2.085
MS.373         	12.117         	2.01
MS.374         	12.092         	2.028
MS.375         	12.07          	1.972
MS.376         	12.045         	2.052
MS.377         	12.02          	1.996
MS.378         	11.997         	2.048
MS.379         	11.972         	1.978
MS.380         	11.95          	1.783
MS.381         	11.925         	1.899
MS.382         	11.903         	1.831
MS.383         	11.877         	1.871
MS.384         	11.855         	1.857
MS.385         	11.83          	1.74
MS.386         	11.807         	1.682
MS.387         	11.782         	1.718
MS.388         	11.76          	1.638
MS.389         	11.735         	1.644
MS.390         	11.712         	1.565
MS.391         	11.69          	1.529
MS.392         	11.665         	1.593
MS.393         	11.642         	1.577
MS.394         	11.62          	1.48
MS.395         	11.595         	1.501
MS.396         	11.572         	1.525
MS.397         	11.55          	1.368
MS.398         	11.528         	1.329
MS.399         	11.502         	1.426
MS.400         	11.48          	1.372
MS.401         	11.457         	1.309
MS.402         	11.435         	1.394
MS.403         	11.412         	1.394
MS.404         	11.39          	1.299
MS.405         	11.367         	1.211
MS.406         	11.345         	1.309
MS.407         	11.32          	1.2
MS.408         	11.297         	1.219
MS.409         	11.275         	1.16
MS.410         	11.252         	1.063
MS.411         	11.23          	1.176
MS.412         	11.207         	1.063
MS.413         	11.185         	1.094
MS.414         	11.162         	1.057
MS.415         	11.142         	0.997
MS.416         	11.12          	1.005
MS.417         	11.097         	1.124
MS.418         	11.075         	0.979
MS.419         	11.052         	1.084
MS.420         	11.03          	0.91
MS.421         	11.007         	0.92
MS.422         	10.988         	0.89
MS.423         	10.965         	0.848
MS.424         	10.943         	0.763
MS.425         	10.92          	0.864
MS.426         	10.9           	0.814
MS.427         	10.877         	0.729
MS.428         	10.855         	0.846
MS.429         	10.835         	0.848
MS.430         	10.812         	0.79
MS.431         	10.79          	0.737
MS.432         	10.77          	0.84
MS.433         	10.747         	0.745
MS.434         	10.725         	0.8
MS.435         	10.705         	0.848
MS.436         	10.682         	0.753
MS.437         	10.662         	0.743
MS.438         	10.64          	0.693
MS.439         	10.62          	0.749
MS.440         	10.597         	0.622
MS.441         	10.577         	0.681
MS.442         	10.555         	0.588
MS.443         	10.535         	0.594
MS.444         	10.512         	0.641
MS.445         	10.492         	0.62
MS.446         	10.472         	0.618
MS.447         	10.45          	0.572
MS.448         	10.43          	0.536
MS.449         	10.41          	0.502
MS.450         	10.387         	0.546
MS.451         	10.367         	0.6
MS.452         	10.347         	0.497
MS.453         	10.325         	0.54
MS.454         	10.305         	0.469
MS.455         	10.285         	0.441
MS.456         	10.265         	0.439
MS.457         	10.245         	0.429
MS.458         	10.222         	0.465
MS.459         	10.202         	0.419
MS.460         	10.182         	0.377
MS.461         	10.162         	0.475
MS.462         	10.142         	0.395
MS.463         	10.122         	0.405
MS.464         	10.102         	0.417
MS.465         	10.08          	0.314
MS.466         	10.06          	0.395
MS.467         	10.04          	0.346
MS.468         	10.02          	0.314
MS.469         	10             	0.28
MS.470         	9.98           	0.302
MS.471         	9.96           	0.266
MS.472         	9.94           	0.264
MS.473         	9.92           	0.322
MS.474         	9.903          	0.254
MS.475         	9.882          	0.296
MS.476         	9.863          	0.282
MS.477         	9.842          	0.246
MS.478         	9.823          	0.226
MS.479         	9.802          	0.199
MS.480         	9.782          	0.238
MS.481         	9.762          	0.193
MS.482         	9.745          	0.183
MS.483         	9.725          	0.171
MS.484         	9.705          	0.226
MS.485         	9.685          	0.185
MS.486         	9.667          	0.173
MS.487         	9.648          	0.179
MS.488         	9.627          	0.203
MS.489         	9.608          	0.131
MS.490         	9.59           	0.169
MS.491         	9.57           	0.159
MS.492         	9.55           	0.131
MS.493         	9.532          	0.157
MS.494         	9.512          	0.139
MS.495         	9.495          	0.109
MS.496         	9.475          	0.151
MS.497         	9.455          	0.101
MS.498         	9.438          	0.113
MS.499         	9.417          	0.097
MS.500         	9.4            	0.087
MS.501         	9.38           	0.111
