File:              	C:\Qtrac\Data\Daniel M Sørensen\MScan multicentre study\Data from centres\Oslo\Processed data\SZC00525A.QZD
Name:              	NO.OSL.NC.11.2
Protocol:          	MSCAN-R2
Date:              	25/5/20
Start time:        	16:02:34
Age:               	45
Sex:               	M
Temperature:       	32.8
S/R sites:         	APB
NC/disease:        	NC11
Operator:          	SZ
Comments:          	Test2
M-SCAN DATA (8-2.9m)
Scanpts: 139, 147, 538, 559
Stim. (mA)     	Amp. (mV)
MS.1           	13             	13.473
MS.2           	13             	13.451
MS.3           	13             	13.461
MS.4           	13             	13.422
MS.5           	13             	13.414
MS.6           	13             	13.408
MS.7           	13             	13.408
MS.8           	13             	13.394
MS.9           	13             	13.402
MS.10          	13             	13.412
MS.11          	13             	13.41
MS.12          	13             	13.414
MS.13          	13             	13.426
MS.14          	13             	13.428
MS.15          	13             	13.432
MS.16          	13             	13.432
MS.17          	13             	13.412
MS.18          	13             	13.424
MS.19          	13             	13.416
MS.20          	13             	13.424
MS.21          	13             	13.428
MS.22          	13             	13.424
MS.23          	13             	13.457
MS.24          	12.947         	13.416
MS.25          	12.922         	13.416
MS.26          	12.898         	13.422
MS.27          	12.87          	13.404
MS.28          	12.845         	13.41
MS.29          	12.82          	13.422
MS.30          	12.792         	13.404
MS.31          	12.767         	13.422
MS.32          	12.742         	13.416
MS.33          	12.717         	13.408
MS.34          	12.693         	13.41
MS.35          	12.667         	13.42
MS.36          	12.64          	13.416
MS.37          	12.615         	13.436
MS.38          	12.59          	13.414
MS.39          	12.565         	13.408
MS.40          	12.54          	13.422
MS.41          	12.515         	13.43
MS.42          	12.49          	13.416
MS.43          	12.465         	13.414
MS.44          	12.44          	13.398
MS.45          	12.415         	13.418
MS.46          	12.39          	13.396
MS.47          	12.365         	13.402
MS.48          	12.34          	13.416
MS.49          	12.318         	13.408
MS.50          	12.292         	13.402
MS.51          	12.267         	13.396
MS.52          	12.242         	13.414
MS.53          	12.217         	13.4
MS.54          	12.195         	13.418
MS.55          	12.17          	13.414
MS.56          	12.145         	13.404
MS.57          	12.12          	13.402
MS.58          	12.097         	13.416
MS.59          	12.072         	13.424
MS.60          	12.047         	13.404
MS.61          	12.025         	13.416
MS.62          	12             	13.426
MS.63          	11.977         	13.408
MS.64          	11.952         	13.414
MS.65          	11.927         	13.404
MS.66          	11.905         	13.414
MS.67          	11.88          	13.406
MS.68          	11.858         	13.426
MS.69          	11.832         	13.428
MS.70          	11.81          	13.428
MS.71          	11.787         	13.426
MS.72          	11.762         	13.422
MS.73          	11.74          	13.43
MS.74          	11.715         	13.436
MS.75          	11.693         	13.418
MS.76          	11.67          	13.443
MS.77          	11.645         	13.443
MS.78          	11.622         	13.44
MS.79          	11.6           	13.438
MS.80          	11.575         	13.432
MS.81          	11.552         	13.443
MS.82          	11.53          	13.428
MS.83          	11.507         	13.428
MS.84          	11.485         	13.428
MS.85          	11.46          	13.428
MS.86          	11.438         	13.445
MS.87          	11.415         	13.424
MS.88          	11.392         	13.426
MS.89          	11.37          	13.432
MS.90          	11.347         	13.426
MS.91          	11.325         	13.42
MS.92          	11.302         	13.428
MS.93          	11.28          	13.438
MS.94          	11.257         	13.426
MS.95          	11.235         	13.445
MS.96          	11.212         	13.42
MS.97          	11.19          	13.447
MS.98          	11.167         	13.44
MS.99          	11.145         	13.445
MS.100         	11.122         	13.451
MS.101         	11.1           	13.422
MS.102         	11.077         	13.434
MS.103         	11.055         	13.451
MS.104         	11.032         	13.428
MS.105         	11.012         	13.418
MS.106         	10.99          	13.432
MS.107         	10.967         	13.414
MS.108         	10.945         	13.432
MS.109         	10.925         	13.449
MS.110         	10.903         	13.453
MS.111         	10.88          	13.443
MS.112         	10.858         	13.434
MS.113         	10.837         	13.461
MS.114         	10.815         	13.453
MS.115         	10.792         	13.44
MS.116         	10.773         	13.457
MS.117         	10.75          	13.461
MS.118         	10.73          	13.459
MS.119         	10.707         	13.451
MS.120         	10.685         	13.463
MS.121         	10.665         	13.463
MS.122         	10.642         	13.465
MS.123         	10.622         	13.459
MS.124         	10.6           	13.457
MS.125         	10.58          	13.451
MS.126         	10.557         	13.459
MS.127         	10.537         	13.469
MS.128         	10.517         	13.451
MS.129         	10.495         	13.467
MS.130         	10.475         	13.459
MS.131         	10.452         	13.469
MS.132         	10.432         	13.465
MS.133         	10.412         	13.469
MS.134         	10.39          	13.475
MS.135         	10.37          	13.485
MS.136         	10.35          	13.481
MS.137         	10.33          	13.461
MS.138         	10.307         	13.467
MS.139         	10.287         	13.465
MS.140         	10.267         	13.487
MS.141         	10.247         	13.497
MS.142         	10.225         	13.473
MS.143         	10.205         	13.487
MS.144         	10.185         	13.481
MS.145         	10.165         	13.483
MS.146         	10.145         	13.471
MS.147         	10.125         	13.491
MS.148         	10.105         	13.477
MS.149         	10.085         	13.477
MS.150         	10.065         	13.497
MS.151         	10.042         	13.481
MS.152         	10.023         	13.463
MS.153         	10.002         	13.479
MS.154         	9.983          	13.485
MS.155         	9.962          	13.493
MS.156         	9.945          	13.485
MS.157         	9.925          	13.497
MS.158         	9.905          	13.511
MS.159         	9.885          	13.471
MS.160         	9.865          	13.271
MS.161         	9.845          	13.281
MS.162         	9.825          	13.515
MS.163         	9.805          	13.267
MS.164         	9.785          	13.269
MS.165         	9.767          	13.271
MS.166         	9.747          	13.279
MS.167         	9.727          	13.269
MS.168         	9.707          	13.279
MS.169         	9.688          	13.271
MS.170         	9.67           	13.281
MS.171         	9.65           	13.289
MS.172         	9.63           	13.277
MS.173         	9.613          	13.289
MS.174         	9.592          	13.281
MS.175         	9.573          	13.299
MS.176         	9.555          	13.275
MS.177         	9.535          	13.521
MS.178         	9.515          	13.253
MS.179         	9.497          	13.267
MS.180         	9.477          	13.267
MS.181         	9.46           	13.265
MS.182         	9.44           	13.287
MS.183         	9.42           	13.295
MS.184         	9.403          	13.304
MS.185         	9.382          	13.281
MS.186         	9.365          	13.291
MS.187         	9.345          	13.287
MS.188         	9.327          	13.297
MS.189         	9.307          	13.295
MS.190         	9.29           	13.302
MS.191         	9.273          	13.324
MS.192         	9.252          	13.291
MS.193         	9.235          	13.283
MS.194         	9.215          	13.306
MS.195         	9.198          	13.293
MS.196         	9.18           	13.33
MS.197         	9.16           	13.316
MS.198         	9.142          	13.306
MS.199         	9.125          	13.304
MS.200         	9.105          	13.271
MS.201         	9.087          	13.235
MS.202         	9.07           	13.31
MS.203         	9.052          	13.314
MS.204         	9.033          	13.026
MS.205         	9.015          	12.814
MS.206         	8.997          	13.191
MS.207         	8.98           	13.241
MS.208         	8.962          	13.086
MS.209         	8.943          	13.163
MS.210         	8.925          	13.132
MS.211         	8.908          	13.177
MS.212         	8.89           	13.167
MS.213         	8.872          	13.146
MS.214         	8.855          	13.134
MS.215         	8.837          	13.167
MS.216         	8.82           	13.132
MS.217         	8.802          	13.159
MS.218         	8.785          	13.225
MS.219         	8.767          	13.108
MS.220         	8.75           	13.201
MS.221         	8.733          	13.098
MS.222         	8.715          	13.156
MS.223         	8.698          	13.108
MS.224         	8.68           	13.106
MS.225         	8.662          	13.032
MS.226         	8.645          	13.225
MS.227         	8.627          	13.076
MS.228         	8.61           	13.171
MS.229         	8.592          	13.068
MS.230         	8.575          	12.953
MS.231         	8.557          	13.112
MS.232         	8.542          	12.995
MS.233         	8.525          	13.018
MS.234         	8.507          	13.001
MS.235         	8.49           	13.066
MS.236         	8.472          	12.822
MS.237         	8.457          	12.939
MS.238         	8.44           	12.931
MS.239         	8.422          	12.762
MS.240         	8.405          	12.915
MS.241         	8.39           	12.939
MS.242         	8.372          	12.913
MS.243         	8.355          	12.762
MS.244         	8.34           	12.623
MS.245         	8.323          	12.586
MS.246         	8.305          	12.659
MS.247         	8.29           	12.683
MS.248         	8.273          	12.713
MS.249         	8.255          	12.673
MS.250         	8.24           	12.597
MS.251         	8.222          	12.351
MS.252         	8.207          	12.661
MS.253         	8.19           	12.615
MS.254         	8.175          	12.613
MS.255         	8.158          	12.363
MS.256         	8.142          	12.431
MS.257         	8.125          	12.345
MS.258         	8.11           	12.083
MS.259         	8.092          	11.922
MS.260         	8.077          	12.331
MS.261         	8.06           	11.956
MS.262         	8.045          	12.145
MS.263         	8.028          	12.119
MS.264         	8.012          	12.008
MS.265         	7.995          	11.467
MS.266         	7.98           	11.521
MS.267         	7.965          	11.793
MS.268         	7.947          	11.533
MS.269         	7.932          	12.049
MS.270         	7.918          	11.086
MS.271         	7.9            	11.608
MS.272         	7.885          	11.392
MS.273         	7.87           	11.038
MS.274         	7.852          	10.901
MS.275         	7.837          	11.674
MS.276         	7.822          	11.227
MS.277         	7.807          	11.438
MS.278         	7.79           	11.235
MS.279         	7.775          	11.011
MS.280         	7.76           	11.03
MS.281         	7.745          	10.961
MS.282         	7.727          	10.943
MS.283         	7.712          	10.895
MS.284         	7.697          	10.872
MS.285         	7.682          	11.03
MS.286         	7.668          	10.345
MS.287         	7.652          	10.828
MS.288         	7.637          	10.54
MS.289         	7.622          	10.782
MS.290         	7.605          	10.742
MS.291         	7.59           	10.453
MS.292         	7.575          	10.238
MS.293         	7.56           	10.107
MS.294         	7.545          	10.242
MS.295         	7.53           	10.492
MS.296         	7.515          	9.924
MS.297         	7.5            	10.258
MS.298         	7.485          	10.079
MS.299         	7.47           	10.137
MS.300         	7.455          	9.64
MS.301         	7.44           	9.857
MS.302         	7.425          	9.753
MS.303         	7.41           	9.626
MS.304         	7.395          	9.291
MS.305         	7.382          	9.203
MS.306         	7.367          	9.211
MS.307         	7.352          	9.199
MS.308         	7.337          	9.525
MS.309         	7.322          	9.164
MS.310         	7.307          	9.297
MS.311         	7.293          	9.273
MS.312         	7.277          	8.727
MS.313         	7.265          	8.989
MS.314         	7.25           	8.49
MS.315         	7.235          	8.504
MS.316         	7.22           	8.464
MS.317         	7.205          	8.536
MS.318         	7.192          	7.918
MS.319         	7.177          	7.883
MS.320         	7.162          	8.413
MS.321         	7.15           	7.934
MS.322         	7.135          	8.306
MS.323         	7.12           	8.119
MS.324         	7.105          	7.932
MS.325         	7.092          	7.501
MS.326         	7.077          	7.313
MS.327         	7.062          	7.614
MS.328         	7.05           	7.388
MS.329         	7.035          	7.259
MS.330         	7.023          	7.136
MS.331         	7.007          	6.987
MS.332         	6.992          	7.134
MS.333         	6.98           	6.852
MS.334         	6.965          	6.677
MS.335         	6.952          	6.653
MS.336         	6.938          	6.832
MS.337         	6.922          	6.284
MS.338         	6.91           	6.532
MS.339         	6.895          	6.447
MS.340         	6.882          	6.363
MS.341         	6.867          	6.131
MS.342         	6.855          	6.073
MS.343         	6.84           	5.738
MS.344         	6.827          	5.611
MS.345         	6.815          	5.908
MS.346         	6.8            	5.694
MS.347         	6.787          	5.485
MS.348         	6.773          	6.024
MS.349         	6.76           	5.315
MS.350         	6.745          	5.156
MS.351         	6.733          	4.792
MS.352         	6.72           	4.961
MS.353         	6.705          	5.096
MS.354         	6.692          	4.616
MS.355         	6.68           	4.927
MS.356         	6.665          	4.945
MS.357         	6.652          	4.983
MS.358         	6.64           	4.461
MS.359         	6.625          	4.526
MS.360         	6.612          	4.202
MS.361         	6.6            	4.463
MS.362         	6.585          	4.506
MS.363         	6.572          	4.131
MS.364         	6.56           	4.067
MS.365         	6.547          	4.042
MS.366         	6.532          	4.232
MS.367         	6.52           	4.175
MS.368         	6.507          	3.797
MS.369         	6.495          	3.72
MS.370         	6.483          	3.513
MS.371         	6.467          	3.535
MS.372         	6.455          	3.378
MS.373         	6.442          	3.438
MS.374         	6.43           	3.372
MS.375         	6.418          	3.241
MS.376         	6.405          	3.118
MS.377         	6.392          	2.782
MS.378         	6.378          	3.074
MS.379         	6.365          	2.874
MS.380         	6.352          	2.558
MS.381         	6.34           	2.453
MS.382         	6.327          	2.927
MS.383         	6.315          	2.931
MS.384         	6.302          	2.854
MS.385         	6.29           	2.177
MS.386         	6.277          	2.56
MS.387         	6.265          	2.032
MS.388         	6.253          	2.566
MS.389         	6.24           	1.887
MS.390         	6.227          	1.609
MS.391         	6.215          	1.722
MS.392         	6.202          	1.766
MS.393         	6.19           	1.895
MS.394         	6.177          	1.772
MS.395         	6.165          	1.333
MS.396         	6.152          	1.607
MS.397         	6.14           	1.388
MS.398         	6.128          	1.547
MS.399         	6.115          	1.184
MS.400         	6.105          	1.468
MS.401         	6.092          	1.277
MS.402         	6.08           	1.192
MS.403         	6.067          	1.269
MS.404         	6.055          	1.194
MS.405         	6.043          	1.098
MS.406         	6.03           	1.265
MS.407         	6.02           	1.259
MS.408         	6.007          	1.204
MS.409         	5.995          	1.164
MS.410         	5.983          	1.045
MS.411         	5.97           	1.136
MS.412         	5.96           	1.293
MS.413         	5.947          	1.116
MS.414         	5.935          	0.971
MS.415         	5.922          	1.039
MS.416         	5.912          	0.929
MS.417         	5.9            	0.931
MS.418         	5.887          	1.055
MS.419         	5.878          	1.027
MS.420         	5.865          	0.935
MS.421         	5.852          	0.963
MS.422         	5.842          	0.781
MS.423         	5.83           	0.912
MS.424         	5.817          	0.832
MS.425         	5.807          	0.781
MS.426         	5.795          	0.874
MS.427         	5.782          	0.922
MS.428         	5.773          	0.88
MS.429         	5.76           	0.808
MS.430         	5.747          	0.906
MS.431         	5.737          	0.9
MS.432         	5.725          	0.788
MS.433         	5.715          	0.908
MS.434         	5.702          	0.826
MS.435         	5.692          	0.834
MS.436         	5.68           	0.838
MS.437         	5.668          	0.852
MS.438         	5.657          	0.794
MS.439         	5.645          	0.838
MS.440         	5.635          	0.699
MS.441         	5.622          	0.598
MS.442         	5.612          	0.739
MS.443         	5.6            	0.59
MS.444         	5.59           	0.779
MS.445         	5.577          	0.657
MS.446         	5.567          	0.663
MS.447         	5.557          	0.709
MS.448         	5.545          	0.655
MS.449         	5.535          	0.622
MS.450         	5.523          	0.564
MS.451         	5.512          	0.616
MS.452         	5.5            	0.663
MS.453         	5.49           	0.564
MS.454         	5.48           	0.586
MS.455         	5.467          	0.55
MS.456         	5.457          	0.562
MS.457         	5.447          	0.564
MS.458         	5.435          	0.574
MS.459         	5.425          	0.56
MS.460         	5.415          	0.572
MS.461         	5.402          	0.433
MS.462         	5.392          	0.564
MS.463         	5.382          	0.556
MS.464         	5.37           	0.56
MS.465         	5.36           	0.572
MS.466         	5.35           	0.556
MS.467         	5.338          	0.542
MS.468         	5.327          	0.399
MS.469         	5.318          	0.546
MS.470         	5.307          	0.389
MS.471         	5.295          	0.421
MS.472         	5.285          	0.395
MS.473         	5.275          	0.415
MS.474         	5.265          	0.413
MS.475         	5.255          	0.399
MS.476         	5.242          	0.389
MS.477         	5.233          	0.393
MS.478         	5.222          	0.397
MS.479         	5.213          	0.401
MS.480         	5.202          	0.401
MS.481         	5.19           	0.377
MS.482         	5.18           	0.399
MS.483         	5.17           	0.397
MS.484         	5.16           	0.397
MS.485         	5.15           	0.228
MS.486         	5.14           	0.397
MS.487         	5.13           	0.399
MS.488         	5.12           	0.383
MS.489         	5.108          	0.375
MS.490         	5.097          	0.377
MS.491         	5.088          	0.377
MS.492         	5.077          	0.379
