File:              	C:\Qtrac\Data\Daniel M Sørensen\MScan multicentre study\Data from centres\Oslo\IronKey\Oslo_NC_first examination\SZC00602A.QZD
Name:              	NO.OSL.NC.15.1
Protocol:          	MSCAN-R2
Date:              	2/6/20
Start time:        	16:10:01
Age:               	41
Sex:               	M
Temperature:       	33.2
S/R sites:         	Median Wr-APB
NC/disease:        	NC15
Operator:          	SZ
Comments:          	Test1
M-SCAN DATA (5.7-0.6m)
Scanpts: 67, 73, 538, 546
Stim. (mA)     	Amp. (mV)
MS.1           	20.5           	11.199
MS.2           	20.5           	11.209
MS.3           	20.5           	11.197
MS.4           	20.5           	11.175
MS.5           	20.5           	11.162
MS.6           	20.5           	11.162
MS.7           	20.5           	11.177
MS.8           	20.5           	11.187
MS.9           	20.5           	11.171
MS.10          	20.5           	11.162
MS.11          	20.5           	11.16
MS.12          	20.5           	11.158
MS.13          	20.5           	11.173
MS.14          	20.5           	11.173
MS.15          	20.5           	11.173
MS.16          	20.5           	11.177
MS.17          	20.5           	11.189
MS.18          	20.5           	11.183
MS.19          	20.5           	11.183
MS.20          	20.5           	11.179
MS.21          	20.5           	11.179
MS.22          	20.5           	11.191
MS.23          	20.5           	11.209
MS.24          	20.417         	11.179
MS.25          	20.377         	11.173
MS.26          	20.337         	11.158
MS.27          	20.295         	11.171
MS.28          	20.255         	11.164
MS.29          	20.215         	11.16
MS.30          	20.175         	11.175
MS.31          	20.135         	11.181
MS.32          	20.095         	11.189
MS.33          	20.055         	11.177
MS.34          	20.015         	11.195
MS.35          	19.975         	11.199
MS.36          	19.935         	11.207
MS.37          	19.895         	11.203
MS.38          	19.855         	11.197
MS.39          	19.815         	11.195
MS.40          	19.775         	11.197
MS.41          	19.735         	11.207
MS.42          	19.695         	11.191
MS.43          	19.657         	11.171
MS.44          	19.618         	11.169
MS.45          	19.577         	11.181
MS.46          	19.54          	11.181
MS.47          	19.5           	11.173
MS.48          	19.46          	11.187
MS.49          	19.422         	11.179
MS.50          	19.382         	11.195
MS.51          	19.345         	11.189
MS.52          	19.305         	11.187
MS.53          	19.267         	11.203
MS.54          	19.23          	11.193
MS.55          	19.19          	11.187
MS.56          	19.153         	11.181
MS.57          	19.115         	11.177
MS.58          	19.075         	11.193
MS.59          	19.038         	11.175
MS.60          	19             	11.175
MS.61          	18.962         	11.169
MS.62          	18.925         	11.179
MS.63          	18.885         	11.167
MS.64          	18.847         	11.181
MS.65          	18.81          	11.177
MS.66          	18.772         	11.171
MS.67          	18.735         	11.177
MS.68          	18.698         	11.185
MS.69          	18.66          	11.177
MS.70          	18.622         	11.171
MS.71          	18.585         	11.156
MS.72          	18.55          	11.173
MS.73          	18.512         	11.177
MS.74          	18.475         	11.169
MS.75          	18.438         	11.154
MS.76          	18.403         	11.167
MS.77          	18.365         	11.128
MS.78          	18.327         	11.162
MS.79          	18.29          	11.171
MS.80          	18.255         	11.175
MS.81          	18.217         	11.162
MS.82          	18.182         	11.164
MS.83          	18.145         	11.134
MS.84          	18.11          	11.177
MS.85          	18.073         	11.173
MS.86          	18.038         	11.164
MS.87          	18             	11.142
MS.88          	17.965         	11.154
MS.89          	17.93          	11.144
MS.90          	17.892         	11.15
MS.91          	17.858         	11.144
MS.92          	17.823         	11.136
MS.93          	17.785         	11.142
MS.94          	17.75          	11.148
MS.95          	17.715         	11.148
MS.96          	17.68          	11.142
MS.97          	17.645         	11.146
MS.98          	17.61          	10.973
MS.99          	17.575         	10.973
MS.100         	17.54          	11.142
MS.101         	17.505         	10.969
MS.102         	17.47          	10.975
MS.103         	17.435         	10.977
MS.104         	17.4           	10.981
MS.105         	17.365         	10.985
MS.106         	17.33          	10.975
MS.107         	17.295         	10.979
MS.108         	17.26          	10.981
MS.109         	17.225         	10.985
MS.110         	17.192         	10.981
MS.111         	17.157         	10.979
MS.112         	17.122         	10.975
MS.113         	17.09          	10.983
MS.114         	17.055         	10.876
MS.115         	17.02          	10.868
MS.116         	16.987         	10.981
MS.117         	16.952         	10.987
MS.118         	16.917         	10.866
MS.119         	16.885         	10.858
MS.120         	16.85          	10.961
MS.121         	16.817         	10.981
MS.122         	16.785         	10.973
MS.123         	16.75          	10.975
MS.124         	16.717         	10.87
MS.125         	16.682         	10.862
MS.126         	16.65          	10.862
MS.127         	16.618         	10.975
MS.128         	16.583         	10.967
MS.129         	16.55          	10.864
MS.130         	16.517         	10.838
MS.131         	16.485         	10.852
MS.132         	16.452         	10.848
MS.133         	16.417         	10.856
MS.134         	16.385         	10.846
MS.135         	16.352         	10.834
MS.136         	16.32          	10.852
MS.137         	16.288         	10.85
MS.138         	16.255         	10.846
MS.139         	16.222         	10.854
MS.140         	16.19          	10.967
MS.141         	16.157         	10.856
MS.142         	16.125         	10.854
MS.143         	16.092         	10.844
MS.144         	16.062         	10.862
MS.145         	16.03          	10.854
MS.146         	15.997         	10.85
MS.147         	15.965         	10.858
MS.148         	15.932         	10.864
MS.149         	15.902         	10.864
MS.150         	15.87          	10.866
MS.151         	15.837         	10.852
MS.152         	15.807         	10.862
MS.153         	15.775         	10.868
MS.154         	15.742         	10.844
MS.155         	15.712         	10.86
MS.156         	15.68          	10.836
MS.157         	15.65          	10.806
MS.158         	15.617         	10.822
MS.159         	15.587         	10.84
MS.160         	15.555         	10.82
MS.161         	15.525         	10.794
MS.162         	15.492         	10.774
MS.163         	15.462         	10.804
MS.164         	15.432         	10.782
MS.165         	15.4           	10.804
MS.166         	15.37          	10.75
MS.167         	15.34          	10.762
MS.168         	15.307         	10.778
MS.169         	15.277         	10.695
MS.170         	15.247         	10.693
MS.171         	15.217         	10.639
MS.172         	15.188         	10.76
MS.173         	15.157         	10.725
MS.174         	15.125         	10.679
MS.175         	15.095         	10.665
MS.176         	15.065         	10.653
MS.177         	15.035         	10.647
MS.178         	15.005         	10.645
MS.179         	14.975         	10.603
MS.180         	14.945         	10.623
MS.181         	14.915         	10.578
MS.182         	14.885         	10.603
MS.183         	14.858         	10.605
MS.184         	14.827         	10.576
MS.185         	14.797         	10.556
MS.186         	14.767         	10.566
MS.187         	14.737         	10.546
MS.188         	14.707         	10.536
MS.189         	14.68          	10.538
MS.190         	14.65          	10.566
MS.191         	14.62          	10.548
MS.192         	14.59          	10.534
MS.193         	14.562         	10.526
MS.194         	14.532         	10.574
MS.195         	14.505         	10.52
MS.196         	14.475         	10.528
MS.197         	14.445         	10.524
MS.198         	14.417         	10.536
MS.199         	14.387         	10.538
MS.200         	14.36          	10.456
MS.201         	14.33          	10.516
MS.202         	14.302         	10.526
MS.203         	14.273         	10.401
MS.204         	14.245         	10.488
MS.205         	14.217         	10.498
MS.206         	14.188         	10.373
MS.207         	14.16          	10.375
MS.208         	14.132         	10.188
MS.209         	14.102         	10.236
MS.210         	14.075         	10.125
MS.211         	14.047         	10.453
MS.212         	14.02          	10.236
MS.213         	13.99          	10.161
MS.214         	13.962         	10.165
MS.215         	13.935         	10.208
MS.216         	13.907         	10.029
MS.217         	13.88          	10.065
MS.218         	13.852         	10.026
MS.219         	13.825         	10.039
MS.220         	13.797         	9.912
MS.221         	13.77          	9.888
MS.222         	13.742         	9.968
MS.223         	13.715         	9.73
MS.224         	13.688         	9.873
MS.225         	13.66          	9.813
MS.226         	13.632         	9.712
MS.227         	13.605         	9.642
MS.228         	13.577         	9.614
MS.229         	13.55          	9.793
MS.230         	13.523         	9.801
MS.231         	13.497         	9.581
MS.232         	13.47          	9.793
MS.233         	13.443         	9.461
MS.234         	13.415         	9.301
MS.235         	13.39          	9.426
MS.236         	13.362         	9.45
MS.237         	13.335         	9.432
MS.238         	13.307         	9.293
MS.239         	13.282         	9.382
MS.240         	13.255         	9.313
MS.241         	13.23          	9.463
MS.242         	13.202         	9.324
MS.243         	13.177         	9.201
MS.244         	13.15          	9.352
MS.245         	13.122         	9.189
MS.246         	13.097         	9.14
MS.247         	13.072         	9.179
MS.248         	13.045         	9.33
MS.249         	13.02          	9.287
MS.250         	12.992         	9.098
MS.251         	12.967         	8.903
MS.252         	12.943         	9.031
MS.253         	12.915         	8.872
MS.254         	12.89          	9.092
MS.255         	12.865         	8.884
MS.256         	12.837         	9.003
MS.257         	12.812         	8.764
MS.258         	12.787         	8.866
MS.259         	12.762         	8.796
MS.260         	12.735         	8.798
MS.261         	12.71          	8.782
MS.262         	12.685         	8.796
MS.263         	12.66          	8.699
MS.264         	12.635         	8.864
MS.265         	12.61          	8.701
MS.266         	12.585         	8.653
MS.267         	12.56          	8.629
MS.268         	12.532         	8.693
MS.269         	12.507         	8.669
MS.270         	12.483         	8.727
MS.271         	12.457         	8.683
MS.272         	12.435         	8.55
MS.273         	12.41          	8.254
MS.274         	12.385         	8.546
MS.275         	12.36          	8.625
MS.276         	12.335         	8.667
MS.277         	12.31          	8.52
MS.278         	12.285         	8.435
MS.279         	12.26          	8.417
MS.280         	12.238         	8.403
MS.281         	12.212         	8.508
MS.282         	12.188         	8.353
MS.283         	12.162         	8.411
MS.284         	12.14          	8.377
MS.285         	12.115         	7.857
MS.286         	12.09          	8.196
MS.287         	12.068         	8.459
MS.288         	12.042         	7.626
MS.289         	12.017         	7.168
MS.290         	11.995         	7.561
MS.291         	11.97          	8.091
MS.292         	11.947         	7.561
MS.293         	11.922         	7.567
MS.294         	11.898         	7.16
MS.295         	11.875         	6.79
MS.296         	11.85          	6.82
MS.297         	11.827         	6.669
MS.298         	11.805         	6.375
MS.299         	11.78          	6.31
MS.300         	11.757         	6.242
MS.301         	11.733         	6.598
MS.302         	11.71          	6.123
MS.303         	11.688         	5.593
MS.304         	11.662         	6.018
MS.305         	11.64          	6.177
MS.306         	11.617         	5.696
MS.307         	11.592         	6.236
MS.308         	11.57          	5.539
MS.309         	11.547         	5.726
MS.310         	11.525         	5.672
MS.311         	11.5           	6.016
MS.312         	11.477         	5.406
MS.313         	11.455         	5.539
MS.314         	11.432         	5.676
MS.315         	11.41          	4.834
MS.316         	11.387         	5.033
MS.317         	11.363         	4.713
MS.318         	11.34          	5.14
MS.319         	11.318         	5.255
MS.320         	11.295         	4.921
MS.321         	11.273         	4.77
MS.322         	11.25          	4.963
MS.323         	11.227         	4.349
MS.324         	11.205         	4.377
MS.325         	11.182         	4.425
MS.326         	11.16          	4.397
MS.327         	11.137         	4.369
MS.328         	11.117         	3.728
MS.329         	11.095         	4.238
MS.330         	11.073         	3.642
MS.331         	11.05          	3.766
MS.332         	11.028         	3.575
MS.333         	11.005         	3.714
MS.334         	10.985         	3.35
MS.335         	10.962         	3.44
MS.336         	10.94          	3.356
MS.337         	10.917         	3.793
MS.338         	10.898         	3.841
MS.339         	10.875         	3.39
MS.340         	10.852         	3.084
MS.341         	10.83          	3.265
MS.342         	10.81          	3.211
MS.343         	10.787         	3.237
MS.344         	10.767         	2.868
MS.345         	10.745         	2.967
MS.346         	10.722         	3.07
MS.347         	10.702         	2.479
MS.348         	10.68          	2.633
MS.349         	10.66          	2.469
MS.350         	10.637         	2.31
MS.351         	10.617         	2.286
MS.352         	10.595         	1.978
MS.353         	10.575         	2.381
MS.354         	10.552         	2.187
MS.355         	10.532         	2.079
MS.356         	10.51          	2.153
MS.357         	10.49          	1.694
MS.358         	10.47          	1.795
MS.359         	10.448         	1.781
MS.360         	10.427         	1.768
MS.361         	10.407         	2.117
MS.362         	10.385         	1.712
MS.363         	10.365         	1.605
MS.364         	10.345         	1.774
MS.365         	10.323         	1.565
MS.366         	10.302         	1.456
MS.367         	10.282         	1.474
MS.368         	10.262         	1.499
MS.369         	10.24          	1.448
MS.370         	10.22          	1.607
MS.371         	10.2           	1.631
MS.372         	10.18          	1.388
MS.373         	10.16          	1.382
MS.374         	10.14          	1.325
MS.375         	10.12          	1.283
MS.376         	10.1           	1.313
MS.377         	10.077         	1.283
MS.378         	10.057         	1.412
MS.379         	10.037         	1.154
MS.380         	10.017         	1.315
MS.381         	9.997          	1.16
MS.382         	9.977          	1.057
MS.383         	9.957          	1.065
MS.384         	9.938          	1.219
MS.385         	9.917          	1.19
MS.386         	9.9            	0.937
MS.387         	9.88           	1.009
MS.388         	9.86           	1.124
MS.389         	9.84           	0.912
MS.390         	9.82           	0.85
MS.391         	9.8            	0.959
MS.392         	9.78           	0.784
MS.393         	9.762          	0.955
MS.394         	9.742          	0.806
MS.395         	9.722          	0.975
MS.396         	9.702          	0.818
MS.397         	9.682          	0.832
MS.398         	9.665          	0.763
MS.399         	9.645          	0.777
MS.400         	9.625          	0.731
MS.401         	9.608          	0.62
MS.402         	9.587          	0.526
MS.403         	9.568          	0.701
MS.404         	9.55           	0.697
MS.405         	9.53           	0.524
MS.406         	9.51           	0.524
MS.407         	9.492          	0.6
MS.408         	9.472          	0.677
MS.409         	9.455          	0.546
MS.410         	9.435          	0.554
MS.411         	9.415          	0.632
MS.412         	9.398          	0.491
MS.413         	9.377          	0.481
MS.414         	9.36           	0.512
MS.415         	9.34           	0.411
MS.416         	9.323          	0.526
MS.417         	9.305          	0.403
MS.418         	9.285          	0.334
MS.419         	9.267          	0.421
MS.420         	9.247          	0.417
MS.421         	9.23           	0.425
MS.422         	9.21           	0.332
MS.423         	9.193          	0.352
MS.424         	9.175          	0.393
MS.425         	9.155          	0.326
MS.426         	9.137          	0.236
MS.427         	9.12           	0.33
MS.428         	9.102          	0.332
MS.429         	9.082          	0.326
MS.430         	9.065          	0.33
MS.431         	9.047          	0.246
MS.432         	9.03           	0.316
MS.433         	9.01           	0.328
MS.434         	8.992          	0.256
MS.435         	8.975          	0.234
MS.436         	8.957          	0.183
MS.437         	8.94           	0.31
MS.438         	8.92           	0.199
MS.439         	8.903          	0.099
MS.440         	8.885          	0.177
MS.441         	8.867          	0.226
MS.442         	8.85           	0.222
MS.443         	8.832          	0.218
MS.444         	8.815          	0.234
MS.445         	8.797          	0.187
MS.446         	8.78           	0.115
MS.447         	8.762          	0.034
MS.448         	8.745          	0.095
MS.449         	8.727          	0.091
MS.450         	8.71           	0.028
MS.451         	8.693          	0.175
MS.452         	8.675          	0.034
MS.453         	8.658          	0.083
MS.454         	8.64           	0.095
MS.455         	8.622          	0.095
MS.456         	8.605          	0.091
MS.457         	8.587          	0.032
MS.458         	8.573          	0.03
MS.459         	8.555          	0.042
MS.460         	8.537          	0.095
MS.461         	8.52           	0.03
MS.462         	8.502          	0.097
MS.463         	8.485          	0.046
MS.464         	8.47           	0.034
MS.465         	8.452          	0.042
MS.466         	8.435          	0.028
MS.467         	8.417          	0.042
MS.468         	8.403          	0.032
MS.469         	8.385          	0.042
MS.470         	8.367          	0.042
MS.471         	8.352          	0.044
MS.472         	8.335          	0.036
MS.473         	8.318          	0.042
MS.474         	8.302          	0.046
MS.475         	8.285          	0.046
MS.476         	8.267          	0.032
MS.477         	8.252          	0.044
MS.478         	8.235          	0.044
MS.479         	8.22           	0.038
MS.480         	8.202          	0.046
MS.481         	8.185          	0.042
MS.482         	8.17           	0.034
MS.483         	8.153          	0.046
MS.484         	8.137          	0.038
MS.485         	8.12           	0.044
MS.486         	8.105          	0.046
MS.487         	8.087          	0.04
MS.488         	8.073          	0.036
MS.489         	8.055          	0.04
MS.490         	8.04           	0.04
MS.491         	8.025          	0.04
MS.492         	8.007          	0.034
MS.493         	7.992          	0.038
MS.494         	7.975          	0.036
