File:              	C:\Qtrac\Data\CKMC01118A.QZD
Name:              	RHS07
Protocol:          	MSCAN-R2
Date:              	18/11/20
Start time:        	09:16:50
Age:               	73
Sex:               	M
Temperature:       	39.2
S/R sites:         	RMedian Wr-APB
NC/disease:        	NC
Operator:          	CK
Comments:          	CG 0.2%
M-SCAN DATA (5.8-1.6m)
Scanpts: 109, 118, 441, 461
Stim. (mA)     	Amp. (mV)
MS.1           	21             	5.92
MS.2           	21             	5.912
MS.3           	21             	5.938
MS.4           	21             	5.92
MS.5           	21             	5.919
MS.6           	21             	5.911
MS.7           	21             	5.865
MS.8           	21             	5.865
MS.9           	21             	5.836
MS.10          	21             	5.829
MS.11          	21             	5.835
MS.12          	21             	5.829
MS.13          	21             	5.82
MS.14          	21             	5.829
MS.15          	21             	5.836
MS.16          	21             	5.853
MS.17          	21             	5.858
MS.18          	21             	5.858
MS.19          	21             	5.872
MS.20          	21             	5.891
MS.21          	21             	5.884
MS.22          	21             	5.905
MS.23          	21             	5.918
MS.24          	20.915         	5.921
MS.25          	20.875         	5.87
MS.26          	20.835         	5.909
MS.27          	20.79          	5.914
MS.28          	20.75          	5.892
MS.29          	20.71          	5.884
MS.30          	20.665         	5.886
MS.31          	20.625         	5.861
MS.32          	20.585         	5.884
MS.33          	20.545         	5.847
MS.34          	20.5           	5.86
MS.35          	20.46          	5.887
MS.36          	20.42          	5.861
MS.37          	20.38          	5.864
MS.38          	20.34          	5.856
MS.39          	20.3           	5.851
MS.40          	20.255         	5.851
MS.41          	20.215         	5.858
MS.42          	20.175         	5.849
MS.43          	20.135         	5.84
MS.44          	20.095         	5.86
MS.45          	20.055         	5.872
MS.46          	20.015         	5.882
MS.47          	19.975         	5.899
MS.48          	19.935         	5.874
MS.49          	19.895         	5.864
MS.50          	19.855         	5.882
MS.51          	19.815         	5.867
MS.52          	19.775         	5.844
MS.53          	19.735         	5.852
MS.54          	19.7           	5.863
MS.55          	19.66          	5.825
MS.56          	19.62          	5.832
MS.57          	19.58          	5.861
MS.58          	19.54          	5.876
MS.59          	19.5           	5.864
MS.60          	19.465         	5.881
MS.61          	19.425         	5.861
MS.62          	19.385         	5.855
MS.63          	19.345         	5.877
MS.64          	19.31          	5.851
MS.65          	19.27          	5.872
MS.66          	19.23          	5.877
MS.67          	19.19          	5.853
MS.68          	19.155         	5.876
MS.69          	19.115         	5.867
MS.70          	19.08          	5.862
MS.71          	19.04          	5.853
MS.72          	19             	5.858
MS.73          	18.965         	5.847
MS.74          	18.925         	5.844
MS.75          	18.89          	5.84
MS.76          	18.85          	5.826
MS.77          	18.81          	5.851
MS.78          	18.775         	5.864
MS.79          	18.735         	5.851
MS.80          	18.7           	5.872
MS.81          	18.665         	5.848
MS.82          	18.625         	5.861
MS.83          	18.59          	5.834
MS.84          	18.55          	5.853
MS.85          	18.515         	5.865
MS.86          	18.475         	5.827
MS.87          	18.44          	5.825
MS.88          	18.405         	5.83
MS.89          	18.365         	5.846
MS.90          	18.33          	5.83
MS.91          	18.295         	5.832
MS.92          	18.255         	5.813
MS.93          	18.22          	5.81
MS.94          	18.185         	5.845
MS.95          	18.145         	5.817
MS.96          	18.11          	5.839
MS.97          	18.075         	5.839
MS.98          	18.04          	5.822
MS.99          	18.005         	5.822
MS.100         	17.965         	5.83
MS.101         	17.93          	5.82
MS.102         	17.895         	5.856
MS.103         	17.86          	5.826
MS.104         	17.825         	5.862
MS.105         	17.79          	5.844
MS.106         	17.75          	5.825
MS.107         	17.715         	5.85
MS.108         	17.68          	5.826
MS.109         	17.645         	5.844
MS.110         	17.61          	5.846
MS.111         	17.575         	5.844
MS.112         	17.54          	5.839
MS.113         	17.505         	5.828
MS.114         	17.47          	5.844
MS.115         	17.435         	5.828
MS.116         	17.4           	5.829
MS.117         	17.365         	5.83
MS.118         	17.33          	5.838
MS.119         	17.295         	5.829
MS.120         	17.26          	5.833
MS.121         	17.23          	5.831
MS.122         	17.195         	5.834
MS.123         	17.16          	5.815
MS.124         	17.125         	5.814
MS.125         	17.09          	5.829
MS.126         	17.055         	5.814
MS.127         	17.02          	5.842
MS.128         	16.99          	5.825
MS.129         	16.955         	5.827
MS.130         	16.92          	5.77
MS.131         	16.885         	5.814
MS.132         	16.855         	5.865
MS.133         	16.82          	5.826
MS.134         	16.785         	5.85
MS.135         	16.75          	5.839
MS.136         	16.72          	5.812
MS.137         	16.685         	5.833
MS.138         	16.65          	5.831
MS.139         	16.62          	5.737
MS.140         	16.585         	5.828
MS.141         	16.55          	5.834
MS.142         	16.52          	5.559
MS.143         	16.485         	5.746
MS.144         	16.455         	5.718
MS.145         	16.42          	5.69
MS.146         	16.385         	5.493
MS.147         	16.355         	5.748
MS.148         	16.32          	5.446
MS.149         	16.29          	5.756
MS.150         	16.255         	5.589
MS.151         	16.225         	5.447
MS.152         	16.19          	5.568
MS.153         	16.16          	5.31
MS.154         	16.125         	5.323
MS.155         	16.095         	5.567
MS.156         	16.065         	5.303
MS.157         	16.03          	5.315
MS.158         	16             	5.292
MS.159         	15.965         	5.315
MS.160         	15.935         	5.31
MS.161         	15.905         	5.328
MS.162         	15.87          	5.319
MS.163         	15.84          	5.33
MS.164         	15.81          	5.319
MS.165         	15.775         	5.563
MS.166         	15.745         	5.31
MS.167         	15.715         	5.316
MS.168         	15.68          	5.323
MS.169         	15.65          	5.537
MS.170         	15.62          	5.347
MS.171         	15.59          	5.123
MS.172         	15.555         	5.38
MS.173         	15.525         	5.056
MS.174         	15.495         	5.101
MS.175         	15.465         	5.085
MS.176         	15.435         	5.074
MS.177         	15.4           	5.101
MS.178         	15.37          	5.125
MS.179         	15.34          	5.099
MS.180         	15.31          	5.088
MS.181         	15.28          	5.131
MS.182         	15.25          	5.079
MS.183         	15.22          	5.04
MS.184         	15.19          	5.125
MS.185         	15.16          	4.869
MS.186         	15.13          	5.121
MS.187         	15.095         	5.071
MS.188         	15.065         	4.883
MS.189         	15.035         	4.998
MS.190         	15.005         	5.015
MS.191         	14.975         	4.841
MS.192         	14.945         	4.745
MS.193         	14.915         	4.814
MS.194         	14.885         	4.642
MS.195         	14.86          	4.808
MS.196         	14.83          	4.616
MS.197         	14.8           	4.619
MS.198         	14.77          	4.779
MS.199         	14.74          	4.839
MS.200         	14.71          	4.559
MS.201         	14.68          	4.548
MS.202         	14.65          	4.605
MS.203         	14.62          	4.553
MS.204         	14.595         	4.603
MS.205         	14.565         	4.351
MS.206         	14.535         	4.371
MS.207         	14.505         	4.378
MS.208         	14.475         	4.351
MS.209         	14.445         	4.369
MS.210         	14.42          	4.569
MS.211         	14.39          	4.36
MS.212         	14.36          	4.124
MS.213         	14.33          	4.366
MS.214         	14.305         	4.39
MS.215         	14.275         	4.188
MS.216         	14.245         	4.109
MS.217         	14.22          	4.111
MS.218         	14.19          	3.706
MS.219         	14.16          	3.668
MS.220         	14.135         	3.793
MS.221         	14.105         	3.647
MS.222         	14.075         	4.08
MS.223         	14.05          	3.688
MS.224         	14.02          	3.717
MS.225         	13.99          	3.583
MS.226         	13.965         	3.385
MS.227         	13.935         	3.638
MS.228         	13.91          	3.715
MS.229         	13.88          	3.332
MS.230         	13.855         	3.318
MS.231         	13.825         	3.083
MS.232         	13.8           	3.174
MS.233         	13.77          	3.12
MS.234         	13.745         	3.343
MS.235         	13.715         	3.14
MS.236         	13.69          	3.259
MS.237         	13.66          	3.042
MS.238         	13.635         	2.986
MS.239         	13.605         	2.893
MS.240         	13.58          	2.798
MS.241         	13.55          	2.825
MS.242         	13.525         	2.993
MS.243         	13.5           	2.8
MS.244         	13.47          	2.843
MS.245         	13.445         	2.819
MS.246         	13.415         	2.779
MS.247         	13.39          	2.845
MS.248         	13.365         	2.741
MS.249         	13.335         	2.614
MS.250         	13.31          	2.614
MS.251         	13.285         	2.573
MS.252         	13.255         	2.756
MS.253         	13.23          	2.667
MS.254         	13.205         	2.578
MS.255         	13.18          	2.451
MS.256         	13.15          	2.456
MS.257         	13.125         	2.448
MS.258         	13.1           	2.504
MS.259         	13.075         	2.255
MS.260         	13.045         	2.32
MS.261         	13.02          	2.413
MS.262         	12.995         	2.405
MS.263         	12.97          	2.372
MS.264         	12.945         	2.359
MS.265         	12.915         	2.195
MS.266         	12.89          	2.166
MS.267         	12.865         	2.228
MS.268         	12.84          	2.18
MS.269         	12.815         	2.032
MS.270         	12.79          	2.095
MS.271         	12.765         	1.98
MS.272         	12.735         	2.042
MS.273         	12.71          	2.169
MS.274         	12.685         	1.99
MS.275         	12.66          	2.1
MS.276         	12.635         	1.954
MS.277         	12.61          	2.002
MS.278         	12.585         	2.253
MS.279         	12.56          	1.999
MS.280         	12.535         	1.75
MS.281         	12.51          	1.807
MS.282         	12.485         	1.762
MS.283         	12.46          	1.703
MS.284         	12.435         	1.617
MS.285         	12.41          	1.686
MS.286         	12.385         	1.577
MS.287         	12.36          	1.772
MS.288         	12.335         	1.743
MS.289         	12.31          	1.682
MS.290         	12.285         	1.628
MS.291         	12.26          	1.511
MS.292         	12.24          	1.534
MS.293         	12.215         	1.575
MS.294         	12.19          	1.635
MS.295         	12.165         	1.57
MS.296         	12.14          	1.428
MS.297         	12.115         	1.371
MS.298         	12.09          	1.169
MS.299         	12.07          	1.449
MS.300         	12.045         	1.281
MS.301         	12.02          	1.307
MS.302         	11.995         	1.117
MS.303         	11.97          	1.404
MS.304         	11.945         	1.338
MS.305         	11.925         	0.977
MS.306         	11.9           	0.964
MS.307         	11.875         	1.042
MS.308         	11.85          	1.046
MS.309         	11.83          	1.202
MS.310         	11.805         	0.997
MS.311         	11.78          	0.751
MS.312         	11.76          	0.888
MS.313         	11.735         	0.873
MS.314         	11.71          	0.729
MS.315         	11.685         	0.78
MS.316         	11.665         	0.723
MS.317         	11.64          	0.74
MS.318         	11.62          	0.683
MS.319         	11.595         	0.585
MS.320         	11.57          	0.674
MS.321         	11.55          	0.533
MS.322         	11.525         	0.593
MS.323         	11.5           	0.552
MS.324         	11.48          	0.507
MS.325         	11.455         	0.559
MS.326         	11.435         	0.53
MS.327         	11.41          	0.551
MS.328         	11.39          	0.588
MS.329         	11.365         	0.474
MS.330         	11.34          	0.333
MS.331         	11.32          	0.348
MS.332         	11.295         	0.514
MS.333         	11.275         	0.478
MS.334         	11.25          	0.464
MS.335         	11.23          	0.495
MS.336         	11.205         	0.515
MS.337         	11.185         	0.459
MS.338         	11.16          	0.437
MS.339         	11.14          	0.452
MS.340         	11.115         	0.262
MS.341         	11.095         	0.323
MS.342         	11.075         	0.353
MS.343         	11.05          	0.253
MS.344         	11.03          	0.269
MS.345         	11.005         	0.407
MS.346         	10.985         	0.268
MS.347         	10.965         	0.193
MS.348         	10.94          	0.331
MS.349         	10.92          	0.236
MS.350         	10.895         	0.222
MS.351         	10.875         	0.211
MS.352         	10.855         	0.238
MS.353         	10.83          	0.195
MS.354         	10.81          	0.19
MS.355         	10.79          	0.244
MS.356         	10.765         	0.117
MS.357         	10.745         	0.25
MS.358         	10.725         	0.178
MS.359         	10.705         	0.227
MS.360         	10.68          	0.18
MS.361         	10.66          	0.12
MS.362         	10.64          	0.131
MS.363         	10.62          	0.155
MS.364         	10.595         	0.031
MS.365         	10.575         	0.136
MS.366         	10.555         	0.115
MS.367         	10.535         	0.15
MS.368         	10.51          	0.133
MS.369         	10.49          	0.126
MS.370         	10.47          	0.06
MS.371         	10.45          	0.144
MS.372         	10.43          	0.135
MS.373         	10.405         	0.067
MS.374         	10.385         	0.054
MS.375         	10.365         	0.069
MS.376         	10.345         	0.047
MS.377         	10.325         	0.073
MS.378         	10.305         	0.035
MS.379         	10.285         	0.059
MS.380         	10.265         	0.07
MS.381         	10.24          	0.04
MS.382         	10.22          	0.032
MS.383         	10.2           	0.05
MS.384         	10.18          	0.04
MS.385         	10.16          	0.042
MS.386         	10.14          	0.046
MS.387         	10.12          	0.049
MS.388         	10.1           	0.045
MS.389         	10.08          	0.059
MS.390         	10.06          	0.038
MS.391         	10.04          	0.056
MS.392         	10.02          	0.054
MS.393         	10             	0.042
MS.394         	9.98           	0.06
MS.395         	9.96           	0.063
MS.396         	9.94           	0.048
MS.397         	9.92           	0.049
MS.398         	9.9            	0.051
MS.399         	9.88           	0.062
MS.400         	9.86           	0.059
MS.401         	9.84           	0.058
MS.402         	9.82           	0.052
MS.403         	9.8            	0.052
MS.404         	9.78           	0.043
MS.405         	9.76           	0.052
MS.406         	9.745          	0.042
MS.407         	9.725          	0.056
MS.408         	9.705          	0.045
MS.409         	9.685          	0.038
MS.410         	9.665          	0.05
MS.411         	9.645          	0.06
MS.412         	9.625          	0.046
MS.413         	9.605          	0.059
MS.414         	9.59           	0.042
MS.415         	9.57           	0.042
MS.416         	9.55           	0.044
MS.417         	9.53           	0.063
MS.418         	9.51           	0.026
MS.419         	9.495          	0.052
MS.420         	9.475          	0.051
MS.421         	9.455          	0.062
MS.422         	9.435          	0.05
MS.423         	9.415          	0.043
MS.424         	9.4            	0.067
MS.425         	9.38           	0.056
MS.426         	9.36           	0.05
MS.427         	9.34           	0.049
MS.428         	9.325          	0.062
MS.429         	9.305          	0.052
MS.430         	9.285          	0.049
MS.431         	9.27           	0.053
MS.432         	9.25           	0.051
MS.433         	9.23           	0.062
MS.434         	9.21           	0.063
MS.435         	9.195          	0.046
MS.436         	9.175          	0.053
MS.437         	9.155          	0.056
MS.438         	9.14           	0.052
MS.439         	9.12           	0.028
MS.440         	9.1            	0.051
MS.441         	9.085          	0.057
MS.442         	9.065          	0.068
MS.443         	9.05           	0.048
MS.444         	9.03           	0.056
MS.445         	9.01           	0.054
MS.446         	8.995          	0.052
MS.447         	8.975          	0.053
MS.448         	8.96           	0.048
MS.449         	8.94           	0.031
MS.450         	8.92           	0.052
MS.451         	8.905          	0.049
MS.452         	8.885          	0.046
MS.453         	8.87           	0.06
MS.454         	8.85           	0.051
MS.455         	8.835          	0.057
MS.456         	8.815          	0.052
MS.457         	8.8            	0.054
MS.458         	8.78           	0.052
MS.459         	8.765          	0.052
MS.460         	8.745          	0.053
MS.461         	8.73           	0.059
DERIVED EXCITABILITY VARIABLES
Program = QTracP 20/9/2019
Threshold method = 6 (optimised for CAP, using data for present condition only)
SR method = 1 (using actual data values)
6.                 	0.000               	Peak response\(mV)
9.                 	39.2                	Temperature ( C)
17.                	73                  	Age (years)
18.                	1                   	Sex (M=1, F=2)

EXTRA VARIABLES

MScPeak(mV) = 5.82
MScS5(mA) = 11.03
MScS50(mA) = 13.55
MScS95(mA) = 16.08
MScNSteps = 6
MScSteps(%) = 19.1
MScStepMax(%) = 4.9
MScD50 = 32
Height = 174
MSFPeakAmp(mV) = 5.78
MSFNUnits = 83
MSFMeanUnitAmp(uV) = 69.7
MSFHuntTime(m) = 1.63
MSFError(%) = 5.86
MSFNLarge = 26.93
MSFMedianAmp(%) = 1.1
MSFMedianAmp(mV) = 0.0637
MSFHalfAmpAmp(%) = 1.4
MSFHalfAmpAmp(mV) = 0.081
MSFLargestAmp(%) = 2.51
MSFLargestAmp(mV) = 0.145
MSFMeanRS(%) = 2
MSFOpts = 10106121
MScDuration(min) = 4.2
MSFTraces = 353
MSFSizeLimit(uV) = 14.5
MSFLimitType = 1
MSFSmallestAmp(uV) = 16.4

EXTRA WAVEFORMS


!MScan Model
!83
	1	10.32	0.28	2
	2	10.5	0.7	2
	3	10.66	0.88	2
	4	10.78	0.67	2
	5	10.91	0.89	2
	6	10.99	0.76	2
	7	11.06	0.79	2
	8	11.21	1.44	2
	9	11.41	1.87	2
	10	11.48	0.53	2
	11	11.52	0.61	2
	12	11.55	0.49	2
	13	11.57	0.45	2
	14	11.6	0.57	2
	15	11.62	0.64	2
	16	11.65	0.71	2
	17	11.69	0.74	2
	18	11.72	0.73	2
	19	11.76	0.99	2
	20	11.81	1.4	2
	21	11.86	1.15	2
	22	11.92	1.4	2
	23	11.97	1.56	2
	24	12.02	1.32	2
	25	12.07	0.96	2
	26	12.11	1.07	2
	27	12.18	1.51	2
	28	12.24	1.1	2
	29	12.34	2.28	2
	30	12.41	1.18	2
	31	12.49	1.45	2
	32	12.58	1.4	2
	33	12.7	2.44	2
