File:              	C:\Qtrac\Data\CKMC01029B.QZD
Name:              	RHS04
Protocol:          	MSCAN-R2
Date:              	29/10/20
Start time:        	10:13:29
Age:               	63
Sex:               	F
Temperature:       	38.5
S/R sites:         	RUln Wr-ADQ
NC/disease:        	NC
Operator:          	CK
Comments:          	1
M-SCAN DATA (8-1.6m)
Scanpts: 267, 279, 672, 691
Stim. (mA)     	Amp. (mV)
MS.1           	19             	6.248
MS.2           	19             	6.18
MS.3           	19             	6.145
MS.4           	19             	6.146
MS.5           	19             	6.176
MS.6           	19             	6.222
MS.7           	19             	6.124
MS.8           	19             	6.133
MS.9           	19             	6.126
MS.10          	19             	6.152
MS.11          	19             	6.091
MS.12          	19             	6.136
MS.13          	19             	6.128
MS.14          	19             	6.103
MS.15          	19             	6.125
MS.16          	19             	6.099
MS.17          	19             	6.093
MS.18          	19             	6.118
MS.19          	19             	6.098
MS.20          	19             	6.089
MS.21          	19             	6.058
MS.22          	19             	6.179
MS.23          	19             	6.09
MS.24          	18.925         	6.201
MS.25          	18.885         	6.051
MS.26          	18.85          	6.142
MS.27          	18.81          	6.229
MS.28          	18.775         	6.07
MS.29          	18.735         	6.057
MS.30          	18.7           	6.14
MS.31          	18.66          	6.05
MS.32          	18.625         	6.076
MS.33          	18.585         	6.121
MS.34          	18.55          	6.053
MS.35          	18.51          	6.11
MS.36          	18.475         	6.033
MS.37          	18.44          	6.057
MS.38          	18.4           	6.054
MS.39          	18.365         	6.042
MS.40          	18.33          	6.033
MS.41          	18.29          	6.003
MS.42          	18.255         	6.028
MS.43          	18.22          	6.038
MS.44          	18.18          	6.14
MS.45          	18.145         	6.056
MS.46          	18.11          	6.016
MS.47          	18.075         	6.059
MS.48          	18.035         	6.006
MS.49          	18             	6.014
MS.50          	17.965         	6.118
MS.51          	17.93          	5.996
MS.52          	17.895         	6.003
MS.53          	17.86          	6.025
MS.54          	17.82          	5.968
MS.55          	17.785         	6.036
MS.56          	17.75          	6.004
MS.57          	17.715         	6.223
MS.58          	17.68          	6.028
MS.59          	17.645         	6.019
MS.60          	17.61          	5.989
MS.61          	17.575         	5.979
MS.62          	17.54          	5.93
MS.63          	17.505         	6.082
MS.64          	17.47          	5.969
MS.65          	17.435         	6.01
MS.66          	17.4           	6.006
MS.67          	17.365         	5.978
MS.68          	17.33          	5.941
MS.69          	17.295         	6.129
MS.70          	17.26          	6.043
MS.71          	17.225         	5.974
MS.72          	17.19          	5.962
MS.73          	17.155         	6.004
MS.74          	17.125         	5.997
MS.75          	17.09          	5.986
MS.76          	17.055         	6.008
MS.77          	17.02          	5.986
MS.78          	16.985         	6.003
MS.79          	16.955         	5.961
MS.80          	16.92          	6.071
MS.81          	16.885         	5.935
MS.82          	16.85          	5.935
MS.83          	16.82          	5.96
MS.84          	16.785         	5.953
MS.85          	16.75          	5.995
MS.86          	16.715         	5.919
MS.87          	16.685         	5.976
MS.88          	16.65          	5.942
MS.89          	16.615         	5.984
MS.90          	16.585         	5.936
MS.91          	16.55          	5.963
MS.92          	16.52          	5.936
MS.93          	16.485         	5.922
MS.94          	16.45          	5.927
MS.95          	16.42          	5.931
MS.96          	16.385         	5.955
MS.97          	16.355         	5.996
MS.98          	16.32          	5.912
MS.99          	16.29          	6.069
MS.100         	16.255         	5.948
MS.101         	16.225         	6.043
MS.102         	16.19          	6.01
MS.103         	16.16          	5.933
MS.104         	16.125         	5.945
MS.105         	16.095         	5.937
MS.106         	16.06          	5.914
MS.107         	16.03          	6.032
MS.108         	16             	5.906
MS.109         	15.965         	5.95
MS.110         	15.935         	5.942
MS.111         	15.9           	5.9
MS.112         	15.87          	5.919
MS.113         	15.84          	5.916
MS.114         	15.805         	5.906
MS.115         	15.775         	5.934
MS.116         	15.745         	6.024
MS.117         	15.71          	5.924
MS.118         	15.68          	5.937
MS.119         	15.65          	5.927
MS.120         	15.62          	5.961
MS.121         	15.585         	5.938
MS.122         	15.555         	5.923
MS.123         	15.525         	5.945
MS.124         	15.495         	5.958
MS.125         	15.465         	5.943
MS.126         	15.43          	5.926
MS.127         	15.4           	5.921
MS.128         	15.37          	5.92
MS.129         	15.34          	5.912
MS.130         	15.31          	5.92
MS.131         	15.28          	6.022
MS.132         	15.25          	5.915
MS.133         	15.215         	5.927
MS.134         	15.185         	5.894
MS.135         	15.155         	5.934
MS.136         	15.125         	5.922
MS.137         	15.095         	5.911
MS.138         	15.065         	5.918
MS.139         	15.035         	5.897
MS.140         	15.005         	5.895
MS.141         	14.975         	5.884
MS.142         	14.945         	5.903
MS.143         	14.915         	5.916
MS.144         	14.885         	5.902
MS.145         	14.855         	5.851
MS.146         	14.825         	5.873
MS.147         	14.795         	5.886
MS.148         	14.77          	5.861
MS.149         	14.74          	5.871
MS.150         	14.71          	5.875
MS.151         	14.68          	5.903
MS.152         	14.65          	5.886
MS.153         	14.62          	5.903
MS.154         	14.59          	5.881
MS.155         	14.56          	5.884
MS.156         	14.535         	5.922
MS.157         	14.505         	5.889
MS.158         	14.475         	5.875
MS.159         	14.445         	5.901
MS.160         	14.415         	5.876
MS.161         	14.39          	5.872
MS.162         	14.36          	5.883
MS.163         	14.33          	5.896
MS.164         	14.305         	5.862
MS.165         	14.275         	5.868
MS.166         	14.245         	5.888
MS.167         	14.215         	5.879
MS.168         	14.19          	5.87
MS.169         	14.16          	5.867
MS.170         	14.13          	5.856
MS.171         	14.105         	5.883
MS.172         	14.075         	5.863
MS.173         	14.045         	5.859
MS.174         	14.02          	5.836
MS.175         	13.99          	5.837
MS.176         	13.965         	5.805
MS.177         	13.935         	5.845
MS.178         	13.91          	5.802
MS.179         	13.88          	5.812
MS.180         	13.85          	5.82
MS.181         	13.825         	5.825
MS.182         	13.795         	5.833
MS.183         	13.77          	5.85
MS.184         	13.74          	5.839
MS.185         	13.715         	5.846
MS.186         	13.685         	5.801
MS.187         	13.66          	5.826
MS.188         	13.63          	5.817
MS.189         	13.605         	5.825
MS.190         	13.58          	5.847
MS.191         	13.55          	5.811
MS.192         	13.525         	5.821
MS.193         	13.495         	5.794
MS.194         	13.47          	5.811
MS.195         	13.445         	5.807
MS.196         	13.415         	5.796
MS.197         	13.39          	5.82
MS.198         	13.36          	5.806
MS.199         	13.335         	5.803
MS.200         	13.31          	5.835
MS.201         	13.28          	5.812
MS.202         	13.255         	5.776
MS.203         	13.23          	5.833
MS.204         	13.205         	5.813
MS.205         	13.175         	5.784
MS.206         	13.15          	5.814
MS.207         	13.125         	5.76
MS.208         	13.1           	5.792
MS.209         	13.07          	5.817
MS.210         	13.045         	5.798
MS.211         	13.02          	5.829
MS.212         	12.995         	5.819
MS.213         	12.965         	5.848
MS.214         	12.94          	5.797
MS.215         	12.915         	5.797
MS.216         	12.89          	5.834
MS.217         	12.865         	5.803
MS.218         	12.84          	5.784
MS.219         	12.815         	5.786
MS.220         	12.785         	5.809
MS.221         	12.76          	5.84
MS.222         	12.735         	5.804
MS.223         	12.71          	5.795
MS.224         	12.685         	5.798
MS.225         	12.66          	5.802
MS.226         	12.635         	5.842
MS.227         	12.61          	5.845
MS.228         	12.585         	5.859
MS.229         	12.56          	5.812
MS.230         	12.535         	5.812
MS.231         	12.51          	5.836
MS.232         	12.485         	5.836
MS.233         	12.46          	5.828
MS.234         	12.435         	5.823
MS.235         	12.41          	5.823
MS.236         	12.385         	5.821
MS.237         	12.36          	5.84
MS.238         	12.335         	5.829
MS.239         	12.31          	5.863
MS.240         	12.285         	5.831
MS.241         	12.26          	5.825
MS.242         	12.235         	5.818
MS.243         	12.21          	5.839
MS.244         	12.19          	5.852
MS.245         	12.165         	5.842
MS.246         	12.14          	5.821
MS.247         	12.115         	5.848
MS.248         	12.09          	5.864
MS.249         	12.065         	5.87
MS.250         	12.04          	5.842
MS.251         	12.02          	5.846
MS.252         	11.995         	5.844
MS.253         	11.97          	5.845
MS.254         	11.945         	5.892
MS.255         	11.925         	5.867
MS.256         	11.9           	5.845
MS.257         	11.875         	5.838
MS.258         	11.85          	5.892
MS.259         	11.83          	5.878
MS.260         	11.805         	5.881
MS.261         	11.78          	5.866
MS.262         	11.755         	5.866
MS.263         	11.735         	5.877
MS.264         	11.71          	5.867
MS.265         	11.685         	5.883
MS.266         	11.665         	5.878
MS.267         	11.64          	5.897
MS.268         	11.615         	5.898
MS.269         	11.595         	5.895
MS.270         	11.57          	5.898
MS.271         	11.545         	5.916
MS.272         	11.525         	5.911
MS.273         	11.5           	5.898
MS.274         	11.48          	5.898
MS.275         	11.455         	5.908
MS.276         	11.43          	5.84
MS.277         	11.41          	5.905
MS.278         	11.385         	5.837
MS.279         	11.365         	5.915
MS.280         	11.34          	5.917
MS.281         	11.32          	5.901
MS.282         	11.295         	5.881
MS.283         	11.275         	5.923
MS.284         	11.25          	5.87
MS.285         	11.23          	5.873
MS.286         	11.205         	5.872
MS.287         	11.185         	5.886
MS.288         	11.16          	5.883
MS.289         	11.14          	5.896
MS.290         	11.115         	5.96
MS.291         	11.095         	5.897
MS.292         	11.07          	5.889
MS.293         	11.05          	5.92
MS.294         	11.03          	5.888
MS.295         	11.005         	5.921
MS.296         	10.985         	5.924
MS.297         	10.96          	5.92
MS.298         	10.94          	5.928
MS.299         	10.92          	5.871
MS.300         	10.895         	5.911
MS.301         	10.875         	5.892
MS.302         	10.855         	5.788
MS.303         	10.83          	5.894
MS.304         	10.81          	5.794
MS.305         	10.79          	5.889
MS.306         	10.765         	5.786
MS.307         	10.745         	5.881
MS.308         	10.725         	5.911
MS.309         	10.7           	5.947
MS.310         	10.68          	5.749
MS.311         	10.66          	5.746
MS.312         	10.64          	5.864
MS.313         	10.615         	5.469
MS.314         	10.595         	5.767
MS.315         	10.575         	5.704
MS.316         	10.555         	5.75
MS.317         	10.53          	5.74
MS.318         	10.51          	5.743
MS.319         	10.49          	5.744
MS.320         	10.47          	5.409
MS.321         	10.45          	5.809
MS.322         	10.425         	5.377
MS.323         	10.405         	5.468
MS.324         	10.385         	5.696
MS.325         	10.365         	5.396
MS.326         	10.345         	5.418
MS.327         	10.325         	5.424
MS.328         	10.305         	5.383
MS.329         	10.28          	5.382
MS.330         	10.26          	5.39
MS.331         	10.24          	5.421
MS.332         	10.22          	5.441
MS.333         	10.2           	5.389
MS.334         	10.18          	5.458
MS.335         	10.16          	5.428
MS.336         	10.14          	5.496
MS.337         	10.12          	5.494
MS.338         	10.1           	5.504
MS.339         	10.08          	5.5
MS.340         	10.06          	5.493
MS.341         	10.04          	5.539
MS.342         	10.02          	5.536
MS.343         	10             	5.545
MS.344         	9.98           	5.486
MS.345         	9.96           	5.505
MS.346         	9.94           	5.559
MS.347         	9.92           	5.534
MS.348         	9.9            	5.551
MS.349         	9.88           	5.547
MS.350         	9.86           	5.542
MS.351         	9.84           	5.557
MS.352         	9.82           	5.565
MS.353         	9.8            	5.552
MS.354         	9.78           	5.547
MS.355         	9.76           	5.583
MS.356         	9.74           	5.549
MS.357         	9.72           	5.529
MS.358         	9.705          	5.539
MS.359         	9.685          	5.577
MS.360         	9.665          	5.403
MS.361         	9.645          	5.601
MS.362         	9.625          	5.526
MS.363         	9.605          	5.598
MS.364         	9.585          	5.607
MS.365         	9.57           	5.626
MS.366         	9.55           	5.51
MS.367         	9.53           	5.472
MS.368         	9.51           	5.406
MS.369         	9.49           	5.424
MS.370         	9.475          	5.388
MS.371         	9.455          	5.581
MS.372         	9.435          	5.412
MS.373         	9.415          	5.453
MS.374         	9.395          	5.436
MS.375         	9.38           	5.279
MS.376         	9.36           	5.441
MS.377         	9.34           	5.253
MS.378         	9.325          	5.336
MS.379         	9.305          	5.228
MS.380         	9.285          	5.267
MS.381         	9.265          	5.288
MS.382         	9.25           	5.009
MS.383         	9.23           	5.193
MS.384         	9.21           	5.117
MS.385         	9.195          	5.284
MS.386         	9.175          	5.067
MS.387         	9.155          	5.161
MS.388         	9.14           	5.038
MS.389         	9.12           	4.969
MS.390         	9.1            	4.938
MS.391         	9.085          	5.065
MS.392         	9.065          	5.102
MS.393         	9.045          	4.901
MS.394         	9.03           	5.002
MS.395         	9.01           	5.093
MS.396         	8.995          	4.973
MS.397         	8.975          	4.961
MS.398         	8.955          	4.998
MS.399         	8.94           	4.971
MS.400         	8.92           	5.038
MS.401         	8.905          	4.909
MS.402         	8.885          	4.949
MS.403         	8.87           	4.963
MS.404         	8.85           	4.924
MS.405         	8.83           	4.907
MS.406         	8.815          	4.954
MS.407         	8.795          	4.869
MS.408         	8.78           	4.852
MS.409         	8.76           	4.793
MS.410         	8.745          	4.724
MS.411         	8.725          	4.836
MS.412         	8.71           	4.849
MS.413         	8.69           	4.708
MS.414         	8.675          	4.779
MS.415         	8.66           	4.683
MS.416         	8.64           	4.728
MS.417         	8.625          	4.634
MS.418         	8.605          	4.661
MS.419         	8.59           	4.686
MS.420         	8.57           	4.654
MS.421         	8.555          	4.491
MS.422         	8.535          	4.623
MS.423         	8.52           	4.372
MS.424         	8.505          	4.389
MS.425         	8.485          	4.371
MS.426         	8.47           	4.326
MS.427         	8.45           	4.216
MS.428         	8.435          	4.14
MS.429         	8.42           	4.104
MS.430         	8.4            	4.368
MS.431         	8.385          	4.177
MS.432         	8.37           	4.207
MS.433         	8.35           	4.066
MS.434         	8.335          	4.018
MS.435         	8.32           	3.802
MS.436         	8.3            	4.5
MS.437         	8.285          	4.307
MS.438         	8.27           	3.974
MS.439         	8.25           	3.796
MS.440         	8.235          	3.6
MS.441         	8.22           	4.05
MS.442         	8.2            	3.785
MS.443         	8.185          	3.306
MS.444         	8.17           	3.476
MS.445         	8.155          	3.295
MS.446         	8.135          	3.342
MS.447         	8.12           	3.048
MS.448         	8.105          	3.24
MS.449         	8.09           	2.89
MS.450         	8.07           	2.833
MS.451         	8.055          	3.241
MS.452         	8.04           	2.808
MS.453         	8.025          	2.642
MS.454         	8.01           	2.661
MS.455         	7.99           	2.657
MS.456         	7.975          	2.504
MS.457         	7.96           	2.817
MS.458         	7.945          	2.733
MS.459         	7.93           	2.773
MS.460         	7.91           	2.703
MS.461         	7.895          	2.72
MS.462         	7.88           	2.139
MS.463         	7.865          	2.52
MS.464         	7.85           	2.318
MS.465         	7.835          	2.393
MS.466         	7.82           	2.549
MS.467         	7.8            	2.114
MS.468         	7.785          	2.261
MS.469         	7.77           	2.021
MS.470         	7.755          	2.004
MS.471         	7.74           	1.979
MS.472         	7.725          	2.007
MS.473         	7.71           	2.144
MS.474         	7.695          	2.228
MS.475         	7.68           	1.969
MS.476         	7.665          	1.891
MS.477         	7.65           	1.617
MS.478         	7.635          	2.012
MS.479         	7.615          	2.039
MS.480         	7.6            	1.952
MS.481         	7.585          	2.037
MS.482         	7.57           	2.101
MS.483         	7.555          	1.862
MS.484         	7.54           	1.812
MS.485         	7.525          	1.646
MS.486         	7.51           	1.815
MS.487         	7.495          	1.629
MS.488         	7.48           	1.648
MS.489         	7.465          	1.495
MS.490         	7.45           	1.428
MS.491         	7.435          	1.529
MS.492         	7.42           	1.343
MS.493         	7.405          	1.472
MS.494         	7.39           	1.259
MS.495         	7.375          	1.379
MS.496         	7.365          	1.382
MS.497         	7.35           	1.176
MS.498         	7.335          	1.163
MS.499         	7.32           	1.079
MS.500         	7.305          	1.067
MS.501         	7.29           	1.161
MS.502         	7.275          	1.255
MS.503         	7.26           	0.989
