File:              	C:\Qtrac\Data\CKMC01029D.QZD
Name:              	RHS04
Protocol:          	MSCAN-R2
Date:              	29/10/20
Start time:        	10:50:30
Age:               	63
Sex:               	F
Temperature:       	35.0
S/R sites:         	RPer FH-AT
NC/disease:        	NC
Operator:          	CK
Comments:
M-SCAN DATA (8.7-1.6m)
Scanpts: 13, 20, 728, 748
Stim. (mA)     	Amp. (mV)
MS.1           	73             	5.483
MS.2           	73             	5.466
MS.3           	73             	5.481
MS.4           	73             	5.441
MS.5           	73             	5.475
MS.6           	73             	5.456
MS.7           	73             	5.43
MS.8           	73             	5.421
MS.9           	73             	5.493
MS.10          	73             	5.482
MS.11          	73             	5.471
MS.12          	73             	5.458
MS.13          	73             	5.524
MS.14          	73             	5.443
MS.15          	73             	5.491
MS.16          	73             	5.528
MS.17          	73             	5.41
MS.18          	73             	5.488
MS.19          	73             	5.493
MS.20          	73             	5.513
MS.21          	73             	5.465
MS.22          	73             	5.486
MS.23          	73             	5.467
MS.24          	72.71          	5.505
MS.25          	72.565         	5.513
MS.26          	72.42          	5.492
MS.27          	72.275         	5.432
MS.28          	72.13          	5.464
MS.29          	71.985         	5.416
MS.30          	71.84          	5.429
MS.31          	71.695         	5.423
MS.32          	71.555         	5.472
MS.33          	71.41          	5.434
MS.34          	71.27          	5.391
MS.35          	71.125         	5.397
MS.36          	70.985         	5.363
MS.37          	70.84          	5.367
MS.38          	70.7           	5.395
MS.39          	70.56          	5.383
MS.40          	70.42          	5.367
MS.41          	70.28          	5.374
MS.42          	70.135         	5.3
MS.43          	69.995         	5.364
MS.44          	69.855         	5.356
MS.45          	69.72          	5.273
MS.46          	69.58          	5.369
MS.47          	69.44          	5.254
MS.48          	69.3           	5.33
MS.49          	69.16          	5.239
MS.50          	69.025         	5.255
MS.51          	68.885         	5.284
MS.52          	68.75          	5.271
MS.53          	68.61          	5.243
MS.54          	68.475         	5.351
MS.55          	68.335         	5.258
MS.56          	68.2           	5.23
MS.57          	68.065         	5.257
MS.58          	67.93          	5.247
MS.59          	67.795         	5.23
MS.60          	67.655         	5.204
MS.61          	67.52          	5.231
MS.62          	67.385         	5.218
MS.63          	67.255         	5.22
MS.64          	67.12          	5.219
MS.65          	66.985         	5.169
MS.66          	66.85          	5.171
MS.67          	66.715         	5.148
MS.68          	66.585         	5.209
MS.69          	66.45          	5.234
MS.70          	66.32          	5.223
MS.71          	66.185         	5.208
MS.72          	66.055         	5.202
MS.73          	65.92          	5.231
MS.74          	65.79          	5.221
MS.75          	65.66          	5.156
MS.76          	65.525         	5.122
MS.77          	65.395         	5.15
MS.78          	65.265         	5.218
MS.79          	65.135         	5.154
MS.80          	65.005         	5.177
MS.81          	64.875         	5.16
MS.82          	64.745         	5.192
MS.83          	64.615         	5.149
MS.84          	64.485         	5.193
MS.85          	64.36          	5.159
MS.86          	64.23          	5.166
MS.87          	64.1           	5.181
MS.88          	63.975         	5.15
MS.89          	63.845         	5.143
MS.90          	63.715         	5.132
MS.91          	63.59          	5.139
MS.92          	63.465         	5.176
MS.93          	63.335         	5.145
MS.94          	63.21          	5.116
MS.95          	63.085         	5.099
MS.96          	62.955         	5.122
MS.97          	62.83          	5.134
MS.98          	62.705         	5.124
MS.99          	62.58          	5.054
MS.100         	62.455         	5.133
MS.101         	62.33          	5.09
MS.102         	62.205         	5.148
MS.103         	62.08          	5.203
MS.104         	61.96          	5.171
MS.105         	61.835         	5.151
MS.106         	61.71          	5.154
MS.107         	61.585         	5.151
MS.108         	61.465         	5.126
MS.109         	61.34          	5.174
MS.110         	61.22          	5.08
MS.111         	61.095         	5.081
MS.112         	60.975         	5.057
MS.113         	60.855         	5.042
MS.114         	60.73          	5.048
MS.115         	60.61          	5.003
MS.116         	60.49          	5.06
MS.117         	60.37          	5.056
MS.118         	60.245         	5.013
MS.119         	60.125         	5.051
MS.120         	60.005         	5.034
MS.121         	59.885         	4.984
MS.122         	59.765         	5.047
MS.123         	59.65          	5.02
MS.124         	59.53          	5.062
MS.125         	59.41          	5.009
MS.126         	59.29          	4.991
MS.127         	59.17          	5.023
MS.128         	59.055         	4.972
MS.129         	58.935         	4.999
MS.130         	58.82          	4.847
MS.131         	58.7           	4.947
MS.132         	58.585         	4.877
MS.133         	58.465         	4.835
MS.134         	58.35          	4.875
MS.135         	58.235         	4.819
MS.136         	58.115         	4.938
MS.137         	58             	4.786
MS.138         	57.885         	4.827
MS.139         	57.77          	4.827
MS.140         	57.655         	4.796
MS.141         	57.54          	4.866
MS.142         	57.425         	4.722
MS.143         	57.31          	4.814
MS.144         	57.195         	4.773
MS.145         	57.08          	4.705
MS.146         	56.965         	4.671
MS.147         	56.85          	4.595
MS.148         	56.74          	4.693
MS.149         	56.625         	4.734
MS.150         	56.51          	4.612
MS.151         	56.4           	4.521
MS.152         	56.285         	4.547
MS.153         	56.175         	4.557
MS.154         	56.06          	4.514
MS.155         	55.95          	4.414
MS.156         	55.84          	4.431
MS.157         	55.725         	4.487
MS.158         	55.615         	4.482
MS.159         	55.505         	4.46
MS.160         	55.395         	4.422
MS.161         	55.28          	4.332
MS.162         	55.17          	4.343
MS.163         	55.06          	4.343
MS.164         	54.95          	4.369
MS.165         	54.84          	4.345
MS.166         	54.73          	4.354
MS.167         	54.625         	4.369
MS.168         	54.515         	4.352
MS.169         	54.405         	4.282
MS.170         	54.295         	4.184
MS.171         	54.19          	4.244
MS.172         	54.08          	4.238
MS.173         	53.97          	4.261
MS.174         	53.865         	4.305
MS.175         	53.755         	4.479
MS.176         	53.65          	4.498
MS.177         	53.54          	4.47
MS.178         	53.435         	4.465
MS.179         	53.33          	4.502
MS.180         	53.22          	4.424
MS.181         	53.115         	4.388
MS.182         	53.01          	4.391
MS.183         	52.905         	4.341
MS.184         	52.795         	4.412
MS.185         	52.69          	4.286
MS.186         	52.585         	4.189
MS.187         	52.48          	4.194
MS.188         	52.375         	4.175
MS.189         	52.27          	4.136
MS.190         	52.165         	4.08
MS.191         	52.065         	4.126
MS.192         	51.96          	4.208
MS.193         	51.855         	4.108
MS.194         	51.75          	4.061
MS.195         	51.65          	3.976
MS.196         	51.545         	4.005
MS.197         	51.44          	4.045
MS.198         	51.34          	4.004
MS.199         	51.235         	3.964
MS.200         	51.135         	3.947
MS.201         	51.03          	4.028
MS.202         	50.93          	4.189
MS.203         	50.83          	4.2
MS.204         	50.725         	4.218
MS.205         	50.625         	4.14
MS.206         	50.525         	4.146
MS.207         	50.425         	4.161
MS.208         	50.325         	4.083
MS.209         	50.22          	4.078
MS.210         	50.12          	4.111
MS.211         	50.02          	4.008
MS.212         	49.92          	3.979
MS.213         	49.82          	4.021
MS.214         	49.72          	4.095
MS.215         	49.625         	4.059
MS.216         	49.525         	3.973
MS.217         	49.425         	4.031
MS.218         	49.325         	4.09
MS.219         	49.23          	3.936
MS.220         	49.13          	4.001
MS.221         	49.03          	3.974
MS.222         	48.935         	3.978
MS.223         	48.835         	3.993
MS.224         	48.74          	3.909
MS.225         	48.64          	3.884
MS.226         	48.545         	3.825
MS.227         	48.445         	3.813
MS.228         	48.35          	3.765
MS.229         	48.255         	3.813
MS.230         	48.155         	3.893
MS.231         	48.06          	3.775
MS.232         	47.965         	3.735
MS.233         	47.87          	3.631
MS.234         	47.775         	3.729
MS.235         	47.675         	3.747
MS.236         	47.58          	3.729
MS.237         	47.485         	3.667
MS.238         	47.39          	3.627
MS.239         	47.295         	3.656
MS.240         	47.205         	3.553
MS.241         	47.11          	3.635
MS.242         	47.015         	3.626
MS.243         	46.92          	3.528
MS.244         	46.825         	3.564
MS.245         	46.735         	3.62
MS.246         	46.64          	3.569
MS.247         	46.545         	3.576
MS.248         	46.455         	3.618
MS.249         	46.36          	3.499
MS.250         	46.27          	3.481
MS.251         	46.175         	3.496
MS.252         	46.085         	3.488
MS.253         	45.99          	3.563
MS.254         	45.9           	3.476
MS.255         	45.81          	3.543
MS.256         	45.715         	3.474
MS.257         	45.625         	3.456
MS.258         	45.535         	3.475
MS.259         	45.445         	3.437
MS.260         	45.35          	3.428
MS.261         	45.26          	3.397
MS.262         	45.17          	3.392
MS.263         	45.08          	3.347
MS.264         	44.99          	3.471
MS.265         	44.9           	3.331
MS.266         	44.81          	3.353
MS.267         	44.72          	3.326
MS.268         	44.63          	3.307
MS.269         	44.545         	3.425
MS.270         	44.455         	3.297
MS.271         	44.365         	3.26
MS.272         	44.275         	3.347
MS.273         	44.19          	3.344
MS.274         	44.1           	3.421
MS.275         	44.01          	3.273
MS.276         	43.925         	3.284
MS.277         	43.835         	3.284
MS.278         	43.75          	3.246
MS.279         	43.66          	3.251
MS.280         	43.575         	3.281
MS.281         	43.485         	3.231
MS.282         	43.4           	3.214
MS.283         	43.315         	3.155
MS.284         	43.225         	3.206
MS.285         	43.14          	3.259
MS.286         	43.055         	3.239
MS.287         	42.97          	3.111
MS.288         	42.88          	3.152
MS.289         	42.795         	3.134
MS.290         	42.71          	3.143
MS.291         	42.625         	3.169
MS.292         	42.54          	3.081
MS.293         	42.455         	3.074
MS.294         	42.37          	3.123
MS.295         	42.285         	3.151
MS.296         	42.2           	3.057
MS.297         	42.115         	3.023
MS.298         	42.035         	3.054
MS.299         	41.95          	3.06
MS.300         	41.865         	3.052
MS.301         	41.78          	3.033
MS.302         	41.7           	3.011
MS.303         	41.615         	3.009
MS.304         	41.53          	3.023
MS.305         	41.45          	2.991
MS.306         	41.365         	2.982
MS.307         	41.285         	2.949
MS.308         	41.2           	3.012
MS.309         	41.12          	2.947
MS.310         	41.035         	2.964
MS.311         	40.955         	2.958
MS.312         	40.87          	2.96
MS.313         	40.79          	2.967
MS.314         	40.71          	2.764
MS.315         	40.63          	2.874
MS.316         	40.545         	2.944
MS.317         	40.465         	2.906
MS.318         	40.385         	2.867
MS.319         	40.305         	2.816
MS.320         	40.225         	2.792
MS.321         	40.145         	2.809
MS.322         	40.065         	2.668
MS.323         	39.985         	2.812
MS.324         	39.905         	2.818
MS.325         	39.825         	2.778
MS.326         	39.745         	2.698
MS.327         	39.665         	2.749
MS.328         	39.585         	2.715
MS.329         	39.505         	2.662
MS.330         	39.425         	2.715
MS.331         	39.35          	2.664
MS.332         	39.27          	2.7
MS.333         	39.19          	2.606
MS.334         	39.115         	2.535
MS.335         	39.035         	2.716
MS.336         	38.955         	2.552
MS.337         	38.88          	2.562
MS.338         	38.8           	2.529
MS.339         	38.725         	2.599
MS.340         	38.645         	2.518
MS.341         	38.57          	2.51
MS.342         	38.49          	2.465
MS.343         	38.415         	2.596
MS.344         	38.34          	2.48
MS.345         	38.26          	2.492
MS.346         	38.185         	2.47
MS.347         	38.11          	2.425
MS.348         	38.035         	2.396
MS.349         	37.955         	2.326
MS.350         	37.88          	2.451
MS.351         	37.805         	2.368
MS.352         	37.73          	2.395
MS.353         	37.655         	2.324
MS.354         	37.58          	2.366
MS.355         	37.505         	2.316
MS.356         	37.43          	2.249
MS.357         	37.355         	2.288
MS.358         	37.28          	2.302
MS.359         	37.205         	2.225
MS.360         	37.13          	2.229
MS.361         	37.055         	2.202
MS.362         	36.985         	2.137
MS.363         	36.91          	2.141
MS.364         	36.835         	2.17
MS.365         	36.76          	2.13
MS.366         	36.69          	2.137
MS.367         	36.615         	2.103
MS.368         	36.54          	2.188
MS.369         	36.47          	2.135
MS.370         	36.395         	2.106
MS.371         	36.325         	2.023
MS.372         	36.25          	2.043
MS.373         	36.18          	2.03
MS.374         	36.105         	2.026
MS.375         	36.035         	2.016
MS.376         	35.96          	2.059
MS.377         	35.89          	1.988
MS.378         	35.82          	1.895
MS.379         	35.745         	1.904
MS.380         	35.675         	1.915
MS.381         	35.605         	1.962
MS.382         	35.535         	1.867
MS.383         	35.46          	1.913
MS.384         	35.39          	1.894
MS.385         	35.32          	1.848
MS.386         	35.25          	1.824
MS.387         	35.18          	1.872
MS.388         	35.11          	1.797
MS.389         	35.04          	1.851
MS.390         	34.97          	1.837
MS.391         	34.9           	1.81
MS.392         	34.83          	1.732
MS.393         	34.76          	1.722
MS.394         	34.69          	1.802
MS.395         	34.62          	1.749
MS.396         	34.55          	1.78
MS.397         	34.485         	1.723
MS.398         	34.415         	1.799
MS.399         	34.345         	1.758
MS.400         	34.275         	1.699
MS.401         	34.21          	1.731
MS.402         	34.14          	1.706
MS.403         	34.07          	1.675
MS.404         	34.005         	1.671
MS.405         	33.935         	1.69
MS.406         	33.865         	1.644
MS.407         	33.8           	1.625
MS.408         	33.73          	1.599
MS.409         	33.665         	1.537
MS.410         	33.6           	1.533
MS.411         	33.53          	1.597
MS.412         	33.465         	1.621
MS.413         	33.395         	1.606
MS.414         	33.33          	1.586
MS.415         	33.265         	1.55
MS.416         	33.195         	1.389
MS.417         	33.13          	1.62
MS.418         	33.065         	1.359
MS.419         	33             	1.503
MS.420         	32.93          	1.425
MS.421         	32.865         	1.345
MS.422         	32.8           	1.375
MS.423         	32.735         	1.307
MS.424         	32.67          	1.312
MS.425         	32.605         	1.493
MS.426         	32.54          	1.315
MS.427         	32.475         	1.323
MS.428         	32.41          	1.246
MS.429         	32.345         	1.238
MS.430         	32.28          	1.215
MS.431         	32.215         	1.157
MS.432         	32.15          	1.224
MS.433         	32.085         	1.147
MS.434         	32.025         	1.167
MS.435         	31.96          	1.143
MS.436         	31.895         	1.173
MS.437         	31.83          	1.154
MS.438         	31.77          	1.186
MS.439         	31.705         	1.147
MS.440         	31.64          	1.251
MS.441         	31.58          	1.297
MS.442         	31.515         	1.155
MS.443         	31.45          	1.073
MS.444         	31.39          	1.121
MS.445         	31.325         	1.102
MS.446         	31.265         	1.086
MS.447         	31.2           	0.984
MS.448         	31.14          	1.128
MS.449         	31.075         	1.052
MS.450         	31.015         	1.075
MS.451         	30.955         	1.065
MS.452         	30.89          	1.064
MS.453         	30.83          	1.042
MS.454         	30.765         	1.009
MS.455         	30.705         	1.023
MS.456         	30.645         	1.017
MS.457         	30.585         	1.03
MS.458         	30.52          	1.013
MS.459         	30.46          	0.986
MS.460         	30.4           	1.005
MS.461         	30.34          	1.002
MS.462         	30.28          	0.992
MS.463         	30.22          	1.021
MS.464         	30.16          	1.004
MS.465         	30.1           	0.952
MS.466         	30.04          	0.902
MS.467         	29.98          	0.928
MS.468         	29.92          	0.948
MS.469         	29.86          	0.953
MS.470         	29.8           	0.997
MS.471         	29.74          	0.886
MS.472         	29.68          	0.918
MS.473         	29.62          	0.928
MS.474         	29.56          	0.896
MS.475         	29.5           	0.897
MS.476         	29.445         	0.895
MS.477         	29.385         	0.903
MS.478         	29.325         	0.941
MS.479         	29.265         	0.958
MS.480         	29.21          	0.837
MS.481         	29.15          	0.828
MS.482         	29.09          	0.817
MS.483         	29.035         	0.91
MS.484         	28.975         	0.822
MS.485         	28.92          	0.903
MS.486         	28.86          	0.769
MS.487         	28.8           	0.814
MS.488         	28.745         	0.786
MS.489         	28.685         	0.836
MS.490         	28.63          	0.779
MS.491         	28.575         	0.773
MS.492         	28.515         	0.773
MS.493         	28.46          	0.797
MS.494         	28.4           	0.777
MS.495         	28.345         	0.737
MS.496         	28.29          	0.756
MS.497         	28.23          	0.754
MS.498         	28.175         	0.756
MS.499         	28.12          	0.665
MS.500         	28.065         	0.713
MS.501         	28.005         	0.65
MS.502         	27.95          	0.693
MS.503         	27.895         	0.738
