File:              	C:\Qtrac\Data\Daniel M Sørensen\MScan multicentre study\Data from centres\Copenhagen\Processed data\RHS01MED01.QZD
Name:              	DK.COP.NC.1.1
Protocol:          	MSCAN-R2
Date:              	22/9/20
Start time:        	14:10:08
Age:               	58
Sex:               	M
Temperature:       	38.4
S/R sites:         	APB
NC/disease:        	NC
Operator:          	CK
Comments:          	CK
M-SCAN DATA (6-1.5m)
Scanpts: 84, 91, 457, 461
Stim. (mA)     	Amp. (mV)
MS.1           	22             	10.742
MS.2           	22             	10.686
MS.3           	22             	10.646
MS.4           	22             	10.738
MS.5           	22             	10.701
MS.6           	22             	10.753
MS.7           	22             	10.803
MS.8           	22             	10.806
MS.9           	22             	10.96
MS.10          	22             	10.927
MS.11          	22             	10.97
MS.12          	22             	10.988
MS.13          	22             	10.944
MS.14          	22             	10.912
MS.15          	22             	10.913
MS.16          	22             	11.02
MS.17          	22             	11.014
MS.18          	22             	10.982
MS.19          	22             	11.082
MS.20          	22             	11.098
MS.21          	22             	11.165
MS.22          	22             	11.07
MS.23          	22             	10.602
MS.24          	21.91          	10.629
MS.25          	21.87          	10.634
MS.26          	21.825         	10.696
MS.27          	21.78          	10.674
MS.28          	21.735         	10.719
MS.29          	21.695         	10.703
MS.30          	21.65          	10.765
MS.31          	21.605         	10.825
MS.32          	21.565         	10.916
MS.33          	21.52          	10.754
MS.34          	21.48          	10.658
MS.35          	21.435         	10.623
MS.36          	21.39          	10.71
MS.37          	21.35          	10.654
MS.38          	21.305         	10.818
MS.39          	21.265         	10.805
MS.40          	21.22          	10.887
MS.41          	21.18          	10.878
MS.42          	21.135         	10.815
MS.43          	21.095         	10.809
MS.44          	21.055         	10.948
MS.45          	21.01          	10.863
MS.46          	20.97          	11.052
MS.47          	20.925         	11.057
MS.48          	20.885         	10.889
MS.49          	20.845         	10.941
MS.50          	20.8           	10.876
MS.51          	20.76          	10.954
MS.52          	20.72          	10.896
MS.53          	20.675         	10.849
MS.54          	20.635         	10.98
MS.55          	20.595         	11.084
MS.56          	20.555         	11.171
MS.57          	20.515         	11.162
MS.58          	20.47          	11.168
MS.59          	20.43          	11.188
MS.60          	20.39          	11.255
MS.61          	20.35          	11.183
MS.62          	20.31          	11.197
MS.63          	20.27          	11.192
MS.64          	20.225         	11.256
MS.65          	20.185         	11.189
MS.66          	20.145         	11.226
MS.67          	20.105         	11.27
MS.68          	20.065         	11.203
MS.69          	20.025         	11.295
MS.70          	19.985         	11.293
MS.71          	19.945         	11.244
MS.72          	19.905         	11.273
MS.73          	19.865         	11.313
MS.74          	19.825         	11.215
MS.75          	19.785         	11.189
MS.76          	19.75          	11.217
MS.77          	19.71          	11.247
MS.78          	19.67          	11.101
MS.79          	19.63          	11.282
MS.80          	19.59          	11.229
MS.81          	19.55          	11.247
MS.82          	19.51          	11.206
MS.83          	19.475         	11.284
MS.84          	19.435         	11.206
MS.85          	19.395         	11.264
MS.86          	19.355         	11.255
MS.87          	19.32          	11.23
MS.88          	19.28          	11.191
MS.89          	19.24          	11.218
MS.90          	19.2           	11.2
MS.91          	19.165         	11.27
MS.92          	19.125         	11.29
MS.93          	19.09          	11.183
MS.94          	19.05          	11.203
MS.95          	19.01          	11.195
MS.96          	18.975         	11.261
MS.97          	18.935         	11.23
MS.98          	18.9           	11.206
MS.99          	18.86          	11.253
MS.100         	18.82          	11.266
MS.101         	18.785         	11.192
MS.102         	18.745         	11.192
MS.103         	18.71          	11.227
MS.104         	18.67          	11.189
MS.105         	18.635         	11.172
MS.106         	18.6           	11.13
MS.107         	18.56          	11.269
MS.108         	18.525         	11.124
MS.109         	18.485         	11.198
MS.110         	18.45          	11.148
MS.111         	18.415         	11.169
MS.112         	18.375         	11.156
MS.113         	18.34          	11.267
MS.114         	18.305         	11.108
MS.115         	18.265         	11.163
MS.116         	18.23          	11.189
MS.117         	18.195         	11.127
MS.118         	18.155         	11.107
MS.119         	18.12          	11.162
MS.120         	18.085         	11.087
MS.121         	18.05          	11.102
MS.122         	18.01          	11.075
MS.123         	17.975         	11.122
MS.124         	17.94          	11.082
MS.125         	17.905         	10.88
MS.126         	17.87          	10.91
MS.127         	17.835         	10.953
MS.128         	17.795         	10.567
MS.129         	17.76          	10.587
MS.130         	17.725         	10.809
MS.131         	17.69          	11.047
MS.132         	17.655         	10.657
MS.133         	17.62          	10.443
MS.134         	17.585         	10.616
MS.135         	17.55          	10.55
MS.136         	17.515         	10.559
MS.137         	17.48          	10.558
MS.138         	17.445         	10.518
MS.139         	17.41          	10.524
MS.140         	17.375         	10.478
MS.141         	17.34          	10.477
MS.142         	17.305         	10.516
MS.143         	17.27          	10.487
MS.144         	17.235         	10.41
MS.145         	17.2           	10.423
MS.146         	17.17          	9.95
MS.147         	17.135         	10.419
MS.148         	17.1           	10.393
MS.149         	17.065         	10.414
MS.150         	17.03          	9.875
MS.151         	16.995         	9.863
MS.152         	16.965         	10.387
MS.153         	16.93          	9.863
MS.154         	16.895         	9.892
MS.155         	16.86          	9.706
MS.156         	16.83          	9.796
MS.157         	16.795         	9.924
MS.158         	16.76          	9.756
MS.159         	16.725         	9.801
MS.160         	16.695         	9.702
MS.161         	16.66          	9.387
MS.162         	16.625         	9.677
MS.163         	16.595         	9.663
MS.164         	16.56          	9.686
MS.165         	16.53          	9.413
MS.166         	16.495         	9.483
MS.167         	16.46          	9.775
MS.168         	16.43          	9.537
MS.169         	16.395         	9.264
MS.170         	16.365         	9.341
MS.171         	16.33          	9.566
MS.172         	16.3           	9.238
MS.173         	16.265         	9.389
MS.174         	16.235         	9.142
MS.175         	16.2           	8.934
MS.176         	16.17          	8.63
MS.177         	16.135         	9.117
MS.178         	16.105         	9.123
MS.179         	16.07          	8.604
MS.180         	16.04          	8.31
MS.181         	16.005         	9.286
MS.182         	15.975         	8.661
MS.183         	15.945         	8.902
MS.184         	15.91          	8.617
MS.185         	15.88          	8.072
MS.186         	15.85          	8.083
MS.187         	15.815         	7.942
MS.188         	15.785         	8.432
MS.189         	15.755         	8.386
MS.190         	15.72          	7.889
MS.191         	15.69          	8.252
MS.192         	15.66          	7.742
MS.193         	15.63          	7.75
MS.194         	15.595         	7.73
MS.195         	15.565         	7.828
MS.196         	15.535         	7.715
MS.197         	15.505         	7.736
MS.198         	15.47          	7.747
MS.199         	15.44          	8.031
MS.200         	15.41          	7.587
MS.201         	15.38          	7.733
MS.202         	15.35          	7.524
MS.203         	15.32          	7.495
MS.204         	15.29          	7.639
MS.205         	15.255         	7.545
MS.206         	15.225         	7.542
MS.207         	15.195         	7.545
MS.208         	15.165         	7.384
MS.209         	15.135         	7.594
MS.210         	15.105         	7.555
MS.211         	15.075         	7.436
MS.212         	15.045         	7.516
MS.213         	15.015         	7.265
MS.214         	14.985         	7.211
MS.215         	14.955         	7.249
MS.216         	14.925         	7.05
MS.217         	14.895         	6.654
MS.218         	14.865         	6.981
MS.219         	14.835         	6.961
MS.220         	14.805         	6.683
MS.221         	14.775         	7.195
MS.222         	14.745         	6.703
MS.223         	14.72          	7.143
MS.224         	14.69          	6.227
MS.225         	14.66          	6.172
MS.226         	14.63          	6.691
MS.227         	14.6           	6.668
MS.228         	14.57          	6.557
MS.229         	14.54          	5.869
MS.230         	14.515         	6.284
MS.231         	14.485         	5.531
MS.232         	14.455         	5.881
MS.233         	14.425         	5.914
MS.234         	14.395         	5.946
MS.235         	14.37          	5.823
MS.236         	14.34          	5.823
MS.237         	14.31          	6.279
MS.238         	14.285         	5.493
MS.239         	14.255         	5.838
MS.240         	14.225         	5.548
MS.241         	14.195         	5.347
MS.242         	14.17          	5.47
MS.243         	14.14          	5.293
MS.244         	14.11          	5.28
MS.245         	14.085         	5.199
MS.246         	14.055         	5.342
MS.247         	14.03          	5.103
MS.248         	14             	5.26
MS.249         	13.97          	4.967
MS.250         	13.945         	5.008
MS.251         	13.915         	5.199
MS.252         	13.89          	5.219
MS.253         	13.86          	5.156
MS.254         	13.835         	4.877
MS.255         	13.805         	4.817
MS.256         	13.78          	4.701
MS.257         	13.75          	4.913
MS.258         	13.725         	4.778
MS.259         	13.695         	4.628
MS.260         	13.67          	4.701
MS.261         	13.64          	4.813
MS.262         	13.615         	4.81
MS.263         	13.585         	4.52
MS.264         	13.56          	4.581
MS.265         	13.53          	4.361
MS.266         	13.505         	4.462
MS.267         	13.48          	4.529
MS.268         	13.45          	4.553
MS.269         	13.425         	4.254
MS.270         	13.395         	4.393
MS.271         	13.37          	3.879
MS.272         	13.345         	4.047
MS.273         	13.315         	4.198
MS.274         	13.29          	3.835
MS.275         	13.265         	3.865
MS.276         	13.235         	3.998
MS.277         	13.21          	3.728
MS.278         	13.185         	3.955
MS.279         	13.16          	3.737
MS.280         	13.13          	3.688
MS.281         	13.105         	3.883
MS.282         	13.08          	3.757
MS.283         	13.055         	3.392
MS.284         	13.025         	3.572
MS.285         	13             	3.516
MS.286         	12.975         	3.375
MS.287         	12.95          	3.369
MS.288         	12.925         	3.142
MS.289         	12.9           	3.185
MS.290         	12.87          	3.334
MS.291         	12.845         	3.078
MS.292         	12.82          	3.053
MS.293         	12.795         	3.122
MS.294         	12.77          	3.053
MS.295         	12.745         	2.873
MS.296         	12.72          	2.762
MS.297         	12.695         	2.763
MS.298         	12.665         	2.69
MS.299         	12.64          	2.959
MS.300         	12.615         	2.881
MS.301         	12.59          	2.525
MS.302         	12.565         	2.725
MS.303         	12.54          	2.484
MS.304         	12.515         	2.351
MS.305         	12.49          	2.374
MS.306         	12.465         	2.277
MS.307         	12.44          	2.411
MS.308         	12.415         	2.193
MS.309         	12.39          	2.232
MS.310         	12.365         	2.309
MS.311         	12.34          	2.261
MS.312         	12.32          	2.087
MS.313         	12.295         	1.982
MS.314         	12.27          	2.1
MS.315         	12.245         	1.929
MS.316         	12.22          	1.808
MS.317         	12.195         	1.767
MS.318         	12.17          	1.637
MS.319         	12.145         	1.733
MS.320         	12.12          	1.645
MS.321         	12.1           	1.561
MS.322         	12.075         	1.695
MS.323         	12.05          	1.5
MS.324         	12.025         	1.418
MS.325         	12             	1.497
MS.326         	11.98          	1.479
MS.327         	11.955         	1.259
MS.328         	11.93          	1.437
MS.329         	11.905         	1.253
MS.330         	11.88          	1.366
MS.331         	11.86          	1.05
MS.332         	11.835         	1.193
MS.333         	11.81          	1.169
MS.334         	11.785         	1.085
MS.335         	11.765         	0.963
MS.336         	11.74          	0.954
MS.337         	11.715         	0.941
MS.338         	11.695         	0.967
MS.339         	11.67          	0.975
MS.340         	11.645         	0.998
MS.341         	11.625         	0.827
MS.342         	11.6           	0.919
MS.343         	11.575         	0.912
MS.344         	11.555         	0.861
MS.345         	11.53          	0.851
MS.346         	11.51          	0.821
MS.347         	11.485         	0.732
MS.348         	11.46          	0.801
MS.349         	11.44          	0.763
MS.350         	11.415         	0.758
MS.351         	11.395         	0.604
MS.352         	11.37          	0.65
MS.353         	11.35          	0.681
MS.354         	11.325         	0.648
MS.355         	11.305         	0.542
MS.356         	11.28          	0.598
MS.357         	11.26          	0.563
MS.358         	11.235         	0.436
MS.359         	11.215         	0.497
MS.360         	11.19          	0.5
MS.361         	11.17          	0.522
MS.362         	11.145         	0.533
MS.363         	11.125         	0.372
MS.364         	11.1           	0.33
MS.365         	11.08          	0.371
MS.366         	11.055         	0.305
MS.367         	11.035         	0.362
MS.368         	11.015         	0.281
MS.369         	10.99          	0.255
MS.370         	10.97          	0.371
MS.371         	10.945         	0.287
MS.372         	10.925         	0.272
MS.373         	10.905         	0.229
MS.374         	10.88          	0.279
MS.375         	10.86          	0.258
MS.376         	10.84          	0.217
MS.377         	10.815         	0.214
MS.378         	10.795         	0.223
MS.379         	10.775         	0.273
MS.380         	10.75          	0.296
MS.381         	10.73          	0.198
MS.382         	10.71          	0.223
MS.383         	10.685         	0.238
MS.384         	10.665         	0.204
MS.385         	10.645         	0.241
MS.386         	10.625         	0.188
MS.387         	10.6           	0.175
MS.388         	10.58          	0.177
MS.389         	10.56          	0.166
MS.390         	10.54          	0.168
MS.391         	10.515         	0.185
MS.392         	10.495         	0.197
MS.393         	10.475         	0.145
MS.394         	10.455         	0.145
MS.395         	10.435         	0.166
MS.396         	10.415         	0.154
MS.397         	10.39          	0.114
MS.398         	10.37          	0.175
MS.399         	10.35          	0.139
MS.400         	10.33          	0.127
MS.401         	10.31          	0.113
MS.402         	10.29          	0.117
MS.403         	10.27          	0.134
MS.404         	10.25          	0.133
MS.405         	10.225         	0.111
MS.406         	10.205         	0.087
MS.407         	10.185         	0.105
MS.408         	10.165         	0.098
MS.409         	10.145         	0.087
MS.410         	10.125         	0.134
MS.411         	10.105         	0.101
MS.412         	10.085         	0.111
MS.413         	10.065         	0.107
MS.414         	10.045         	0.098
MS.415         	10.025         	0.098
MS.416         	10.005         	0.102
MS.417         	9.985          	0.082
MS.418         	9.965          	0.114
MS.419         	9.945          	0.06
MS.420         	9.925          	0.099
MS.421         	9.905          	0.073
MS.422         	9.885          	0.072
MS.423         	9.865          	0.085
MS.424         	9.845          	0.093
MS.425         	9.825          	0.06
MS.426         	9.805          	0.055
MS.427         	9.785          	0.06
MS.428         	9.765          	0.06
MS.429         	9.75           	0.056
MS.430         	9.73           	0.055
MS.431         	9.71           	0.053
MS.432         	9.69           	0.081
MS.433         	9.67           	0.061
MS.434         	9.65           	0.052
MS.435         	9.63           	0.064
MS.436         	9.61           	0.053
MS.437         	9.595          	0.05
MS.438         	9.575          	0.055
MS.439         	9.555          	0.06
MS.440         	9.535          	0.049
MS.441         	9.515          	0.055
MS.442         	9.5            	0.055
MS.443         	9.48           	0.056
MS.444         	9.46           	0.058
MS.445         	9.44           	0.047
MS.446         	9.42           	0.061
MS.447         	9.405          	0.053
MS.448         	9.385          	0.049
MS.449         	9.365          	0.053
MS.450         	9.345          	0.058
MS.451         	9.33           	0.05
MS.452         	9.31           	0.058
MS.453         	9.29           	0.063
MS.454         	9.27           	0.052
MS.455         	9.255          	0.058
MS.456         	9.235          	0.049
MS.457         	9.215          	0.055
MS.458         	9.2            	0.05
MS.459         	9.18           	0.047
MS.460         	9.16           	0.049
MS.461         	9.145          	0.053
MS.462         	9.125          	0.047
MS.463         	9.105          	0.052
MS.464         	9.09           	0.055
MS.465         	9.07           	0.055
MS.466         	9.05           	0.049
MS.467         	9.035          	0.066
MS.468         	9.015          	0.053
MS.469         	9              	0.055
MS.470         	8.98           	0.053
MS.471         	8.96           	0.053
MS.472         	8.945          	0.049
MS.473         	8.925          	0.052
MS.474         	8.91           	0.05
MS.475         	8.89           	0.05
MS.476         	8.875          	0.058
MS.477         	8.855          	0.049
MS.478         	8.84           	0.053
MS.479         	8.82           	0.049
MS.480         	8.805          	0.046
MS.481         	8.785          	0.056
MS.482         	8.765          	0.053
MS.483         	8.75           	0.053
MS.484         	8.73           	0.044
MS.485         	8.715          	0.05
MS.486         	8.7            	0.069
MS.487         	8.68           	0.055
MS.488         	8.665          	0.055
MS.489         	8.645          	0.046
MS.490         	8.63           	0.044
MS.491         	8.61           	0.056
DERIVED EXCITABILITY VARIABLES
Program = QTracP 3/4/2020
Threshold method = 6 (optimised for CAP, using data for present condition only)
SR method = 1 (using actual data values)
6.                 	0.000               	Peak response\(mV)
