File:              	C:\Qtrac\Data\CKMC01123C.QZD
Name:              	RHS10
Protocol:          	MSCAN-R2
Date:              	23/11/20
Start time:        	14:19:37
Age:               	24
Sex:               	M
Temperature:       	37.8
S/R sites:         	LUln Wr-ADQ
NC/disease:        	NC
Operator:          	CK
Comments:          	CG
RECOVERY CYCLE DATA (0.0-0.0m)
Interval (ms)       	  Threshold change (%)
M-SCAN DATA (7.7-1.7m)
Scanpts: 267, 277, 615, 635
Stim. (mA)     	Amp. (mV)
MS.1           	14             	7.532
MS.2           	14             	7.531
MS.3           	14             	7.519
MS.4           	14             	7.535
MS.5           	14             	7.537
MS.6           	14             	7.548
MS.7           	14             	7.562
MS.8           	14             	7.556
MS.9           	14             	7.565
MS.10          	14             	7.566
MS.11          	14             	7.585
MS.12          	14             	7.581
MS.13          	14             	7.577
MS.14          	14             	7.599
MS.15          	14             	7.589
MS.16          	14             	7.58
MS.17          	14             	7.607
MS.18          	14             	7.581
MS.19          	14             	7.589
MS.20          	14             	7.562
MS.21          	14             	7.579
MS.22          	14             	7.565
MS.23          	14             	7.559
MS.24          	13.945         	7.537
MS.25          	13.915         	7.546
MS.26          	13.89          	7.542
MS.27          	13.86          	7.523
MS.28          	13.835         	7.525
MS.29          	13.805         	7.556
MS.30          	13.78          	7.549
MS.31          	13.75          	7.519
MS.32          	13.725         	7.543
MS.33          	13.695         	7.53
MS.34          	13.67          	7.531
MS.35          	13.64          	7.553
MS.36          	13.615         	7.524
MS.37          	13.585         	7.517
MS.38          	13.56          	7.512
MS.39          	13.53          	7.532
MS.40          	13.505         	7.503
MS.41          	13.48          	7.52
MS.42          	13.45          	7.529
MS.43          	13.425         	7.511
MS.44          	13.395         	7.505
MS.45          	13.37          	7.493
MS.46          	13.345         	7.486
MS.47          	13.315         	7.504
MS.48          	13.29          	7.499
MS.49          	13.265         	7.493
MS.50          	13.235         	7.504
MS.51          	13.21          	7.498
MS.52          	13.185         	7.48
MS.53          	13.16          	7.495
MS.54          	13.13          	7.502
MS.55          	13.105         	7.474
MS.56          	13.08          	7.495
MS.57          	13.055         	7.526
MS.58          	13.025         	7.529
MS.59          	13             	7.533
MS.60          	12.975         	7.513
MS.61          	12.95          	7.537
MS.62          	12.925         	7.52
MS.63          	12.9           	7.523
MS.64          	12.87          	7.482
MS.65          	12.845         	7.443
MS.66          	12.82          	7.513
MS.67          	12.795         	7.514
MS.68          	12.77          	7.502
MS.69          	12.745         	7.505
MS.70          	12.72          	7.469
MS.71          	12.695         	7.496
MS.72          	12.67          	7.507
MS.73          	12.64          	7.442
MS.74          	12.615         	7.509
MS.75          	12.59          	7.512
MS.76          	12.565         	7.502
MS.77          	12.54          	7.501
MS.78          	12.515         	7.439
MS.79          	12.49          	7.489
MS.80          	12.465         	7.438
MS.81          	12.44          	7.478
MS.82          	12.415         	7.434
MS.83          	12.39          	7.435
MS.84          	12.365         	7.448
MS.85          	12.345         	7.412
MS.86          	12.32          	7.429
MS.87          	12.295         	7.452
MS.88          	12.27          	7.428
MS.89          	12.245         	7.468
MS.90          	12.22          	7.499
MS.91          	12.195         	7.482
MS.92          	12.17          	7.484
MS.93          	12.145         	7.515
MS.94          	12.12          	7.473
MS.95          	12.1           	7.49
MS.96          	12.075         	7.47
MS.97          	12.05          	7.502
MS.98          	12.025         	7.487
MS.99          	12             	7.489
MS.100         	11.98          	7.508
MS.101         	11.955         	7.477
MS.102         	11.93          	7.454
MS.103         	11.905         	7.473
MS.104         	11.88          	7.462
MS.105         	11.86          	7.47
MS.106         	11.835         	7.465
MS.107         	11.81          	7.455
MS.108         	11.79          	7.477
MS.109         	11.765         	7.462
MS.110         	11.74          	7.482
MS.111         	11.715         	7.482
MS.112         	11.695         	7.478
MS.113         	11.67          	7.465
MS.114         	11.645         	7.45
MS.115         	11.625         	7.446
MS.116         	11.6           	7.421
MS.117         	11.575         	7.438
MS.118         	11.555         	7.458
MS.119         	11.53          	7.468
MS.120         	11.51          	7.491
MS.121         	11.485         	7.486
MS.122         	11.46          	7.493
MS.123         	11.44          	7.484
MS.124         	11.415         	7.509
MS.125         	11.395         	7.48
MS.126         	11.37          	7.445
MS.127         	11.35          	7.474
MS.128         	11.325         	7.466
MS.129         	11.305         	7.471
MS.130         	11.28          	7.535
MS.131         	11.26          	7.452
MS.132         	11.235         	7.54
MS.133         	11.215         	7.438
MS.134         	11.19          	7.557
MS.135         	11.17          	7.454
MS.136         	11.145         	7.525
MS.137         	11.125         	7.512
MS.138         	11.1           	7.482
MS.139         	11.08          	7.462
MS.140         	11.055         	7.541
MS.141         	11.035         	7.527
MS.142         	11.015         	7.534
MS.143         	10.99          	7.571
MS.144         	10.97          	7.538
MS.145         	10.945         	7.513
MS.146         	10.925         	7.51
MS.147         	10.905         	7.529
MS.148         	10.88          	7.53
MS.149         	10.86          	7.544
MS.150         	10.84          	7.512
MS.151         	10.815         	7.551
MS.152         	10.795         	7.518
MS.153         	10.775         	7.544
MS.154         	10.75          	7.541
MS.155         	10.73          	7.482
MS.156         	10.71          	7.533
MS.157         	10.685         	7.587
MS.158         	10.665         	7.555
MS.159         	10.645         	7.608
MS.160         	10.625         	7.6
MS.161         	10.6           	7.592
MS.162         	10.58          	7.52
MS.163         	10.56          	7.582
MS.164         	10.54          	7.573
MS.165         	10.52          	7.556
MS.166         	10.495         	7.498
MS.167         	10.475         	7.59
MS.168         	10.455         	7.583
MS.169         	10.435         	7.601
MS.170         	10.415         	7.507
MS.171         	10.39          	7.627
MS.172         	10.37          	7.574
MS.173         	10.35          	7.532
MS.174         	10.33          	7.576
MS.175         	10.31          	7.561
MS.176         	10.29          	7.572
MS.177         	10.27          	7.594
MS.178         	10.25          	7.584
MS.179         	10.225         	7.63
MS.180         	10.205         	7.606
MS.181         	10.185         	7.65
MS.182         	10.165         	7.61
MS.183         	10.145         	7.623
MS.184         	10.125         	7.667
MS.185         	10.105         	7.584
MS.186         	10.085         	7.676
MS.187         	10.065         	7.591
MS.188         	10.045         	7.654
MS.189         	10.025         	7.62
MS.190         	10.005         	7.679
MS.191         	9.985          	7.651
MS.192         	9.965          	7.678
MS.193         	9.945          	7.643
MS.194         	9.925          	7.689
MS.195         	9.905          	7.684
MS.196         	9.885          	7.657
MS.197         	9.865          	7.704
MS.198         	9.845          	7.644
MS.199         	9.825          	7.667
MS.200         	9.805          	7.712
MS.201         	9.785          	7.72
MS.202         	9.765          	7.656
MS.203         	9.75           	7.701
MS.204         	9.73           	7.678
MS.205         	9.71           	7.712
MS.206         	9.69           	7.752
MS.207         	9.67           	7.684
MS.208         	9.65           	7.689
MS.209         	9.63           	7.733
MS.210         	9.61           	7.712
MS.211         	9.595          	7.751
MS.212         	9.575          	7.778
MS.213         	9.555          	7.755
MS.214         	9.535          	7.853
MS.215         	9.515          	7.751
MS.216         	9.5            	7.786
MS.217         	9.48           	7.758
MS.218         	9.46           	7.842
MS.219         	9.44           	7.854
MS.220         	9.42           	7.866
MS.221         	9.405          	7.843
MS.222         	9.385          	7.845
MS.223         	9.365          	7.874
MS.224         	9.345          	7.916
MS.225         	9.33           	7.862
MS.226         	9.31           	7.91
MS.227         	9.29           	7.936
MS.228         	9.275          	7.943
MS.229         	9.255          	7.972
MS.230         	9.235          	7.968
MS.231         	9.215          	7.946
MS.232         	9.2            	7.997
MS.233         	9.18           	8.019
MS.234         	9.16           	7.969
MS.235         	9.145          	7.977
MS.236         	9.125          	7.949
MS.237         	9.105          	8.043
MS.238         	9.09           	8.038
MS.239         	9.07           	7.994
MS.240         	9.055          	7.964
MS.241         	9.035          	8.022
MS.242         	9.015          	8.05
MS.243         	9              	7.975
MS.244         	8.98           	8.058
MS.245         	8.965          	8.085
MS.246         	8.945          	7.99
MS.247         	8.925          	8.088
MS.248         	8.91           	8.053
MS.249         	8.89           	8.171
MS.250         	8.875          	8.117
MS.251         	8.855          	8.021
MS.252         	8.84           	8.101
MS.253         	8.82           	8.122
MS.254         	8.805          	8.138
MS.255         	8.785          	8.095
MS.256         	8.77           	8.115
MS.257         	8.75           	8.135
MS.258         	8.735          	8.134
MS.259         	8.715          	8.056
MS.260         	8.7            	8.13
MS.261         	8.68           	8.069
MS.262         	8.665          	8.126
MS.263         	8.645          	8.101
MS.264         	8.63           	8.158
MS.265         	8.61           	8.149
MS.266         	8.595          	8.182
MS.267         	8.575          	8.233
MS.268         	8.56           	8.156
MS.269         	8.54           	8.206
MS.270         	8.525          	8.19
MS.271         	8.51           	8.256
MS.272         	8.49           	8.261
MS.273         	8.475          	8.21
MS.274         	8.46           	8.284
MS.275         	8.44           	8.247
MS.276         	8.425          	8.262
MS.277         	8.405          	8.24
MS.278         	8.39           	8.248
MS.279         	8.375          	8.248
MS.280         	8.355          	8.267
MS.281         	8.34           	8.333
MS.282         	8.325          	8.275
MS.283         	8.305          	8.317
MS.284         	8.29           	8.152
MS.285         	8.275          	8.049
MS.286         	8.255          	8.045
MS.287         	8.24           	8.3
MS.288         	8.225          	7.938
MS.289         	8.21           	7.938
MS.290         	8.19           	8.196
MS.291         	8.175          	8.082
MS.292         	8.16           	7.938
MS.293         	8.14           	8.043
MS.294         	8.125          	7.975
MS.295         	8.11           	8.156
MS.296         	8.095          	8.063
MS.297         	8.075          	7.887
MS.298         	8.06           	7.811
MS.299         	8.045          	8.058
MS.300         	8.03           	8.124
MS.301         	8.015          	7.692
MS.302         	7.995          	7.922
MS.303         	7.98           	7.939
MS.304         	7.965          	8.08
MS.305         	7.95           	7.903
MS.306         	7.935          	8.055
MS.307         	7.915          	7.715
MS.308         	7.9            	7.861
MS.309         	7.885          	7.725
MS.310         	7.87           	7.911
MS.311         	7.855          	7.881
MS.312         	7.84           	7.709
MS.313         	7.825          	7.746
MS.314         	7.805          	7.712
MS.315         	7.79           	7.617
MS.316         	7.775          	7.89
MS.317         	7.76           	7.705
MS.318         	7.745          	7.632
MS.319         	7.73           	7.667
MS.320         	7.715          	7.733
MS.321         	7.7            	7.655
MS.322         	7.685          	7.534
MS.323         	7.67           	7.584
MS.324         	7.655          	7.736
MS.325         	7.635          	7.603
MS.326         	7.62           	7.554
MS.327         	7.605          	7.416
MS.328         	7.59           	7.576
MS.329         	7.575          	7.385
MS.330         	7.56           	7.473
MS.331         	7.545          	7.319
MS.332         	7.53           	7.543
MS.333         	7.515          	7.283
MS.334         	7.5            	7.526
MS.335         	7.485          	7.352
MS.336         	7.47           	7.361
MS.337         	7.455          	7.204
MS.338         	7.44           	7.502
MS.339         	7.425          	7.124
MS.340         	7.41           	7.172
MS.341         	7.395          	6.807
MS.342         	7.38           	7.302
MS.343         	7.365          	7.035
MS.344         	7.355          	7.044
MS.345         	7.34           	6.924
MS.346         	7.325          	6.699
MS.347         	7.31           	6.896
MS.348         	7.295          	6.898
MS.349         	7.28           	6.954
MS.350         	7.265          	6.219
MS.351         	7.25           	6.465
MS.352         	7.235          	6.594
MS.353         	7.22           	6.296
MS.354         	7.205          	6.005
MS.355         	7.195          	5.947
MS.356         	7.18           	6.382
MS.357         	7.165          	5.777
MS.358         	7.15           	5.868
MS.359         	7.135          	5.524
MS.360         	7.12           	5.868
MS.361         	7.105          	5.253
MS.362         	7.095          	5.934
MS.363         	7.08           	5.652
MS.364         	7.065          	5.504
MS.365         	7.05           	5.209
MS.366         	7.035          	5.189
MS.367         	7.02           	5.32
MS.368         	7.01           	5.522
MS.369         	6.995          	5.212
MS.370         	6.98           	5.157
MS.371         	6.965          	5.085
MS.372         	6.95           	5.18
MS.373         	6.94           	5.443
MS.374         	6.925          	5.068
MS.375         	6.91           	5.167
MS.376         	6.895          	4.963
MS.377         	6.885          	4.995
MS.378         	6.87           	4.507
MS.379         	6.855          	4.704
MS.380         	6.84           	4.377
MS.381         	6.83           	4.665
MS.382         	6.815          	4.608
MS.383         	6.8            	4.448
MS.384         	6.785          	4.457
MS.385         	6.775          	4.456
MS.386         	6.76           	4.377
MS.387         	6.745          	4.166
MS.388         	6.735          	4.285
MS.389         	6.72           	4.394
MS.390         	6.705          	4.297
MS.391         	6.695          	4.132
MS.392         	6.68           	4.301
MS.393         	6.665          	4.442
MS.394         	6.655          	4.063
MS.395         	6.64           	4.013
MS.396         	6.625          	4.331
MS.397         	6.615          	4.202
MS.398         	6.6            	3.836
MS.399         	6.585          	4.153
MS.400         	6.575          	3.707
MS.401         	6.56           	3.86
MS.402         	6.545          	3.367
MS.403         	6.535          	3.745
MS.404         	6.52           	3.718
MS.405         	6.51           	3.793
MS.406         	6.495          	3.707
MS.407         	6.48           	3.868
MS.408         	6.47           	3.516
MS.409         	6.455          	3.461
MS.410         	6.445          	3.4
MS.411         	6.43           	3.466
MS.412         	6.42           	3.4
MS.413         	6.405          	3.463
MS.414         	6.39           	3.234
MS.415         	6.38           	3.26
MS.416         	6.365          	2.67
MS.417         	6.355          	2.835
MS.418         	6.34           	3.319
MS.419         	6.33           	2.54
MS.420         	6.315          	2.958
MS.421         	6.305          	2.774
MS.422         	6.29           	2.964
MS.423         	6.28           	2.079
MS.424         	6.265          	2.242
MS.425         	6.255          	2.292
MS.426         	6.24           	2.231
MS.427         	6.23           	2.185
MS.428         	6.215          	2.242
MS.429         	6.205          	1.997
MS.430         	6.19           	1.848
MS.431         	6.18           	1.871
MS.432         	6.165          	1.95
MS.433         	6.155          	2.353
MS.434         	6.14           	1.88
MS.435         	6.13           	1.998
MS.436         	6.115          	1.5
MS.437         	6.105          	1.414
MS.438         	6.09           	2.01
MS.439         	6.08           	1.777
MS.440         	6.07           	1.606
MS.441         	6.055          	1.851
MS.442         	6.045          	1.542
MS.443         	6.03           	1.64
MS.444         	6.02           	1.562
MS.445         	6.01           	1.357
MS.446         	5.995          	1.921
MS.447         	5.985          	1.232
MS.448         	5.97           	1.466
MS.449         	5.96           	1.348
MS.450         	5.95           	1.47
MS.451         	5.935          	1.427
MS.452         	5.925          	0.872
MS.453         	5.91           	1.054
MS.454         	5.9            	0.867
MS.455         	5.89           	1.086
MS.456         	5.875          	0.883
MS.457         	5.865          	0.923
MS.458         	5.855          	0.87
MS.459         	5.84           	0.959
MS.460         	5.83           	0.752
MS.461         	5.82           	0.791
MS.462         	5.805          	0.718
MS.463         	5.795          	0.969
MS.464         	5.785          	0.852
MS.465         	5.77           	0.85
MS.466         	5.76           	0.844
MS.467         	5.75           	0.764
MS.468         	5.74           	0.521
MS.469         	5.725          	0.755
MS.470         	5.715          	0.591
MS.471         	5.705          	0.709
MS.472         	5.69           	0.519
MS.473         	5.68           	0.53
MS.474         	5.67           	0.599
MS.475         	5.66           	0.59
MS.476         	5.645          	0.512
MS.477         	5.635          	0.665
MS.478         	5.625          	0.551
MS.479         	5.615          	0.664
MS.480         	5.6            	0.734
MS.481         	5.59           	0.532
MS.482         	5.58           	0.636
MS.483         	5.57           	0.758
MS.484         	5.555          	0.757
MS.485         	5.545          	0.571
MS.486         	5.535          	0.403
MS.487         	5.525          	0.511
MS.488         	5.515          	0.353
MS.489         	5.5            	0.533
MS.490         	5.49           	0.463
MS.491         	5.48           	0.519
MS.492         	5.47           	0.512
MS.493         	5.46           	0.529
MS.494         	5.445          	0.225
MS.495         	5.435          	0.476
MS.496         	5.425          	0.259
MS.497         	5.415          	0.41
MS.498         	5.405          	0.461
MS.499         	5.395          	0.369
MS.500         	5.38           	0.284
MS.501         	5.37           	0.149
