File:              	C:\Qtrac\Data\Daniel M Sørensen\MScan multicentre study\Data from centres\Ankara\Processed data\BAC10104C.QZD
Name:              	TR.ANK.NC.1.1
Protocol:          	MSCAN-R2
Date:              	4/1/21
Start time:        	17:17:35
Age:                         29
Sex:               	F
Temperature:
S/R sites:         	ADM
NC/disease:        	NC
Operator:          	HA
Comments:

M-SCAN DATA (5-0.9m)
Scanpts: 2, 6, 435, 443
Stim. (mA)     	Amp. (mV)
MS.1           	18             	8.846
MS.2           	18             	8.836
MS.3           	18             	8.856
MS.4           	18             	8.78
MS.5           	18             	8.844
MS.6           	18             	8.856
MS.7           	18             	8.909
MS.8           	18             	8.826
MS.9           	18             	8.76
MS.10          	18             	8.888
MS.11          	18             	8.709
MS.12          	18             	8.806
MS.13          	18             	8.715
MS.14          	18             	8.78
MS.15          	18             	8.677
MS.16          	18             	8.814
MS.17          	18             	8.762
MS.18          	18             	8.79
MS.19          	18             	8.645
MS.20          	18             	8.677
MS.21          	18             	8.615
MS.22          	18             	8.607
MS.23          	17.965         	8.691
MS.24          	17.927         	8.604
MS.25          	17.892         	8.623
MS.26          	17.858         	8.719
MS.27          	17.82          	8.556
MS.28          	17.785         	8.637
MS.29          	17.75          	8.735
MS.30          	17.715         	8.492
MS.31          	17.68          	8.49
MS.32          	17.642         	8.459
MS.33          	17.608         	8.423
MS.34          	17.573         	8.429
MS.35          	17.538         	8.554
MS.36          	17.503         	8.433
MS.37          	17.467         	8.447
MS.38          	17.432         	8.582
MS.39          	17.397         	8.449
MS.40          	17.362         	8.433
MS.41          	17.33          	8.397
MS.42          	17.295         	8.395
MS.43          	17.26          	8.401
MS.44          	17.225         	8.363
MS.45          	17.19          	8.373
MS.46          	17.157         	8.308
MS.47          	17.122         	8.264
MS.48          	17.087         	8.262
MS.49          	17.055         	8.214
MS.50          	17.02          	8.264
MS.51          	16.985         	8.25
MS.52          	16.952         	8.288
MS.53          	16.917         	8.192
MS.54          	16.885         	8.22
MS.55          	16.85          	8.26
MS.56          	16.817         	8.226
MS.57          	16.782         	8.163
MS.58          	16.75          	8.111
MS.59          	16.715         	8.113
MS.60          	16.682         	8.039
MS.61          	16.65          	8.087
MS.62          	16.615         	8.097
MS.63          	16.583         	8.055
MS.64          	16.55          	7.928
MS.65          	16.517         	8.032
MS.66          	16.483         	7.906
MS.67          	16.45          	7.906
MS.68          	16.417         	7.924
MS.69          	16.385         	7.938
MS.70          	16.352         	7.914
MS.71          	16.32          	7.767
MS.72          	16.288         	7.793
MS.73          	16.255         	7.946
MS.74          	16.222         	7.861
MS.75          	16.19          	7.718
MS.76          	16.157         	7.857
MS.77          	16.125         	7.692
MS.78          	16.092         	7.769
MS.79          	16.06          	7.587
MS.80          	16.028         	7.634
MS.81          	15.997         	7.64
MS.82          	15.965         	7.466
MS.83          	15.932         	7.434
MS.84          	15.9           	7.529
MS.85          	15.87          	7.307
MS.86          	15.837         	7.321
MS.87          	15.805         	7.025
MS.88          	15.775         	7.144
MS.89          	15.742         	7.197
MS.90          	15.71          	7.033
MS.91          	15.68          	7.207
MS.92          	15.648         	7.108
MS.93          	15.617         	7.023
MS.94          	15.585         	6.884
MS.95          	15.555         	7.039
MS.96          	15.525         	6.858
MS.97          	15.492         	6.608
MS.98          	15.462         	6.997
MS.99          	15.43          	6.963
MS.100         	15.4           	6.778
MS.101         	15.37          	6.945
MS.102         	15.337         	6.903
MS.103         	15.307         	6.764
MS.104         	15.277         	6.429
MS.105         	15.247         	6.673
MS.106         	15.217         	6.59
MS.107         	15.185         	6.76
MS.108         	15.155         	6.641
MS.109         	15.125         	6.467
MS.110         	15.095         	6.52
MS.111         	15.065         	6.242
MS.112         	15.035         	6.258
MS.113         	15.005         	6.274
MS.114         	14.975         	6.431
MS.115         	14.945         	6.216
MS.116         	14.915         	6.194
MS.117         	14.885         	6.123
MS.118         	14.855         	6.202
MS.119         	14.825         	6.073
MS.120         	14.795         	6.016
MS.121         	14.767         	6.014
MS.122         	14.737         	6.057
MS.123         	14.707         	5.853
MS.124         	14.677         	5.99
MS.125         	14.65          	5.916
MS.126         	14.62          	5.875
MS.127         	14.59          	5.668
MS.128         	14.562         	5.765
MS.129         	14.532         	5.773
MS.130         	14.502         	5.636
MS.131         	14.475         	5.7
MS.132         	14.445         	5.791
MS.133         	14.417         	5.767
MS.134         	14.387         	5.694
MS.135         	14.36          	5.557
MS.136         	14.33          	5.569
MS.137         	14.302         	5.17
MS.138         	14.273         	5.569
MS.139         	14.245         	5.378
MS.140         	14.215         	5.285
MS.141         	14.188         	5.275
MS.142         	14.16          	5.472
MS.143         	14.13          	5.158
MS.144         	14.102         	5.279
MS.145         	14.075         	5.197
MS.146         	14.047         	5.374
MS.147         	14.017         	5.245
MS.148         	13.99          	5.309
MS.149         	13.962         	5.104
MS.150         	13.935         	5.096
MS.151         	13.907         	4.967
MS.152         	13.88          	4.8
MS.153         	13.85          	4.969
MS.154         	13.822         	4.784
MS.155         	13.795         	4.8
MS.156         	13.767         	4.931
MS.157         	13.74          	4.717
MS.158         	13.712         	4.745
MS.159         	13.685         	4.868
MS.160         	13.657         	4.745
MS.161         	13.632         	4.782
MS.162         	13.605         	4.906
MS.163         	13.577         	4.886
MS.164         	13.55          	4.512
MS.165         	13.523         	4.385
MS.166         	13.495         	4.447
MS.167         	13.467         	4.516
MS.168         	13.443         	4.278
MS.169         	13.415         	4.236
MS.170         	13.387         	4.532
MS.171         	13.362         	4.387
MS.172         	13.335         	4.393
MS.173         	13.307         	4.526
MS.174         	13.282         	4.359
MS.175         	13.255         	4.141
MS.176         	13.227         	4.198
MS.177         	13.202         	4.052
MS.178         	13.175         	4.077
MS.179         	13.15          	3.932
MS.180         	13.122         	4.022
MS.181         	13.097         	4.067
MS.182         	13.07          	4.117
MS.183         	13.045         	4.02
MS.184         	13.017         	3.972
MS.185         	12.992         	3.718
MS.186         	12.967         	3.899
MS.187         	12.94          	3.922
MS.188         	12.915         	3.988
MS.189         	12.89          	3.76
MS.190         	12.862         	3.853
MS.191         	12.837         	3.926
MS.192         	12.812         	3.863
MS.193         	12.787         	3.543
MS.194         	12.76          	3.559
MS.195         	12.735         	3.43
MS.196         	12.71          	3.64
MS.197         	12.685         	3.764
MS.198         	12.66          	3.456
MS.199         	12.635         	3.317
MS.200         	12.608         	3.805
MS.201         	12.582         	3.545
MS.202         	12.557         	3.553
MS.203         	12.532         	3.642
MS.204         	12.507         	3.69
MS.205         	12.483         	3.339
MS.206         	12.457         	3.652
MS.207         	12.432         	3.275
MS.208         	12.407         	3.321
MS.209         	12.382         	3.422
MS.210         	12.36          	3.265
MS.211         	12.335         	3.134
MS.212         	12.31          	3.134
MS.213         	12.285         	3.154
MS.214         	12.26          	3.112
MS.215         	12.235         	3.015
MS.216         	12.212         	2.914
MS.217         	12.188         	3.017
MS.218         	12.162         	2.935
MS.219         	12.137         	3.049
MS.220         	12.115         	2.921
MS.221         	12.09          	2.759
MS.222         	12.065         	2.771
MS.223         	12.042         	2.776
MS.224         	12.017         	2.767
MS.225         	11.992         	2.784
MS.226         	11.97          	2.465
MS.227         	11.945         	2.808
MS.228         	11.922         	2.906
MS.229         	11.898         	2.677
MS.230         	11.875         	2.751
MS.231         	11.85          	2.806
MS.232         	11.827         	2.481
MS.233         	11.802         	2.518
MS.234         	11.78          	2.558
MS.235         	11.755         	2.514
MS.236         	11.733         	2.465
MS.237         	11.71          	2.385
MS.238         	11.685         	2.487
MS.239         	11.662         	2.23
MS.240         	11.64          	2.322
MS.241         	11.615         	2.185
MS.242         	11.592         	2.365
MS.243         	11.57          	2.157
MS.244         	11.547         	2.091
MS.245         	11.523         	2.093
MS.246         	11.5           	2.24
MS.247         	11.477         	2.038
MS.248         	11.455         	1.994
MS.249         	11.432         	2.177
MS.250         	11.407         	2.006
MS.251         	11.385         	1.938
MS.252         	11.363         	1.881
MS.253         	11.34          	1.819
MS.254         	11.318         	1.714
MS.255         	11.295         	1.742
MS.256         	11.273         	1.712
MS.257         	11.25          	1.728
MS.258         	11.227         	1.676
MS.259         	11.205         	1.748
MS.260         	11.182         	1.464
MS.261         	11.16          	1.66
MS.262         	11.137         	1.527
MS.263         	11.115         	1.537
MS.264         	11.092         	1.567
MS.265         	11.073         	1.571
MS.266         	11.05          	1.831
MS.267         	11.028         	1.599
MS.268         	11.005         	1.499
MS.269         	10.983         	1.633
MS.270         	10.962         	1.535
MS.271         	10.94          	1.495
MS.272         	10.917         	1.563
MS.273         	10.895         	1.468
MS.274         	10.875         	1.392
MS.275         	10.852         	1.352
MS.276         	10.83          	1.281
MS.277         	10.81          	1.2
MS.278         	10.787         	1.368
MS.279         	10.765         	1.331
MS.280         	10.745         	1.283
MS.281         	10.722         	1.323
MS.282         	10.702         	1.156
MS.283         	10.68          	1.2
MS.284         	10.657         	1.208
MS.285         	10.637         	1.17
MS.286         	10.615         	1.07
MS.287         	10.595         	0.949
MS.288         	10.573         	0.9
MS.289         	10.552         	0.961
MS.290         	10.532         	1.088
MS.291         	10.51          	0.792
MS.292         	10.49          	0.828
MS.293         	10.467         	0.888
MS.294         	10.448         	0.88
MS.295         	10.427         	0.844
MS.296         	10.405         	0.862
MS.297         	10.385         	0.854
MS.298         	10.365         	0.872
MS.299         	10.342         	0.709
MS.300         	10.323         	0.798
MS.301         	10.302         	0.747
MS.302         	10.282         	0.729
MS.303         	10.26          	0.769
MS.304         	10.24          	0.779
MS.305         	10.22          	0.822
MS.306         	10.2           	0.645
MS.307         	10.18          	0.739
MS.308         	10.16          	0.715
MS.309         	10.14          	0.739
MS.310         	10.117         	0.836
MS.311         	10.097         	0.741
MS.312         	10.077         	0.878
MS.313         	10.057         	0.784
MS.314         	10.037         	0.804
MS.315         	10.017         	0.794
MS.316         	9.997          	0.773
MS.317         	9.977          	0.707
MS.318         	9.957          	0.681
MS.319         	9.938          	0.665
MS.320         	9.917          	0.709
MS.321         	9.898          	0.651
MS.322         	9.877          	0.669
MS.323         	9.86           	0.602
MS.324         	9.84           	0.645
MS.325         	9.82           	0.58
MS.326         	9.8            	0.679
MS.327         	9.78           	0.574
MS.328         	9.76           	0.634
MS.329         	9.742          	0.636
MS.330         	9.722          	0.554
MS.331         	9.702          	0.691
MS.332         	9.682          	0.582
MS.333         	9.662          	0.497
MS.334         	9.645          	0.641
MS.335         	9.625          	0.612
MS.336         	9.605          	0.628
MS.337         	9.587          	0.544
MS.338         	9.568          	0.624
MS.339         	9.547          	0.548
MS.340         	9.53           	0.425
MS.341         	9.51           	0.455
MS.342         	9.492          	0.399
MS.343         	9.472          	0.395
MS.344         	9.452          	0.461
MS.345         	9.435          	0.514
MS.346         	9.415          	0.487
MS.347         	9.398          	0.443
MS.348         	9.377          	0.431
MS.349         	9.36           	0.274
MS.350         	9.34           	0.326
MS.351         	9.323          	0.306
MS.352         	9.302          	0.338
MS.353         	9.285          	0.258
MS.354         	9.265          	0.268
MS.355         	9.247          	0.32
MS.356         	9.23           	0.354
MS.357         	9.21           	0.324
MS.358         	9.193          	0.357
MS.359         	9.175          	0.276
MS.360         	9.155          	0.357
MS.361         	9.137          	0.328
MS.362         	9.12           	0.296
MS.363         	9.1            	0.318
MS.364         	9.082          	0.262
MS.365         	9.065          	0.26
MS.366         	9.047          	0.306
MS.367         	9.028          	0.226
MS.368         	9.01           	0.256
MS.369         	8.992          	0.242
MS.370         	8.975          	0.234
MS.371         	8.957          	0.234
MS.372         	8.938          	0.346
MS.373         	8.92           	0.155
MS.374         	8.903          	0.077
MS.375         	8.885          	0.153
MS.376         	8.867          	0.167
MS.377         	8.85           	0.23
MS.378         	8.832          	0.079
MS.379         	8.815          	0.165
MS.380         	8.797          	0.177
MS.381         	8.78           	0.079
MS.382         	8.762          	0.167
MS.383         	8.745          	0.163
MS.384         	8.727          	0.095
MS.385         	8.71           	0.236
MS.386         	8.693          	0.083
MS.387         	8.675          	0.093
MS.388         	8.658          	0.079
MS.389         	8.64           	0.153
MS.390         	8.622          	0.077
MS.391         	8.605          	0.127
MS.392         	8.587          	0.079
MS.393         	8.57           	0.077
MS.394         	8.555          	0.077
MS.395         	8.537          	0.095
MS.396         	8.52           	0.085
MS.397         	8.502          	0.006
MS.398         	8.485          	0.077
MS.399         	8.467          	-0.002
MS.400         	8.452          	0.081
MS.401         	8.435          	0.006
MS.402         	8.417          	0.079
MS.403         	8.4            	0.008
MS.404         	8.385          	-0.016
MS.405         	8.367          	0.075
MS.406         	8.35           	0.008
MS.407         	8.335          	0.000
MS.408         	8.318          	0.002
MS.409         	8.3            	0.014
MS.410         	8.285          	-0.014
MS.411         	8.267          	0.01
MS.412         	8.252          	0.018
MS.413         	8.235          	0.01
MS.414         	8.217          	0.064
MS.415         	8.202          	0.012
MS.416         	8.185          	-0.004
MS.417         	8.17           	0.014
MS.418         	8.153          	0.012
MS.419         	8.137          	-0.012
MS.420         	8.12           	0.004
MS.421         	8.105          	0.012
MS.422         	8.087          	0.01
MS.423         	8.073          	-0.002
MS.424         	8.055          	0.006
MS.425         	8.04           	-0.016
MS.426         	8.023          	-0.014
MS.427         	8.007          	0.004
MS.428         	7.992          	-0.004
MS.429         	7.975          	0.077
MS.430         	7.96           	-0.002
MS.431         	7.942          	0.006
MS.432         	7.927          	0.006
MS.433         	7.912          	-0.012
MS.434         	7.895          	-0.002
MS.435         	7.88           	-0.014
MS.436         	7.865          	-0.014
MS.437         	7.85           	0.006
MS.438         	7.832          	0.002
MS.439         	7.817          	0.012
MS.440         	7.802          	-0.012
MS.441         	7.787          	0.004
MS.442         	7.77           	0.008
MS.443         	7.755          	0.006
MS.444         	7.74           	-0.014
MS.445         	7.725          	-0.01
MS.446         	7.71           	-0.01
MS.447         	7.692          	-0.01
MS.448         	7.677          	-0.014
MS.449         	7.662          	-0.012
DERIVED EXCITABILITY VARIABLES
Program = QTracP 3/4/2020
Threshold method = 6 (optimised for CAP, using data for present condition only)
SR method = 1 (using actual data values)
6.                 	0.000               	Peak response\(mV)
17.                	29             	Age (years)
18.                	2                   	Sex (M=1, F=2)

EXTRA VARIABLES

MScPeak(mV) = 8.77
MScS5(mA) = 9.48
MScS50(mA) = 13.44
MScS95(mA) = 17.17
MScNSteps = 1
MScSteps(%) = 2.1
MScStepMax(%) = 2.1
MScD50 = 60
MScSlope = 3.66
MSFPeakAmp(mV) = 8.83
MSFNUnits = 159
MSFMeanUnitAmp(uV) = 55.6
MSFHuntTime(m) = 3.74
MSFError(%) = 3.55
MSFNLarge = 43.63
MSFMedianAmp(%) = 0.496
MSFMedianAmp(mV) = 0.0438
MSFHalfAmpAmp(%) = 0.692
MSFHalfAmpAmp(mV) = 0.0611
MSFLargestAmp(%) = 3.12
MSFLargestAmp(mV) = 0.276
MSFMeanRS(%) = 2
MSFOpts = 10106121
MScDuration(min) = 4.1
MSFTraces = 442
MSFSizeLimit(uV) = 22.1
MSFLimitType = 1
MSFSmallestAmp(uV) = 22.3

EXTRA WAVEFORMS


!MScan Model
!159
	1	8.45	0.3	2
	2	8.53	0.51	2
	3	8.8	0.75	2
	4	8.93	1.04	2
	5	9.08	0.62	2
	6	9.28	0.62	2
	7	9.37	0.58	2
	8	9.46	0.78	2
	9	9.53	0.93	2
	10	9.54	0.8	2
	11	9.86	0.44	2
	12	9.91	0.41	2
	13	10.01	0.65	2
	14	10.29	0.42	2
	15	10.37	0.43	2
	16	10.44	0.5	2
	17	10.51	1.2	2
	18	10.57	0.46	2
	19	10.6	0.44	2
	20	10.62	0.37	2
	21	10.64	0.37	2
	22	10.67	0.6	2
	23	10.7	0.43	2
	24	10.72	0.31	2
	25	10.74	0.52	2
	26	10.75	0.41	2
	27	10.79	0.51	2
	28	10.82	0.5	2
	29	10.85	0.45	2
	30	10.9	0.68	2
	31	11.22	2.12	2
	32	11.26	0.59	2
	33	11.29	0.46	2
	34	11.31	0.41	2
	35	11.33	0.39	2
	36	11.35	0.34	2
	37	11.37	0.29	2
	38	11.39	0.32	2
	39	11.42	0.44	2
	40	11.45	0.77	2
	41	11.49	0.77	2
	42	11.53	0.55	2
	43	11.55	0.34	2
	44	11.57	0.34	2
	45	11.59	0.35	2
	46	11.61	0.34	2
	47	11.63	0.37	2
	48	11.66	0.47	2
	49	11.69	0.61	2
	50	11.72	0.58	2
	51	11.75	0.59	2
	52	11.84	1.29	2
	53	11.99	1.69	2
	54	12.03	0.4	2
	55	12.08	0.33	2
	56	12.12	0.51	2
	57	12.15	0.6	2
	58	12.19	0.59	2
