File:              	C:\Qtrac\Data\Daniel M Sørensen\MScan multicentre study\Data from centres\Ankara\Processed data\BAC10112B.QZD
Name:              	TR.ANK.NC.1.2
Protocol:          	MSCAN-R2
Date:              	12/1/21
Start time:        	18:14:23
Age:               	29
Sex:               	F
Temperature:
S/R sites:         	ADM
NC/disease:        	NC
Operator:          	BA
Comments:
M-SCAN DATA (4.7-0.9m)
Scanpts: 11, 14, 411, 419
Stim. (mA)     	Amp. (mV)
MS.1           	11             	8.119
MS.2           	11             	8.159
MS.3           	11             	8.163
MS.4           	11             	8.214
MS.5           	11             	8.214
MS.6           	11             	8.252
MS.7           	11             	8.248
MS.8           	11             	8.26
MS.9           	11             	8.27
MS.10          	11             	8.292
MS.11          	11             	8.282
MS.12          	11             	8.26
MS.13          	11             	8.26
MS.14          	11             	8.282
MS.15          	11             	8.268
MS.16          	11             	8.248
MS.17          	11             	8.256
MS.18          	11             	8.254
MS.19          	11             	8.24
MS.20          	11             	8.22
MS.21          	11             	8.222
MS.22          	11             	8.278
MS.23          	11             	8.238
MS.24          	10.977         	8.226
MS.25          	10.955         	8.202
MS.26          	10.935         	8.222
MS.27          	10.912         	8.202
MS.28          	10.89          	8.194
MS.29          	10.87          	8.252
MS.30          	10.847         	8.182
MS.31          	10.825         	8.194
MS.32          	10.805         	8.169
MS.33          	10.782         	8.171
MS.34          	10.76          	8.194
MS.35          	10.74          	8.21
MS.36          	10.717         	8.175
MS.37          	10.698         	8.2
MS.38          	10.675         	8.149
MS.39          	10.653         	8.155
MS.40          	10.632         	8.143
MS.41          	10.61          	8.111
MS.42          	10.59          	8.135
MS.43          	10.568         	8.157
MS.44          	10.547         	8.109
MS.45          	10.528         	8.161
MS.46          	10.505         	8.137
MS.47          	10.485         	8.153
MS.48          	10.462         	8.115
MS.49          	10.443         	8.119
MS.50          	10.422         	8.099
MS.51          	10.4           	8.129
MS.52          	10.38          	8.002
MS.53          	10.36          	8.063
MS.54          	10.337         	8.079
MS.55          	10.318         	8.032
MS.56          	10.297         	7.942
MS.57          	10.278         	8.014
MS.58          	10.257         	8.008
MS.59          	10.235         	7.928
MS.60          	10.215         	7.954
MS.61          	10.195         	7.998
MS.62          	10.175         	7.932
MS.63          	10.155         	7.918
MS.64          	10.135         	7.867
MS.65          	10.113         	7.932
MS.66          	10.092         	7.93
MS.67          	10.073         	7.883
MS.68          	10.052         	7.847
MS.69          	10.032         	7.863
MS.70          	10.012         	7.885
MS.71          	9.992          	7.807
MS.72          	9.972          	7.9
MS.73          	9.952          	7.779
MS.74          	9.932          	7.873
MS.75          	9.912          	7.819
MS.76          	9.892          	7.734
MS.77          	9.875          	7.716
MS.78          	9.855          	7.69
MS.79          	9.835          	7.688
MS.80          	9.815          	7.626
MS.81          	9.795          	7.656
MS.82          	9.775          	7.738
MS.83          	9.755          	7.702
MS.84          	9.738          	7.622
MS.85          	9.717          	7.575
MS.86          	9.698          	7.551
MS.87          	9.677          	7.597
MS.88          	9.66           	7.501
MS.89          	9.64           	7.597
MS.90          	9.62           	7.523
MS.91          	9.602          	7.515
MS.92          	9.582          	7.46
MS.93          	9.562          	7.368
MS.94          	9.545          	7.36
MS.95          	9.525          	7.39
MS.96          	9.505          	7.404
MS.97          	9.488          	7.416
MS.98          	9.467          	7.396
MS.99          	9.45           	7.334
MS.100         	9.43           	7.354
MS.101         	9.41           	7.352
MS.102         	9.392          	7.317
MS.103         	9.372          	7.38
MS.104         	9.355          	7.283
MS.105         	9.335          	7.243
MS.106         	9.318          	7.235
MS.107         	9.3            	7.18
MS.108         	9.28           	7.191
MS.109         	9.262          	7.257
MS.110         	9.242          	7.245
MS.111         	9.225          	7.255
MS.112         	9.207          	7.162
MS.113         	9.188          	7.138
MS.114         	9.17           	7.118
MS.115         	9.153          	7.082
MS.116         	9.132          	7.09
MS.117         	9.115          	7.021
MS.118         	9.097          	7.13
MS.119         	9.077          	7.132
MS.120         	9.06           	6.967
MS.121         	9.042          	7.108
MS.122         	9.025          	7.1
MS.123         	9.005          	7.172
MS.124         	8.988          	7.058
MS.125         	8.97           	7.046
MS.126         	8.952          	6.995
MS.127         	8.935          	7.084
MS.128         	8.917          	6.848
MS.129         	8.898          	7.025
MS.130         	8.88           	6.985
MS.131         	8.863          	7.015
MS.132         	8.845          	7.039
MS.133         	8.827          	7.058
MS.134         	8.81           	6.921
MS.135         	8.792          	6.812
MS.136         	8.775          	6.617
MS.137         	8.757          	6.852
MS.138         	8.74           	6.892
MS.139         	8.722          	6.6
MS.140         	8.705          	6.755
MS.141         	8.688          	6.753
MS.142         	8.67           	6.508
MS.143         	8.653          	6.747
MS.144         	8.635          	6.399
MS.145         	8.617          	6.486
MS.146         	8.6            	6.49
MS.147         	8.585          	6.572
MS.148         	8.568          	6.393
MS.149         	8.55           	6.367
MS.150         	8.533          	6.246
MS.151         	8.515          	6.375
MS.152         	8.497          	6.153
MS.153         	8.483          	6.292
MS.154         	8.465          	6.224
MS.155         	8.448          	6.113
MS.156         	8.43           	6.234
MS.157         	8.415          	6.214
MS.158         	8.398          	6.016
MS.159         	8.38           	6.067
MS.160         	8.363          	6.208
MS.161         	8.347          	5.984
MS.162         	8.33           	6.091
MS.163         	8.312          	5.966
MS.164         	8.297          	5.932
MS.165         	8.28           	5.974
MS.166         	8.265          	6.008
MS.167         	8.247          	5.889
MS.168         	8.23           	5.946
MS.169         	8.215          	5.906
MS.170         	8.198          	5.73
MS.171         	8.182          	5.726
MS.172         	8.165          	5.76
MS.173         	8.15           	5.7
MS.174         	8.132          	5.547
MS.175         	8.117          	5.62
MS.176         	8.1            	5.775
MS.177         	8.085          	5.583
MS.178         	8.068          	5.567
MS.179         	8.052          	5.541
MS.180         	8.035          	5.396
MS.181         	8.02           	5.589
MS.182         	8.002          	5.525
MS.183         	7.987          	5.448
MS.184         	7.972          	5.323
MS.185         	7.955          	5.261
MS.186         	7.94           	5.301
MS.187         	7.925          	5.215
MS.188         	7.907          	5.062
MS.189         	7.892          	5.156
MS.190         	7.878          	5.146
MS.191         	7.86           	5.126
MS.192         	7.845          	5.086
MS.193         	7.83           	5.033
MS.194         	7.815          	4.886
MS.195         	7.797          	4.991
MS.196         	7.782          	4.935
MS.197         	7.767          	4.884
MS.198         	7.753          	4.691
MS.199         	7.735          	4.711
MS.200         	7.72           	4.707
MS.201         	7.705          	4.747
MS.202         	7.69           	4.687
MS.203         	7.675          	4.508
MS.204         	7.66           	4.818
MS.205         	7.645          	4.667
MS.206         	7.628          	4.622
MS.207         	7.612          	4.546
MS.208         	7.597          	4.52
MS.209         	7.582          	4.637
MS.210         	7.567          	4.486
MS.211         	7.552          	4.252
MS.212         	7.537          	4.484
MS.213         	7.523          	4.357
MS.214         	7.507          	4.445
MS.215         	7.492          	4.246
MS.216         	7.477          	4.008
MS.217         	7.462          	4.167
MS.218         	7.447          	3.92
MS.219         	7.432          	4.101
MS.220         	7.418          	4.268
MS.221         	7.402          	3.994
MS.222         	7.387          	4.32
MS.223         	7.372          	3.924
MS.224         	7.36           	3.821
MS.225         	7.345          	3.857
MS.226         	7.33           	3.619
MS.227         	7.315          	3.728
MS.228         	7.3            	3.632
MS.229         	7.285          	3.462
MS.230         	7.27           	3.376
MS.231         	7.257          	3.382
MS.232         	7.242          	3.382
MS.233         	7.227          	3.547
MS.234         	7.212          	3.432
MS.235         	7.197          	3.569
MS.236         	7.185          	3.255
MS.237         	7.17           	3.124
MS.238         	7.155          	3.182
MS.239         	7.142          	3.239
MS.240         	7.128          	3.192
MS.241         	7.112          	3.092
MS.242         	7.097          	3.074
MS.243         	7.085          	3.265
MS.244         	7.07           	2.872
MS.245         	7.055          	2.792
MS.246         	7.043          	2.822
MS.247         	7.027          	2.735
MS.248         	7.015          	2.626
MS.249         	7              	2.749
MS.250         	6.985          	2.536
MS.251         	6.972          	2.626
MS.252         	6.957          	2.79
MS.253         	6.945          	2.322
MS.254         	6.93           	2.437
MS.255         	6.918          	2.157
MS.256         	6.902          	2.308
MS.257         	6.89           	2.477
MS.258         	6.875          	2.308
MS.259         	6.862          	2.224
MS.260         	6.847          	1.988
MS.261         	6.835          	2.167
MS.262         	6.82           	2.107
MS.263         	6.807          	1.974
MS.264         	6.793          	1.974
MS.265         	6.78           	1.853
MS.266         	6.765          	1.926
MS.267         	6.753          	1.539
MS.268         	6.74           	1.934
MS.269         	6.725          	1.946
MS.270         	6.712          	1.831
MS.271         	6.697          	1.49
MS.272         	6.685          	1.611
MS.273         	6.672          	1.533
MS.274         	6.657          	1.714
MS.275         	6.645          	1.623
MS.276         	6.632          	1.47
MS.277         	6.617          	1.428
MS.278         	6.605          	1.623
MS.279         	6.592          	1.321
MS.280         	6.58           	1.287
MS.281         	6.565          	1.67
MS.282         	6.552          	1.436
MS.283         	6.54           	1.41
MS.284         	6.527          	1.347
MS.285         	6.512          	1.607
MS.286         	6.5            	1.295
MS.287         	6.487          	1.301
MS.288         	6.475          	1.2
MS.289         	6.462          	1.196
MS.290         	6.45           	1.225
MS.291         	6.435          	1.08
MS.292         	6.422          	1.178
MS.293         	6.41           	1.247
MS.294         	6.398          	1.114
MS.295         	6.385          	1.249
MS.296         	6.372          	1.152
MS.297         	6.36           	1.063
MS.298         	6.347          	0.933
MS.299         	6.335          	1.13
MS.300         	6.32           	0.961
MS.301         	6.307          	0.963
MS.302         	6.295          	0.908
MS.303         	6.282          	0.922
MS.304         	6.27           	0.959
MS.305         	6.257          	0.874
MS.306         	6.245          	0.771
MS.307         	6.233          	0.8
MS.308         	6.22           	0.826
MS.309         	6.207          	0.792
MS.310         	6.195          	0.906
MS.311         	6.182          	0.733
MS.312         	6.17           	0.888
MS.313         	6.16           	0.87
MS.314         	6.148          	0.822
MS.315         	6.135          	0.761
MS.316         	6.122          	0.731
MS.317         	6.11           	0.59
MS.318         	6.097          	0.638
MS.319         	6.085          	0.784
MS.320         	6.072          	0.784
MS.321         	6.06           	0.691
MS.322         	6.05           	0.63
MS.323         	6.037          	0.711
MS.324         	6.025          	0.636
MS.325         	6.012          	0.614
MS.326         	6              	0.588
MS.327         	5.99           	0.675
MS.328         	5.977          	0.502
MS.329         	5.965          	0.604
MS.330         	5.952          	0.423
MS.331         	5.94           	0.437
MS.332         	5.93           	0.489
MS.333         	5.918          	0.534
MS.334         	5.905          	0.56
MS.335         	5.895          	0.415
MS.336         	5.882          	0.447
MS.337         	5.87           	0.514
MS.338         	5.858          	0.473
MS.339         	5.847          	0.522
MS.340         	5.835          	0.445
MS.341         	5.822          	0.479
MS.342         	5.812          	0.451
MS.343         	5.8            	0.55
MS.344         	5.787          	0.461
MS.345         	5.777          	0.502
MS.346         	5.765          	0.405
MS.347         	5.755          	0.395
MS.348         	5.742          	0.425
MS.349         	5.73           	0.425
MS.350         	5.72           	0.387
MS.351         	5.707          	0.379
MS.352         	5.697          	0.435
MS.353         	5.685          	0.359
MS.354         	5.675          	0.326
MS.355         	5.662          	0.298
MS.356         	5.652          	0.431
MS.357         	5.64           	0.387
MS.358         	5.63           	0.22
MS.359         	5.617          	0.352
MS.360         	5.608          	0.377
MS.361         	5.595          	0.294
MS.362         	5.585          	0.298
MS.363         	5.572          	0.314
MS.364         	5.562          	0.242
MS.365         	5.55           	0.296
MS.366         	5.54           	0.163
MS.367         	5.527          	0.322
MS.368         	5.517          	0.195
MS.369         	5.507          	0.197
MS.370         	5.495          	0.159
MS.371         	5.485          	0.211
MS.372         	5.472          	0.161
MS.373         	5.463          	0.175
MS.374         	5.452          	0.171
MS.375         	5.44           	0.111
MS.376         	5.43           	0.201
MS.377         	5.42           	0.121
MS.378         	5.407          	0.195
MS.379         	5.398          	0.115
MS.380         	5.387          	0.099
MS.381         	5.375          	0.079
MS.382         	5.365          	0.123
MS.383         	5.355          	0.157
MS.384         	5.342          	0.115
MS.385         	5.332          	0.109
MS.386         	5.322          	0.083
MS.387         	5.312          	0.079
MS.388         	5.3            	0.081
MS.389         	5.29           	0.095
MS.390         	5.28           	0.135
MS.391         	5.27           	0.081
MS.392         	5.26           	0.087
MS.393         	5.247          	0.077
MS.394         	5.237          	0.083
MS.395         	5.227          	0.077
MS.396         	5.217          	0.079
MS.397         	5.207          	0.109
MS.398         	5.195          	0.073
MS.399         	5.185          	0.075
MS.400         	5.175          	0.079
MS.401         	5.165          	0.079
MS.402         	5.155          	0.075
MS.403         	5.145          	0.099
MS.404         	5.135          	0.077
MS.405         	5.125          	0.079
MS.406         	5.112          	0.075
MS.407         	5.102          	0.087
MS.408         	5.092          	0.077
MS.409         	5.082          	0.085
MS.410         	5.072          	0.07
MS.411         	5.062          	0.07
MS.412         	5.052          	0.077
MS.413         	5.043          	0.075
MS.414         	5.032          	0.07
MS.415         	5.023          	0.07
MS.416         	5.012          	0.077
MS.417         	5.003          	0.089
MS.418         	4.992          	0.068
MS.419         	4.983          	0.073
MS.420         	4.972          	0.07
MS.421         	4.963          	0.083
MS.422         	4.952          	0.07
MS.423         	4.943          	0.103
MS.424         	4.932          	0.075
DERIVED EXCITABILITY VARIABLES
Program = QTracP 3/4/2020
Threshold method = 6 (optimised for CAP, using data for present condition only)
SR method = 1 (using actual data values)
6.                 	0.000               	Peak response\(mV)
17.                	29                  	Age (years)
18.                	2                   	Sex (M=1, F=2)

EXTRA VARIABLES

MScPeak(mV) = 8.16
MScS5(mA) = 5.71
MScS50(mA) = 7.43
MScS95(mA) = 9.9
MScNSteps = 1
MScSteps(%) = 2.5
MScStepMax(%) = 2.5
MScD50 = 56
MScSlope = 4.73
MSFPeakAmp(mV) = 8.2
MSFNUnits = 156
MSFMeanUnitAmp(uV) = 52.5
MSFHuntTime(m) = 2.24
MSFError(%) = 2.13
MSFNLarge = 44.4
MSFMedianAmp(%) = 0.546
MSFMedianAmp(mV) = 0.0448
MSFHalfAmpAmp(%) = 0.724
MSFHalfAmpAmp(mV) = 0.0593
MSFLargestAmp(%) = 2.74
MSFLargestAmp(mV) = 0.224
MSFMeanRS(%) = 2
MSFOpts = 10106121
MScDuration(min) = 3.8
MSFTraces = 409
MSFSizeLimit(uV) = 20.5
MSFLimitType = 1
MSFSmallestAmp(uV) = 20.7

EXTRA WAVEFORMS


!MScan Model
!156
	1	5.3	0.32	2
	2	5.4	0.43	2
	3	5.45	0.41	2
	4	5.51	0.57	2
	5	5.56	0.63	2
	6	5.63	0.84	2
	7	5.69	0.62	2
	8	5.74	0.43	2
	9	5.81	0.64	2
	10	5.94	0.59	2
	11	5.98	0.57	2
	12	6.07	1.13	2
	13	6.13	1.16	2
	14	6.23	1.23	2
	15	6.27	0.36	2
	16	6.29	0.41	2
	17	6.3	0.36	2
	18	6.32	0.58	2
	19	6.33	0.46	2
	20	6.36	0.66	2
	21	6.41	0.93	2
	22	6.44	0.43	2
	23	6.46	0.7	2
	24	6.53	1.59	2
	25	6.62	1.63	2
	26	6.68	1.38	2
	27	6.71	1.16	2
	28	6.74	1.1	2
	29	6.76	0.71	2
	30	6.79	1	2
	31	6.81	0.9	2
	32	6.83	0.93	2
	33	6.85	0.63	2
	34	6.87	0.93	2
	35	6.9	1.17	2
	36	6.93	1.24	2
	37	6.95	0.91	2
	38	6.97	0.64	2
	39	6.99	0.9	2
	40	7	0.82	2
	41	7.02	0.77	2
	42	7.03	0.66	2
	43	7.05	0.58	2.4
	44	7.06	0.44	2
	45	7.07	0.47	2
	46	7.09	0.75	2
	47	7.12	1.51	2
	48	7.15	1.26	2
	49	7.18	1.07	2
	50	7.21	0.63	2
	51	7.24	0.67	2
	52	7.25	0.45	2
	53	7.27	0.55	2
	54	7.28	0.72	2
	55	7.29	0.76	2
	56	7.31	0.99	2
	57	7.34	0.93	2
	58	7.36	0.76	2
	59	7.39	1.46	2
	60	7.44	2.21	2
	61	7.47	0.65	2
	62	7.5	0.63	2
	63	7.52	0.66	2
	64	7.54	0.91	2
	65	7.58	1.26	2
	66	7.61	0.83	2
	67	7.64	0.75	2
	68	7.67	0.58	2
	69	7.69	0.45	2
	70	7.71	0.31	2
	71	7.74	0.49	2
	72	7.75	0.28	2
	73	7.76	0.28	2
	74	7.76	0.28	2
	75	7.77	0.31	2
	76	7.78	0.34	2
	77	7.79	0.34	2
	78	7.8	0.3	2
	79	7.82	0.48	2
	80	7.83	0.29	2
	81	7.84	0.29	2
	82	7.85	0.27	2
	83	7.86	0.25	2
	84	7.87	0.25	2
	85	7.87	0.25	2
	86	7.88	0.3	2
	87	7.89	0.34	2
	88	7.9	0.29	2
	89	7.91	0.28	2
	90	7.92	0.28	2
	91	7.93	0.28	2
	92	7.94	0.39	2
	93	7.95	0.39	2
	94	7.97	0.27	2
	95	7.98	0.41	2
	96	8	0.41	2
	97	8.02	0.97	2
	98	8.07	1.12	2
	99	8.1	0.46	2
	100	8.11	0.29	2
	101	8.13	0.47	2
	102	8.15	0.44	2
	103	8.16	0.43	2
	104	8.18	0.39	2
	105	8.19	0.39	2
	106	8.23	0.55	2
	107	8.24	0.32	2
	108	8.27	0.54	2
	109	8.3	0.88	2
	110	8.33	0.57	2
	111	8.37	0.57	2
	112	8.4	0.55	2
	113	8.43	0.4	2
	114	8.45	0.44	2
	115	8.48	0.55	2
	116	8.5	0.46	2
	117	8.52	0.7	2
	118	8.55	0.4	2
	119	8.57	0.62	2
	120	8.59	2.74	2
