File:              	C:\Qtrac\Data\Daniel M Sørensen\MScan multicentre study\Data from centres\Ankara\Processed data\BCC00821B.QZD
Name:              	TR.ANK.NC.2.2
Protocol:          	MSCAN-R2
Date:              	21/8/20
Start time:        	16:57:29
Age:               	54
Sex:               	m
Temperature:
S/R sites:         	ADM
NC/disease:        	NC
Operator:          	eb
Comments:
M-SCAN DATA (4.2-1.7m)
Scanpts: 16, 19, 297, 301
Stim. (mA)     	Amp. (mV)
MS.1           	21             	9.839
MS.2           	21             	9.785
MS.3           	21             	9.797
MS.4           	21             	9.757
MS.5           	21             	9.814
MS.6           	21             	9.817
MS.7           	21             	9.792
MS.8           	21             	9.757
MS.9           	21             	9.778
MS.10          	21             	9.814
MS.11          	21             	9.852
MS.12          	21             	9.774
MS.13          	21             	9.791
MS.14          	21             	9.84
MS.15          	21             	9.805
MS.16          	21             	9.813
MS.17          	21             	9.817
MS.18          	21             	9.796
MS.19          	21             	9.827
MS.20          	21             	9.857
MS.21          	21             	9.855
MS.22          	21             	9.834
MS.23          	21             	9.796
MS.24          	20.915         	9.694
MS.25          	20.875         	9.772
MS.26          	20.833         	9.865
MS.27          	20.79          	9.817
MS.28          	20.75          	9.666
MS.29          	20.708         	9.724
MS.30          	20.667         	9.659
MS.31          	20.625         	9.656
MS.32          	20.585         	9.652
MS.33          	20.542         	9.72
MS.34          	20.502         	9.711
MS.35          	20.46          	9.689
MS.36          	20.42          	9.517
MS.37          	20.38          	9.33
MS.38          	20.337         	9.379
MS.39          	20.297         	9.285
MS.40          	20.257         	9.377
MS.41          	20.217         	9.498
MS.42          	20.177         	9.514
MS.43          	20.135         	9.404
MS.44          	20.095         	9.265
MS.45          	20.055         	9.238
MS.46          	20.015         	9.176
MS.47          	19.975         	9.205
MS.48          	19.935         	9.272
MS.49          	19.895         	9.099
MS.50          	19.855         	9.037
MS.51          	19.817         	9.135
MS.52          	19.778         	9.017
MS.53          	19.737         	9.124
MS.54          	19.698         	8.834
MS.55          	19.657         	9.053
MS.56          	19.62          	8.848
MS.57          	19.58          	8.926
MS.58          	19.54          	8.923
MS.59          	19.502         	8.739
MS.60          	19.462         	8.81
MS.61          	19.425         	8.876
MS.62          	19.385         	8.822
MS.63          	19.347         	8.813
MS.64          	19.307         	8.665
MS.65          	19.27          	8.639
MS.66          	19.23          	8.567
MS.67          	19.192         	8.618
MS.68          	19.155         	8.724
MS.69          	19.115         	8.575
MS.70          	19.077         	8.438
MS.71          	19.04          	8.374
MS.72          	19.002         	8.546
MS.73          	18.962         	8.413
MS.74          	18.925         	8.17
MS.75          	18.887         	8.314
MS.76          	18.85          	8.375
MS.77          	18.812         	8.21
MS.78          	18.775         	8.201
MS.79          	18.737         	8.04
MS.80          	18.7           	8.115
MS.81          	18.663         	7.949
MS.82          	18.625         	7.979
MS.83          	18.587         	7.836
MS.84          	18.55          	7.759
MS.85          	18.515         	7.631
MS.86          	18.477         	7.642
MS.87          	18.44          	7.589
MS.88          	18.403         	7.401
MS.89          	18.368         	7.31
MS.90          	18.33          	7.15
MS.91          	18.292         	7.262
MS.92          	18.257         	7.133
MS.93          	18.22          	7.069
MS.94          	18.182         	7.173
MS.95          	18.147         	6.964
MS.96          	18.11          	7.094
MS.97          	18.075         	6.791
MS.98          	18.038         	6.971
MS.99          	18.003         	6.804
MS.100         	17.967         	6.628
MS.101         	17.93          	6.411
MS.102         	17.895         	6.36
MS.103         	17.86          	6.331
MS.104         	17.823         	6.692
MS.105         	17.788         	6.318
MS.106         	17.753         	6.232
MS.107         	17.717         	6.141
MS.108         	17.682         	6.099
MS.109         	17.645         	6.279
MS.110         	17.61          	6.32
MS.111         	17.575         	6.001
MS.112         	17.54          	5.929
MS.113         	17.505         	6.119
MS.114         	17.47          	6.067
MS.115         	17.435         	6.244
MS.116         	17.4           	5.682
MS.117         	17.365         	5.77
MS.118         	17.333         	5.592
MS.119         	17.297         	5.61
MS.120         	17.262         	5.612
MS.121         	17.227         	5.911
MS.122         	17.192         	5.466
MS.123         	17.16          	5.475
MS.124         	17.125         	5.519
MS.125         	17.09          	5.562
MS.126         	17.057         	5.449
MS.127         	17.022         	5.259
MS.128         	16.987         	5.219
MS.129         	16.955         	5.251
MS.130         	16.92          	5.013
MS.131         	16.887         	4.843
MS.132         	16.852         	4.681
MS.133         	16.82          	4.746
MS.134         	16.785         	4.906
MS.135         	16.753         	4.794
MS.136         	16.717         	4.541
MS.137         	16.685         	4.58
MS.138         	16.653         	4.878
MS.139         	16.618         	4.718
MS.140         	16.585         	4.572
MS.141         	16.552         	4.122
MS.142         	16.52          	4.105
MS.143         	16.485         	4.183
MS.144         	16.452         	4.252
MS.145         	16.42          	4.07
MS.146         	16.387         	4.016
MS.147         	16.355         	3.967
MS.148         	16.323         	3.865
MS.149         	16.29          	3.765
MS.150         	16.257         	3.688
MS.151         	16.225         	3.604
MS.152         	16.192         	3.575
MS.153         	16.16          	3.6
MS.154         	16.128         	3.491
MS.155         	16.095         	3.689
MS.156         	16.062         	3.497
MS.157         	16.03          	3.358
MS.158         	16             	3.458
MS.159         	15.967         	3.392
MS.160         	15.935         	3.276
MS.161         	15.902         	3.025
MS.162         	15.872         	3.065
MS.163         	15.84          	2.924
MS.164         	15.807         	3.499
MS.165         	15.777         	3.478
MS.166         	15.745         	3.137
MS.167         	15.712         	2.67
MS.168         	15.682         	2.838
MS.169         	15.65          	2.697
MS.170         	15.62          	2.69
MS.171         	15.587         	2.285
MS.172         	15.557         	2.701
MS.173         	15.525         	2.437
MS.174         	15.495         	2.357
MS.175         	15.465         	2.244
MS.176         	15.432         	1.818
MS.177         	15.402         	2.013
MS.178         	15.372         	1.895
MS.179         	15.34          	1.697
MS.180         	15.31          	1.849
MS.181         	15.28          	1.689
MS.182         	15.25          	1.954
MS.183         	15.217         	1.619
MS.184         	15.188         	1.705
MS.185         	15.157         	1.272
MS.186         	15.127         	1.689
MS.187         	15.097         	1.619
MS.188         	15.068         	1.554
MS.189         	15.037         	1.569
MS.190         	15.007         	1.44
MS.191         	14.977         	1.526
MS.192         	14.947         	1.504
MS.193         	14.917         	1.489
MS.194         	14.887         	1.221
MS.195         	14.858         	1.351
MS.196         	14.827         	1.624
MS.197         	14.797         	1.25
MS.198         	14.77          	1.359
MS.199         	14.74          	1.163
MS.200         	14.71          	1.757
MS.201         	14.68          	1.544
MS.202         	14.65          	1.19
MS.203         	14.622         	1.293
MS.204         	14.592         	1.453
MS.205         	14.562         	1.195
MS.206         	14.535         	1.086
MS.207         	14.505         	1.056
MS.208         	14.477         	1.095
MS.209         	14.447         	1.069
MS.210         	14.417         	1.377
MS.211         	14.39          	1.229
MS.212         	14.36          	1.046
MS.213         	14.332         	1.075
MS.214         	14.302         	1.183
MS.215         	14.275         	1.333
MS.216         	14.247         	1.001
MS.217         	14.217         	0.92
MS.218         	14.19          	1.332
MS.219         	14.162         	1.075
MS.220         	14.132         	0.896
MS.221         	14.105         	0.769
MS.222         	14.077         	0.728
MS.223         	14.047         	0.883
MS.224         	14.02          	0.583
MS.225         	13.992         	0.582
MS.226         	13.965         	0.642
MS.227         	13.938         	0.367
MS.228         	13.91          	0.532
MS.229         	13.88          	0.479
MS.230         	13.852         	0.488
MS.231         	13.825         	0.431
MS.232         	13.797         	0.492
MS.233         	13.77          	0.52
MS.234         	13.742         	0.305
MS.235         	13.715         	0.275
MS.236         	13.688         	0.314
MS.237         	13.66          	0.332
MS.238         	13.632         	0.315
MS.239         	13.605         	0.193
MS.240         	13.58          	0.14
MS.241         	13.552         	0.132
MS.242         	13.525         	0.165
MS.243         	13.497         	0.088
MS.244         	13.47          	0.127
MS.245         	13.445         	0.165
MS.246         	13.417         	0.072
MS.247         	13.39          	0.123
MS.248         	13.362         	0.084
MS.249         	13.337         	0.079
MS.250         	13.31          	0.103
MS.251         	13.282         	0.123
MS.252         	13.257         	0.081
MS.253         	13.23          	0.029
MS.254         	13.205         	0.077
MS.255         	13.177         	0.034
MS.256         	13.153         	0.048
MS.257         	13.125         	0.063
MS.258         	13.1           	0.007
MS.259         	13.072         	0.088
MS.260         	13.047         	0.032
MS.261         	13.02          	0.057
MS.262         	12.995         	0.059
MS.263         	12.967         	0.031
MS.264         	12.943         	0.051
MS.265         	12.917         	-0.004
MS.266         	12.89          	0.006
MS.267         	12.865         	0.04
MS.268         	12.84          	0.037
MS.269         	12.812         	0.038
MS.270         	12.787         	0.017
MS.271         	12.762         	0.024
MS.272         	12.738         	0.031
MS.273         	12.712         	0.013
MS.274         	12.685         	-0.009
MS.275         	12.66          	0.027
MS.276         	12.635         	0.024
MS.277         	12.61          	0.001
MS.278         	12.585         	0.028
MS.279         	12.56          	0.006
MS.280         	12.535         	0.061
MS.281         	12.51          	0.01
MS.282         	12.485         	0.046
MS.283         	12.46          	0.032
MS.284         	12.435         	0.079
MS.285         	12.41          	0.079
MS.286         	12.385         	0.073
MS.287         	12.36          	0.026
MS.288         	12.335         	0.011
MS.289         	12.312         	0.018
MS.290         	12.287         	-0.004
MS.291         	12.262         	-0.011
MS.292         	12.238         	0.007
MS.293         	12.212         	0.01
MS.294         	12.19          	0.004
MS.295         	12.165         	0.027
MS.296         	12.14          	0.006
MS.297         	12.115         	-0.013
MS.298         	12.092         	-0.021
MS.299         	12.068         	-0.01
MS.300         	12.042         	-0.013
MS.301         	12.02          	-0.002
MS.302         	11.995         	0.004
MS.303         	11.972         	0.007
DERIVED EXCITABILITY VARIABLES
Program = QTracP 3/4/2020
Threshold method = 6 (optimised for CAP, using data for present condition only)
SR method = 1 (using actual data values)
6.                 	0.000               	Peak response\(mV)
17.                	54                  	Age (years)
18.                	1                   	Sex (M=1, F=2)

EXTRA VARIABLES

MScPeak(mV) = 9.79
MScS5(mA) = 13.86
MScS50(mA) = 16.82
MScS95(mA) = 20.23
MScNSteps = 5
MScSteps(%) = 12
MScStepMax(%) = 3
MScD50 = 41
MScSlope = 5.98
MSFPeakAmp(mV) = 9.83
MSFNUnits = 147
MSFMeanUnitAmp(uV) = 66.8
MSFHuntTime(m) = 2.18
MSFError(%) = 7.42
MSFNLarge = 34.41
MSFMedianAmp(%) = 0.494
MSFMedianAmp(mV) = 0.0485
MSFHalfAmpAmp(%) = 0.716
MSFHalfAmpAmp(mV) = 0.0703
MSFLargestAmp(%) = 3.86
MSFLargestAmp(mV) = 0.379
MSFMeanRS(%) = 2
MSFOpts = 10106121
MScDuration(min) = 2.5
MSFTraces = 286
MSFSizeLimit(uV) = 24.6
MSFLimitType = 1
MSFSmallestAmp(uV) = 24.9

EXTRA WAVEFORMS


!MScan Model
!147
	1	12.27	0.32	2
	2	13.13	0.33	2
	3	13.31	0.63	2
	4	13.58	0.58	2
	5	13.64	0.52	2
	6	13.68	0.36	2
	7	13.73	0.47	2
	8	13.76	0.34	2
	9	13.81	0.52	2
	10	13.86	0.53	2
	11	13.9	0.43	2
	12	13.94	0.49	2
	13	13.98	0.54	2
	14	14.01	0.67	2
	15	14.06	0.5	2
	16	14.08	1.24	2
	17	14.14	2.24	2
	18	14.58	2.31	2
	19	14.99	2.36	2
	20	15.12	1.13	2
	21	15.2	0.82	2
	22	15.23	0.4	2
	23	15.27	0.46	2
	24	15.3	0.51	2
	25	15.33	0.8	2
	26	15.37	0.55	2
	27	15.37	0.37	2
	28	15.4	0.72	2
	29	15.42	0.53	2
	30	15.45	0.45	2
	31	15.47	0.52	2
	32	15.5	0.84	2
	33	15.56	1.61	2
	34	15.61	2.21	2
	35	15.67	1.53	2
	36	15.77	2.26	2
	37	16	3.86	2
	38	16.04	0.53	2
	39	16.06	0.32	2
	40	16.08	0.31	2
	41	16.11	0.3	2
	42	16.13	0.57	2
	43	16.17	0.28	2
	44	16.19	0.28	2
	45	16.21	0.34	2
	46	16.23	0.36	2
	47	16.25	0.37	2
	48	16.27	0.36	2
	49	16.29	0.36	2
	50	16.31	0.36	2
	51	16.33	0.41	2
	52	16.36	0.52	2
	53	16.39	0.64	2
	54	16.42	0.62	2
	55	16.44	0.68	2
	56	16.5	1.34	2
	57	16.56	1.26	2
	58	16.63	1.14	2
	59	16.7	1.61	2
	60	16.79	1.82	2
	61	16.8	0.29	2
	62	16.82	0.29	2
	63	16.84	0.29	2
	64	16.86	0.33	2
	65	16.88	0.35	2
	66	16.9	0.37	2
	67	16.92	0.38	2
	68	16.94	0.42	2
	69	16.96	0.42	2
	70	16.98	0.42	2
	71	17.03	1	2
	72	17.08	0.96	2
	73	17.15	1.21	2
	74	17.25	1.71	2
	75	17.34	1.42	2
	76	17.42	0.79	2
	77	17.56	2.14	2
	78	17.71	1.89	2
	79	17.77	0.88	2
	80	17.83	0.87	2
	81	17.86	0.47	2
	82	17.89	0.49	2
	83	17.92	0.61	2
	84	17.96	0.6	2
	85	17.99	0.61	2
	86	18.02	0.62	2
	87	18.05	0.54	2
	88	18.07	0.45	2
	89	18.1	0.48	2
	90	18.12	0.47	2
	91	18.14	0.46	2
	92	18.17	0.39	2
	93	18.2	0.67	2
	94	18.24	0.49	2
	95	18.26	0.38	2
	96	18.28	0.3	2
	97	18.3	0.44	2
	98	18.32	0.42	2
	99	18.34	0.28	2
	100	18.35	0.28	2
	101	18.38	0.44	2
	102	18.39	0.31	2
	103	18.41	0.3	2
	104	18.42	0.5	2
	105	18.45	0.62	2
	106	18.48	0.6	2
	107	18.52	0.47	2
	108	18.53	0.25	2
	109	18.54	0.25	2
	110	18.56	0.38	2
	111	18.58	0.5	2
	112	18.61	0.5	2
	113	18.62	0.38	2
	114	18.64	0.4	2
	115	18.67	0.45	2
	116	18.69	0.35	2
	117	18.71	0.35	2
	118	18.73	0.35	2
	119	18.75	0.32	2
	120	18.78	0.33	2
	121	18.82	0.58	2
	122	18.86	0.57	2
	123	18.9	0.55	2
	124	18.95	0.5	2
	125	18.99	0.47	2
	126	19.03	0.45	2
	127	19.07	0.38	2
	128	19.11	0.35	2
	129	19.15	0.42	2
	130	19.22	0.81	2
	131	19.3	0.74	2
	132	19.38	0.55	2
	133	19.46	0.62	2
	134	19.54	0.62	2
	135	19.6	0.43	2
	136	19.66	0.37	2
	137	19.72	0.39	2
	138	19.78	0.49	2
	139	19.83	0.4	2
	140	19.88	0.41	2
	141	19.93	0.48	2
	142	20.13	1.4	2
	143	20.29	1.42	2
	144	20.39	0.76	2
	145	20.47	0.34	2
	146	20.55	0.5	2
	147	20.74	1.33	2

