File:              	C:\Qtrac\Data\Daniel M Sørensen\MScan multicentre study\Data from centres\Ankara\Processed data\ÇCC10122A.QZD
Name:              	TR.ANK.NC.3.2
Protocol:          	MSCAN-R2
Date:              	22/1/21
Start time:        	17:32:35
Age:               	29
Sex:               	M
Temperature:
S/R sites:         	APB
NC/disease:        	NC
Operator:          	HA
Comments:
M-SCAN DATA (5.5-1.3m)
Scanpts: 15, 21, 445, 466
Stim. (mA)     	Amp. (mV)
MS.1           	15             	6.853
MS.2           	15             	6.884
MS.3           	15             	6.829
MS.4           	15             	6.809
MS.5           	15             	6.81
MS.6           	15             	6.808
MS.7           	15             	6.777
MS.8           	15             	6.781
MS.9           	15             	6.772
MS.10          	15             	6.796
MS.11          	15             	6.813
MS.12          	15             	6.796
MS.13          	15             	6.765
MS.14          	15             	6.765
MS.15          	15             	6.753
MS.16          	15             	6.741
MS.17          	15             	6.736
MS.18          	15             	6.749
MS.19          	15             	6.764
MS.20          	15             	6.754
MS.21          	15             	6.758
MS.22          	15             	6.77
MS.23          	14.97          	6.757
MS.24          	14.94          	6.774
MS.25          	14.91          	6.761
MS.26          	14.88          	6.754
MS.27          	14.85          	6.741
MS.28          	14.82          	6.761
MS.29          	14.792         	6.755
MS.30          	14.762         	6.771
MS.31          	14.733         	6.777
MS.32          	14.702         	6.794
MS.33          	14.672         	6.788
MS.34          	14.645         	6.794
MS.35          	14.615         	6.809
MS.36          	14.585         	6.794
MS.37          	14.557         	6.758
MS.38          	14.527         	6.738
MS.39          	14.497         	6.713
MS.40          	14.47          	6.7
MS.41          	14.44          	6.781
MS.42          	14.412         	6.602
MS.43          	14.382         	6.605
MS.44          	14.355         	6.764
MS.45          	14.325         	6.597
MS.46          	14.297         	6.588
MS.47          	14.267         	6.725
MS.48          	14.24          	6.53
MS.49          	14.212         	6.553
MS.50          	14.182         	6.544
MS.51          	14.155         	6.567
MS.52          	14.127         	6.434
MS.53          	14.097         	6.737
MS.54          	14.07          	6.55
MS.55          	14.042         	6.753
MS.56          	14.015         	6.707
MS.57          	13.985         	6.409
MS.58          	13.957         	6.335
MS.59          	13.93          	6.392
MS.60          	13.903         	6.456
MS.61          	13.875         	6.388
MS.62          	13.847         	6.298
MS.63          	13.82          	6.311
MS.64          	13.792         	6.226
MS.65          	13.765         	6.27
MS.66          	13.737         	6.379
MS.67          	13.71          	6.355
MS.68          	13.682         	6.261
MS.69          	13.655         	6.316
MS.70          	13.627         	6.191
MS.71          	13.6           	6.224
MS.72          	13.572         	6.404
MS.73          	13.545         	6.277
MS.74          	13.517         	6.183
MS.75          	13.492         	6.187
MS.76          	13.465         	6.144
MS.77          	13.438         	6.154
MS.78          	13.41          	6.135
MS.79          	13.385         	6.04
MS.80          	13.358         	6.122
MS.81          	13.33          	6.003
MS.82          	13.305         	6.008
MS.83          	13.278         	5.941
MS.84          	13.25          	5.842
MS.85          	13.225         	5.977
MS.86          	13.197         	5.942
MS.87          	13.172         	5.881
MS.88          	13.145         	5.876
MS.89          	13.12          	5.87
MS.90          	13.092         	5.886
MS.91          	13.068         	5.852
MS.92          	13.04          	5.959
MS.93          	13.015         	5.887
MS.94          	12.987         	5.776
MS.95          	12.962         	5.859
MS.96          	12.938         	5.759
MS.97          	12.91          	5.784
MS.98          	12.885         	5.554
MS.99          	12.86          	5.693
MS.100         	12.832         	5.56
MS.101         	12.807         	5.664
MS.102         	12.782         	5.71
MS.103         	12.757         	5.546
MS.104         	12.73          	5.648
MS.105         	12.705         	5.718
MS.106         	12.68          	5.674
MS.107         	12.655         	5.586
MS.108         	12.63          	5.4
MS.109         	12.605         	5.452
MS.110         	12.58          	5.593
MS.111         	12.555         	5.392
MS.112         	12.53          	5.435
MS.113         	12.505         	5.31
MS.114         	12.48          	5.303
MS.115         	12.455         	5.305
MS.116         	12.43          	5.231
MS.117         	12.405         	5.237
MS.118         	12.38          	5.283
MS.119         	12.355         	4.839
MS.120         	12.33          	5.227
MS.121         	12.305         	5.281
MS.122         	12.28          	4.631
MS.123         	12.257         	4.744
MS.124         	12.233         	4.692
MS.125         	12.207         	5.092
MS.126         	12.182         	4.807
MS.127         	12.16          	5.095
MS.128         	12.135         	4.885
MS.129         	12.11          	4.525
MS.130         	12.085         	4.268
MS.131         	12.062         	4.396
MS.132         	12.037         	4.23
MS.133         	12.012         	4.252
MS.134         	11.99          	4.619
MS.135         	11.965         	4.575
MS.136         	11.943         	4.209
MS.137         	11.917         	4.341
MS.138         	11.895         	4.052
MS.139         	11.87          	4.16
MS.140         	11.847         	4.086
MS.141         	11.822         	3.995
MS.142         	11.8           	3.928
MS.143         	11.775         	3.762
MS.144         	11.752         	3.813
MS.145         	11.73          	3.778
MS.146         	11.705         	4.255
MS.147         	11.682         	3.706
MS.148         	11.657         	3.748
MS.149         	11.635         	3.706
MS.150         	11.613         	3.557
MS.151         	11.59          	3.744
MS.152         	11.565         	3.702
MS.153         	11.542         	3.79
MS.154         	11.52          	3.453
MS.155         	11.497         	3.29
MS.156         	11.472         	3.507
MS.157         	11.45          	3.501
MS.158         	11.427         	3.436
MS.159         	11.405         	3.232
MS.160         	11.382         	3.284
MS.161         	11.36          	3.458
MS.162         	11.337         	3.025
MS.163         	11.315         	3.533
MS.164         	11.292         	3.029
MS.165         	11.27          	3.309
MS.166         	11.247         	2.871
MS.167         	11.225         	3.154
MS.168         	11.202         	3.004
MS.169         	11.18          	3.105
MS.170         	11.157         	2.738
MS.171         	11.135         	2.782
MS.172         	11.113         	2.81
MS.173         	11.09          	2.985
MS.174         	11.068         	2.588
MS.175         	11.045         	2.607
MS.176         	11.023         	2.483
MS.177         	11.002         	2.651
MS.178         	10.98          	2.562
MS.179         	10.957         	2.601
MS.180         	10.935         	2.642
MS.181         	10.915         	2.477
MS.182         	10.892         	2.4
MS.183         	10.87          	2.417
MS.184         	10.85          	2.374
MS.185         	10.827         	2.354
MS.186         	10.805         	2.401
MS.187         	10.785         	2.26
MS.188         	10.762         	2.288
MS.189         	10.74          	2.255
MS.190         	10.72          	2.211
MS.191         	10.698         	2.247
MS.192         	10.677         	2.19
MS.193         	10.655         	2.269
MS.194         	10.635         	2.177
MS.195         	10.613         	2.108
MS.196         	10.592         	2.019
MS.197         	10.57          	1.974
MS.198         	10.55          	2.021
MS.199         	10.528         	2.056
MS.200         	10.507         	1.958
MS.201         	10.485         	1.965
MS.202         	10.465         	1.937
MS.203         	10.445         	1.836
MS.204         	10.422         	1.927
MS.205         	10.403         	1.903
MS.206         	10.382         	1.769
MS.207         	10.36          	1.633
MS.208         	10.34          	1.62
MS.209         	10.32          	1.776
MS.210         	10.3           	1.666
MS.211         	10.278         	1.565
MS.212         	10.257         	1.41
MS.213         	10.238         	1.879
MS.214         	10.217         	1.649
MS.215         	10.198         	1.407
MS.216         	10.175         	1.349
MS.217         	10.155         	1.478
MS.218         	10.135         	1.433
MS.219         	10.115         	1.329
MS.220         	10.095         	1.382
MS.221         	10.075         	1.475
MS.222         	10.055         	1.465
MS.223         	10.035         	1.06
MS.224         	10.015         	1.072
MS.225         	9.995          	1.223
MS.226         	9.975          	1.077
MS.227         	9.955          	1.233
MS.228         	9.935          	0.961
MS.229         	9.915          	1.05
MS.230         	9.895          	0.885
MS.231         	9.875          	0.994
MS.232         	9.855          	0.846
MS.233         	9.835          	0.876
MS.234         	9.818          	0.858
MS.235         	9.797          	0.736
MS.236         	9.778          	0.748
MS.237         	9.757          	0.793
MS.238         	9.738          	0.767
MS.239         	9.717          	0.811
MS.240         	9.7            	0.881
MS.241         	9.68           	0.775
MS.242         	9.66           	0.77
MS.243         	9.64           	0.698
MS.244         	9.622          	0.625
MS.245         	9.602          	0.599
MS.246         	9.582          	0.531
MS.247         	9.565          	0.624
MS.248         	9.545          	0.563
MS.249         	9.525          	0.735
MS.250         	9.507          	0.669
MS.251         	9.488          	0.551
MS.252         	9.47           	0.452
MS.253         	9.45           	0.436
MS.254         	9.432          	0.558
MS.255         	9.412          	0.479
MS.256         	9.395          	0.355
MS.257         	9.375          	0.532
MS.258         	9.358          	0.322
MS.259         	9.337          	0.267
MS.260         	9.32           	0.162
MS.261         	9.3            	0.366
MS.262         	9.283          	0.115
MS.263         	9.262          	0.066
MS.264         	9.245          	0.228
MS.265         	9.225          	0.085
MS.266         	9.207          	0.236
MS.267         	9.19           	0.103
MS.268         	9.17           	0.204
MS.269         	9.153          	0.101
MS.270         	9.135          	0.068
MS.271         	9.115          	0.231
MS.272         	9.097          	0.063
MS.273         	9.08           	0.082
MS.274         	9.062          	0.227
MS.275         	9.042          	0.061
MS.276         	9.025          	0.117
MS.277         	9.007          	0.065
MS.278         	8.99           	0.07
MS.279         	8.972          	0.077
MS.280         	8.952          	0.059
MS.281         	8.935          	0.051
MS.282         	8.917          	0.066
MS.283         	8.9            	0.067
MS.284         	8.882          	0.074
MS.285         	8.865          	0.072
MS.286         	8.847          	0.06
MS.287         	8.83           	0.074
MS.288         	8.812          	0.072
MS.289         	8.795          	0.059
MS.290         	8.778          	0.06
MS.291         	8.757          	0.05
MS.292         	8.74           	0.057
MS.293         	8.725          	0.059
MS.294         	8.707          	0.057
MS.295         	8.69           	0.051
MS.296         	8.672          	0.071
MS.297         	8.655          	0.051
MS.298         	8.637          	0.059
MS.299         	8.62           	0.059
MS.300         	8.602          	0.07
MS.301         	8.585          	0.06
MS.302         	8.568          	0.057
MS.303         	8.55           	0.067
MS.304         	8.535          	0.057
MS.305         	8.517          	0.06
MS.306         	8.5            	0.07
MS.307         	8.483          	0.059
MS.308         	8.465          	0.056
MS.309         	8.45           	0.056
MS.310         	8.432          	0.056
MS.311         	8.415          	0.055
MS.312         	8.398          	0.056
MS.313         	8.382          	0.057
MS.314         	8.365          	0.056
MS.315         	8.347          	0.057
MS.316         	8.332          	0.055
MS.317         	8.315          	0.056
MS.318         	8.297          	0.057
MS.319         	8.283          	0.052
MS.320         	8.265          	0.057
MS.321         	8.247          	0.055
MS.322         	8.233          	0.054
MS.323         	8.215          	0.055
MS.324         	8.2            	0.056
MS.325         	8.182          	0.056
MS.326         	8.167          	0.056
MS.327         	8.15           	0.057
MS.328         	8.135          	0.055
MS.329         	8.117          	0.057
MS.330         	8.102          	0.056
MS.331         	8.085          	0.056
MS.332         	8.07           	0.059
MS.333         	8.052          	0.059
MS.334         	8.037          	0.057
MS.335         	8.02           	0.059
MS.336         	8.005          	0.055
MS.337         	7.99           	0.059
MS.338         	7.972          	0.056
MS.339         	7.957          	0.057
MS.340         	7.94           	0.055
MS.341         	7.925          	0.055
MS.342         	7.91           	0.056
MS.343         	7.892          	0.044
MS.344         	7.878          	0.057
MS.345         	7.862          	0.038
MS.346         	7.847          	0.057
MS.347         	7.83           	0.057
MS.348         	7.815          	0.043
MS.349         	7.8            	0.056
MS.350         	7.785          	0.055
MS.351         	7.767          	0.059
MS.352         	7.753          	0.055
MS.353         	7.737          	0.06
MS.354         	7.722          	0.056
MS.355         	7.707          	0.057
MS.356         	7.69           	0.059
MS.357         	7.675          	0.055
MS.358         	7.66           	0.057
MS.359         	7.645          	0.038
MS.360         	7.63           	0.038
MS.361         	7.615          	0.056
MS.362         	7.6            	0.059
MS.363         	7.585          	0.051
MS.364         	7.57           	0.039
MS.365         	7.555          	0.056
MS.366         	7.537          	0.055
MS.367         	7.523          	0.04
MS.368         	7.507          	0.04
MS.369         	7.492          	0.059
MS.370         	7.477          	0.035
MS.371         	7.462          	0.037
MS.372         	7.45           	0.043
MS.373         	7.435          	0.038
MS.374         	7.42           	0.038
MS.375         	7.405          	0.06
MS.376         	7.39           	0.054
MS.377         	7.375          	0.042
MS.378         	7.36           	0.043
MS.379         	7.345          	0.037
MS.380         	7.33           	0.039
MS.381         	7.315          	0.04
MS.382         	7.302          	0.038
MS.383         	7.287          	0.052
MS.384         	7.273          	0.037
MS.385         	7.257          	0.052
MS.386         	7.242          	0.037
MS.387         	7.227          	0.038
MS.388         	7.215          	0.035
MS.389         	7.2            	0.037
MS.390         	7.185          	0.001
MS.391         	7.17           	0.000
MS.392         	7.157          	0.039
MS.393         	7.142          	0.04
MS.394         	7.128          	0.038
MS.395         	7.115          	0.04
MS.396         	7.1            	0.035
MS.397         	7.085          	0.051
MS.398         	7.072          	0.043
MS.399         	7.057          	0.039
MS.400         	7.043          	0.035
MS.401         	7.03           	-0.001
MS.402         	7.015          	0.039
MS.403         	7              	0.043
MS.404         	6.987          	0.039
MS.405         	6.972          	0.039
MS.406         	6.96           	0.038
MS.407         	6.945          	0.000
MS.408         	6.932          	0.004
MS.409         	6.918          	0.001
MS.410         	6.902          	0.034
MS.411         	6.89           	0.000
MS.412         	6.875          	0.037
MS.413         	6.862          	0.04
MS.414         	6.847          	0.001
MS.415         	6.835          	0.000
MS.416         	6.822          	0.039
MS.417         	6.807          	0.042
MS.418         	6.795          	0.000
MS.419         	6.78           	-0.001
MS.420         	6.767          	0.000
MS.421         	6.753          	0.038
MS.422         	6.74           	-0.001
MS.423         	6.727          	0.042
MS.424         	6.712          	0.001
MS.425         	6.7            	0.037
MS.426         	6.685          	0.044
MS.427         	6.672          	0.000
MS.428         	6.66           	0.000
MS.429         	6.645          	0.038
MS.430         	6.632          	0.038
MS.431         	6.62           	0.002
MS.432         	6.608          	0.001
MS.433         	6.592          	0.001
MS.434         	6.58           	0.000
MS.435         	6.567          	-0.001
MS.436         	6.555          	-0.001
MS.437         	6.54           	0.001
MS.438         	6.527          	0.002
MS.439         	6.515          	0.000
MS.440         	6.503          	0.002
MS.441         	6.487          	0.001
MS.442         	6.475          	0.001
MS.443         	6.462          	0.001
MS.444         	6.45           	0.000
MS.445         	6.438          	0.001
MS.446         	6.425          	0.000
MS.447         	6.41           	0.000
MS.448         	6.398          	0.001
MS.449         	6.385          	0.000
MS.450         	6.372          	0.001
MS.451         	6.36           	0.001
MS.452         	6.347          	0.001
MS.453         	6.335          	-0.001
MS.454         	6.322          	0.002
MS.455         	6.31           	0.001
MS.456         	6.297          	0.001
MS.457         	6.285          	0.002
MS.458         	6.273          	0.000
MS.459         	6.26           	0.001
MS.460         	6.247          	0.000
MS.461         	6.235          	0.004
MS.462         	6.222          	0.000
MS.463         	6.21           	0.001
MS.464         	6.197          	0.001
MS.465         	6.185          	0.005
MS.466         	6.172          	0.002
DERIVED EXCITABILITY VARIABLES
Program = QTracP 3/4/2020
Threshold method = 6 (optimised for CAP, using data for present condition only)
SR method = 1 (using actual data values)
6.                 	0.000               	Peak response\(mV)
17.                	29                  	Age (years)
18.                	1                   	Sex (M=1, F=2)

EXTRA VARIABLES

MScPeak(mV) = 6.78
MScS5(mA) = 9.32
MScS50(mA) = 11.4
MScS95(mA) = 14.01
MScNSteps = 3
MScSteps(%) = 7.3
MScStepMax(%) = 3
MScD50 = 41
MScSlope = 5.83
MSFPeakAmp(mV) = 6.75
MSFNUnits = 106
MSFMeanUnitAmp(uV) = 63.7
MSFHuntTime(m) = 1.9
MSFError(%) = 2.99
MSFNLarge = 21.93
MSFMedianAmp(%) = 0.61
MSFMedianAmp(mV) = 0.0412
MSFHalfAmpAmp(%) = 1.42
MSFHalfAmpAmp(mV) = 0.0955
MSFLargestAmp(%) = 4.95
MSFLargestAmp(mV) = 0.334
MSFMeanRS(%) = 2
MSFOpts = 10106121
MScDuration(min) = 4.2
MSFTraces = 452
MSFSizeLimit(uV) = 16.9
MSFLimitType = 1
MSFSmallestAmp(uV) = 16.9

EXTRA WAVEFORMS


!MScan Model
!106
	1	6.91	0.38	2
	2	8.97	0.92	2
	3	9.24	1.3	2
	4	9.27	0.27	2
	5	9.3	0.78	2
	6	9.32	0.77	2
	7	9.35	0.8	2
	8	9.38	0.71	2
	9	9.42	1.01	2
	10	9.52	1.38	2
	11	9.6	1.66	2
	12	9.67	0.48	2
	13	9.78	1.81	2
	14	9.82	0.39	2
	15	9.84	0.25	2
	16	9.85	0.42	2
	17	9.87	0.42	2
	18	9.89	0.57	2
	19	9.91	0.8	2
	20	9.94	0.59	2
	21	9.97	0.93	2
	22	10.04	2.09	2
