File:              	C:\Qtrac\Data\Daniel M Sørensen\MScan multicentre study\Data from centres\Ankara\Processed data\HBC10122C.QZD
Name:              	TR.ANK.NC.7.2
Protocol:          	MSCAN-R2
Date:              	22/1/21
Start time:        	19:41:59
Age:               	33
Sex:               	M
Temperature:
S/R sites:         	TA
NC/disease:        	NC
Operator:          	HA
Comments:
M-SCAN DATA (6.1-1.8m)
Scanpts: 1, 23, 450, 471
Stim. (mA)     	Amp. (mV)
MS.1           	46.5           	5.785
MS.2           	46.5           	5.754
MS.3           	46.5           	5.682
MS.4           	46.5           	5.602
MS.5           	46.5           	5.635
MS.6           	46.5           	5.784
MS.7           	46.5           	5.714
MS.8           	46.5           	5.745
MS.9           	46.5           	5.686
MS.10          	46.5           	5.597
MS.11          	46.5           	5.677
MS.12          	46.5           	5.685
MS.13          	46.5           	5.618
MS.14          	46.5           	5.691
MS.15          	46.5           	5.647
MS.16          	46.5           	5.69
MS.17          	46.5           	5.646
MS.18          	46.5           	5.731
MS.19          	46.5           	5.698
MS.20          	46.5           	5.802
MS.21          	46.5           	5.713
MS.22          	46.5           	5.692
MS.23          	46.407         	5.699
MS.24          	46.315         	5.731
MS.25          	46.222         	5.674
MS.26          	46.13          	5.646
MS.27          	46.037         	5.69
MS.28          	45.945         	5.667
MS.29          	45.852         	5.713
MS.30          	45.763         	5.568
MS.31          	45.67          	5.688
MS.32          	45.58          	5.593
MS.33          	45.487         	5.631
MS.34          	45.397         	5.541
MS.35          	45.307         	5.586
MS.36          	45.215         	5.566
MS.37          	45.125         	5.621
MS.38          	45.035         	5.581
MS.39          	44.945         	5.554
MS.40          	44.855         	5.581
MS.41          	44.765         	5.555
MS.42          	44.677         	5.481
MS.43          	44.587         	5.54
MS.44          	44.497         	5.587
MS.45          	44.41          	5.582
MS.46          	44.32          	5.485
MS.47          	44.232         	5.465
MS.48          	44.145         	5.509
MS.49          	44.055         	5.488
MS.50          	43.967         	5.575
MS.51          	43.88          	5.447
MS.52          	43.792         	5.359
MS.53          	43.705         	5.391
MS.54          	43.618         	5.411
MS.55          	43.53          	5.36
MS.56          	43.442         	5.27
MS.57          	43.357         	5.323
MS.58          	43.27          	5.389
MS.59          	43.182         	5.282
MS.60          	43.097         	5.269
MS.61          	43.01          	5.352
MS.62          	42.925         	5.292
MS.63          	42.84          	5.327
MS.64          	42.752         	5.297
MS.65          	42.667         	5.289
MS.66          	42.583         	5.298
MS.67          	42.497         	5.31
MS.68          	42.412         	5.12
MS.69          	42.327         	5.182
MS.70          	42.243         	5.137
MS.71          	42.16          	5.09
MS.72          	42.075         	5.118
MS.73          	41.99          	5.026
MS.74          	41.907         	5.12
MS.75          	41.822         	5.035
MS.76          	41.74          	5.156
MS.77          	41.657         	5.042
MS.78          	41.572         	5.078
MS.79          	41.49          	5.044
MS.80          	41.407         	4.983
MS.81          	41.325         	4.979
MS.82          	41.243         	5.061
MS.83          	41.16          	4.98
MS.84          	41.077         	5.061
MS.85          	40.995         	4.893
MS.86          	40.912         	4.991
MS.87          	40.833         	4.913
MS.88          	40.75          	4.854
MS.89          	40.667         	4.951
MS.90          	40.587         	4.88
MS.91          	40.505         	4.869
MS.92          	40.425         	4.841
MS.93          	40.345         	4.899
MS.94          	40.265         	4.918
MS.95          	40.182         	4.916
MS.96          	40.103         	4.855
MS.97          	40.022         	4.719
MS.98          	39.942         	4.811
MS.99          	39.862         	4.698
MS.100         	39.782         	4.875
MS.101         	39.705         	4.675
MS.102         	39.625         	4.642
MS.103         	39.545         	4.789
MS.104         	39.467         	4.708
MS.105         	39.388         	4.695
MS.106         	39.31          	4.629
MS.107         	39.23          	4.772
MS.108         	39.153         	4.786
MS.109         	39.075         	4.655
MS.110         	38.995         	4.459
MS.111         	38.917         	4.657
MS.112         	38.84          	4.525
MS.113         	38.763         	4.608
MS.114         	38.685         	4.506
MS.115         	38.607         	4.564
MS.116         	38.53          	4.429
MS.117         	38.452         	4.641
MS.118         	38.377         	4.37
MS.119         	38.3           	4.419
MS.120         	38.222         	4.285
MS.121         	38.147         	4.413
MS.122         	38.07          	4.561
MS.123         	37.995         	4.407
MS.124         	37.92          	4.438
MS.125         	37.842         	4.302
MS.126         	37.767         	4.182
MS.127         	37.692         	4.329
MS.128         	37.618         	4.081
MS.129         	37.542         	4.268
MS.130         	37.467         	4.023
MS.131         	37.392         	4.093
MS.132         	37.318         	4.12
MS.133         	37.243         	4.113
MS.134         	37.167         	4.093
MS.135         	37.095         	4.005
MS.136         	37.02          	3.977
MS.137         	36.945         	3.925
MS.138         	36.872         	3.882
MS.139         	36.798         	3.954
MS.140         	36.725         	3.856
MS.141         	36.653         	3.685
MS.142         	36.577         	3.868
MS.143         	36.505         	3.842
MS.144         	36.432         	3.719
MS.145         	36.36          	3.802
MS.146         	36.287         	3.636
MS.147         	36.215         	3.726
MS.148         	36.142         	3.707
MS.149         	36.07          	3.613
MS.150         	35.997         	3.743
MS.151         	35.925         	3.453
MS.152         	35.855         	3.68
MS.153         	35.782         	3.623
MS.154         	35.71          	3.551
MS.155         	35.64          	3.516
MS.156         	35.568         	3.547
MS.157         	35.497         	3.452
MS.158         	35.425         	3.441
MS.159         	35.355         	3.579
MS.160         	35.285         	3.45
MS.161         	35.215         	3.468
MS.162         	35.145         	3.408
MS.163         	35.072         	3.346
MS.164         	35.002         	3.401
MS.165         	34.932         	3.279
MS.166         	34.865         	3.354
MS.167         	34.795         	3.306
MS.168         	34.725         	3.444
MS.169         	34.655         	3.279
MS.170         	34.585         	3.241
MS.171         	34.517         	3.199
MS.172         	34.447         	3.112
MS.173         	34.38          	3.18
MS.174         	34.31          	3.063
MS.175         	34.243         	3.162
MS.176         	34.173         	3.094
MS.177         	34.105         	3.145
MS.178         	34.037         	3.031
MS.179         	33.97          	3.065
MS.180         	33.9           	3.059
MS.181         	33.833         	2.938
MS.182         	33.765         	2.988
MS.183         	33.697         	3.03
MS.184         	33.63          	2.858
MS.185         	33.565         	2.972
MS.186         	33.497         	2.896
MS.187         	33.43          	2.852
MS.188         	33.362         	2.944
MS.189         	33.298         	2.85
MS.190         	33.23          	2.959
MS.191         	33.162         	2.755
MS.192         	33.097         	2.844
MS.193         	33.03          	2.806
MS.194         	32.965         	2.737
MS.195         	32.9           	2.732
MS.196         	32.833         	2.842
MS.197         	32.767         	2.806
MS.198         	32.702         	2.778
MS.199         	32.638         	2.52
MS.200         	32.572         	2.57
MS.201         	32.507         	2.504
MS.202         	32.443         	2.601
MS.203         	32.377         	2.566
MS.204         	32.312         	2.607
MS.205         	32.247         	2.448
MS.206         	32.182         	2.485
MS.207         	32.12          	2.393
MS.208         	32.055         	2.489
MS.209         	31.99          	2.395
MS.210         	31.927         	2.292
MS.211         	31.862         	2.195
MS.212         	31.8           	2.198
MS.213         	31.735         	2.225
MS.214         	31.672         	2.131
MS.215         	31.61          	2.133
MS.216         	31.545         	2.18
MS.217         	31.483         	2.29
MS.218         	31.42          	2.233
MS.219         	31.358         	2.144
MS.220         	31.295         	2.026
MS.221         	31.233         	2.03
MS.222         	31.17          	2.018
MS.223         	31.108         	1.957
MS.224         	31.045         	1.949
MS.225         	30.983         	1.866
MS.226         	30.922         	1.923
MS.227         	30.86          	1.788
MS.228         	30.797         	1.909
MS.229         	30.737         	1.824
MS.230         	30.675         	1.73
MS.231         	30.615         	1.813
MS.232         	30.552         	1.672
MS.233         	30.492         	1.633
MS.234         	30.43          	1.649
MS.235         	30.37          	1.698
MS.236         	30.31          	1.685
MS.237         	30.247         	1.638
MS.238         	30.188         	1.486
MS.239         	30.127         	1.444
MS.240         	30.067         	1.582
MS.241         	30.007         	1.532
MS.242         	29.948         	1.582
MS.243         	29.887         	1.444
MS.244         	29.827         	1.465
MS.245         	29.767         	1.423
MS.246         	29.71          	1.455
MS.247         	29.65          	1.328
MS.248         	29.59          	1.573
MS.249         	29.532         	1.388
MS.250         	29.472         	1.292
MS.251         	29.412         	1.318
MS.252         	29.355         	1.334
MS.253         	29.295         	1.379
MS.254         	29.237         	1.316
MS.255         	29.18          	1.479
MS.256         	29.12          	1.328
MS.257         	29.062         	1.329
MS.258         	29.005         	1.344
MS.259         	28.948         	1.35
MS.260         	28.887         	1.331
MS.261         	28.83          	1.34
MS.262         	28.772         	1.198
MS.263         	28.715         	1.237
MS.264         	28.657         	1.183
MS.265         	28.602         	1.229
MS.266         	28.545         	1.306
MS.267         	28.487         	1.226
MS.268         	28.43          	1.235
MS.269         	28.372         	1.229
MS.270         	28.317         	1.167
MS.271         	28.26          	1.234
MS.272         	28.202         	1.162
MS.273         	28.147         	1.193
MS.274         	28.09          	1.09
MS.275         	28.035         	1.14
MS.276         	27.98          	1.08
MS.277         	27.922         	1.099
MS.278         	27.868         	1.044
MS.279         	27.812         	1.062
MS.280         	27.755         	1.089
MS.281         	27.7           	0.906
MS.282         	27.645         	1.011
MS.283         	27.59          	0.809
MS.284         	27.535         	0.957
MS.285         	27.48          	0.964
MS.286         	27.425         	0.933
MS.287         	27.37          	0.914
MS.288         	27.315         	0.835
MS.289         	27.26          	0.851
MS.290         	27.207         	0.848
MS.291         	27.153         	0.741
MS.292         	27.097         	0.73
MS.293         	27.042         	0.896
MS.294         	26.99          	0.724
MS.295         	26.935         	0.746
MS.296         	26.882         	0.691
MS.297         	26.827         	0.679
MS.298         	26.775         	0.745
MS.299         	26.72          	0.67
MS.300         	26.667         	0.587
MS.301         	26.615         	0.643
MS.302         	26.56          	0.645
MS.303         	26.507         	0.656
MS.304         	26.455         	0.537
MS.305         	26.403         	0.554
MS.306         	26.35          	0.557
MS.307         	26.297         	0.543
MS.308         	26.245         	0.527
MS.309         	26.192         	0.504
MS.310         	26.14          	0.482
MS.311         	26.087         	0.549
MS.312         	26.035         	0.51
MS.313         	25.983         	0.436
MS.314         	25.932         	0.436
MS.315         	25.88          	0.428
MS.316         	25.827         	0.42
MS.317         	25.775         	0.399
MS.318         	25.725         	0.435
MS.319         	25.672         	0.42
MS.320         	25.622         	0.425
MS.321         	25.57          	0.367
MS.322         	25.52          	0.406
MS.323         	25.467         	0.347
MS.324         	25.417         	0.336
MS.325         	25.368         	0.305
MS.326         	25.317         	0.343
MS.327         	25.265         	0.326
MS.328         	25.215         	0.332
MS.329         	25.165         	0.345
MS.330         	25.115         	0.31
MS.331         	25.065         	0.258
MS.332         	25.015         	0.264
MS.333         	24.965         	0.302
MS.334         	24.915         	0.234
MS.335         	24.865         	0.232
MS.336         	24.815         	0.289
MS.337         	24.765         	0.26
MS.338         	24.715         	0.276
MS.339         	24.667         	0.255
MS.340         	24.618         	0.219
MS.341         	24.567         	0.254
MS.342         	24.52          	0.25
MS.343         	24.47          	0.236
MS.344         	24.42          	0.217
MS.345         	24.372         	0.215
MS.346         	24.323         	0.236
MS.347         	24.275         	0.204
MS.348         	24.227         	0.204
MS.349         	24.177         	0.203
MS.350         	24.13          	0.178
MS.351         	24.082         	0.206
MS.352         	24.032         	0.186
MS.353         	23.985         	0.201
MS.354         	23.938         	0.215
MS.355         	23.89          	0.22
MS.356         	23.842         	0.184
MS.357         	23.795         	0.193
MS.358         	23.747         	0.182
MS.359         	23.7           	0.183
MS.360         	23.653         	0.186
MS.361         	23.605         	0.19
MS.362         	23.557         	0.183
MS.363         	23.51          	0.175
MS.364         	23.462         	0.171
MS.365         	23.417         	0.167
MS.366         	23.37          	0.187
MS.367         	23.323         	0.181
MS.368         	23.278         	0.159
MS.369         	23.23          	0.16
MS.370         	23.185         	0.155
MS.371         	23.137         	0.151
MS.372         	23.09          	0.144
MS.373         	23.045         	0.149
MS.374         	23             	0.146
MS.375         	22.952         	0.144
MS.376         	22.907         	0.142
MS.377         	22.862         	0.167
MS.378         	22.815         	0.16
MS.379         	22.77          	0.148
MS.380         	22.725         	0.129
MS.381         	22.68          	0.135
MS.382         	22.635         	0.134
MS.383         	22.587         	0.121
MS.384         	22.542         	0.142
MS.385         	22.497         	0.125
MS.386         	22.452         	0.146
MS.387         	22.41          	0.145
MS.388         	22.365         	0.122
MS.389         	22.32          	0.12
MS.390         	22.275         	0.115
MS.391         	22.23          	0.128
MS.392         	22.185         	0.126
MS.393         	22.142         	0.12
MS.394         	22.097         	0.12
MS.395         	22.052         	0.101
MS.396         	22.01          	0.11
MS.397         	21.965         	0.122
MS.398         	21.92          	0.117
MS.399         	21.877         	0.121
MS.400         	21.833         	0.12
MS.401         	21.79          	0.128
MS.402         	21.747         	0.1
MS.403         	21.702         	0.095
MS.404         	21.66          	0.107
MS.405         	21.618         	0.112
MS.406         	21.573         	0.104
MS.407         	21.53          	0.114
MS.408         	21.487         	0.099
MS.409         	21.445         	0.103
MS.410         	21.403         	0.1
MS.411         	21.358         	0.118
MS.412         	21.315         	0.099
MS.413         	21.272         	0.098
MS.414         	21.23          	0.094
MS.415         	21.188         	0.099
MS.416         	21.145         	0.087
MS.417         	21.105         	0.101
MS.418         	21.062         	0.089
MS.419         	21.02          	0.092
MS.420         	20.977         	0.098
MS.421         	20.935         	0.104
MS.422         	20.895         	0.089
MS.423         	20.852         	0.085
MS.424         	20.81          	0.088
MS.425         	20.77          	0.087
MS.426         	20.727         	0.103
MS.427         	20.685         	0.101
MS.428         	20.645         	0.09
MS.429         	20.602         	0.098
MS.430         	20.562         	0.09
MS.431         	20.52          	0.098
MS.432         	20.48          	0.096
MS.433         	20.44          	0.085
MS.434         	20.397         	0.085
MS.435         	20.358         	0.084
MS.436         	20.317         	0.087
MS.437         	20.278         	0.092
MS.438         	20.235         	0.094
MS.439         	20.195         	0.085
MS.440         	20.155         	0.087
MS.441         	20.115         	0.083
MS.442         	20.075         	0.085
MS.443         	20.035         	0.089
MS.444         	19.995         	0.092
MS.445         	19.955         	0.093
MS.446         	19.915         	0.087
MS.447         	19.875         	0.088
MS.448         	19.835         	0.084
MS.449         	19.795         	0.088
MS.450         	19.755         	0.082
MS.451         	19.717         	0.081
MS.452         	19.677         	0.089
MS.453         	19.637         	0.085
MS.454         	19.597         	0.084
MS.455         	19.56          	0.081
MS.456         	19.52          	0.083
MS.457         	19.48          	0.083
MS.458         	19.442         	0.081
MS.459         	19.403         	0.081
MS.460         	19.365         	0.092
MS.461         	19.325         	0.085
MS.462         	19.288         	0.085
MS.463         	19.25          	0.085
MS.464         	19.21          	0.09
MS.465         	19.172         	0.081
MS.466         	19.132         	0.081
MS.467         	19.095         	0.079
MS.468         	19.057         	0.087
MS.469         	19.02          	0.084
MS.470         	18.983         	0.087
MS.471         	18.942         	0.085
DERIVED EXCITABILITY VARIABLES
Program = QTracP 3/4/2020
Threshold method = 6 (optimised for CAP, using data for present condition only)
SR method = 1 (using actual data values)
6.                 	0.000               	Peak response\(mV)
17.                	33                  	Age (years)
18.                	1                   	Sex (M=1, F=2)

EXTRA VARIABLES

MScPeak(mV) = 5.61
MScS5(mA) = 24.93
MScS50(mA) = 32.99
MScS95(mA) = 43.22
MScNSteps = 1
MScSteps(%) = 2.2
MScStepMax(%) = 2.2
MScD50 = 61
MScSlope = 4.02
MScDuration(min) = 4.3
MSFTraces = 471
MSFPeakAmp(mV) = 5.61
MSFNUnits = 148
MSFMeanUnitAmp(uV) = 37.9
MSFHuntTime(m) = 2.48
MSFError(%) = 1.37
MSFNLarge = 49.13
MSFMedianAmp(%) = 0.585
MSFMedianAmp(mV) = 0.0328
MSFHalfAmpAmp(%) = 0.725
MSFHalfAmpAmp(mV) = 0.0407
MSFLargestAmp(%) = 1.92
MSFLargestAmp(mV) = 0.108
MSFMeanRS(%) = 1.99
MSFSizeLimit(uV) = 14
MSFLimitType = 1
MSFSmallestAmp(uV) = 15.6
MSFOpts = 10106121

EXTRA WAVEFORMS


!MScan Model
!148
	1	21.76	0.47	2
	2	22.5	0.64	2
	3	23.47	0.58	2
	4	23.98	0.36	2
	5	24.31	0.41	2
	6	24.58	0.28	2
	7	24.73	0.35	2
	8	25	0.57	2
	9	25.18	0.57	2
	10	25.33	0.37	2
	11	25.46	0.55	2
