File:              	C:\Qtrac\Data\Daniel M Sørensen\MScan multicentre study\Data from centres\Ankara\Processed data\HBC10114A.QZD
Name:              	TR.ANK.NC.7.1
Protocol:          	MSCAN-R2
Date:              	14/1/21
Start time:        	18:51:27
Age:               	35
Sex:               	M
Temperature:
S/R sites:         	APB
NC/disease:        	NC
Operator:          	HA
Comments:
M-SCAN DATA (4-1.2m)
Scanpts: 15, 19, 305, 326
Stim. (mA)     	Amp. (mV)
MS.1           	25             	13.529
MS.2           	25             	13.569
MS.3           	25             	13.493
MS.4           	25             	13.481
MS.5           	25             	13.59
MS.6           	25             	13.588
MS.7           	25             	13.527
MS.8           	25             	13.507
MS.9           	25             	13.489
MS.10          	25             	13.499
MS.11          	25             	13.652
MS.12          	25             	13.479
MS.13          	25             	13.489
MS.14          	25             	13.59
MS.15          	25             	13.481
MS.16          	25             	13.608
MS.17          	25             	13.565
MS.18          	25             	13.539
MS.19          	25             	13.672
MS.20          	25             	13.628
MS.21          	25             	13.499
MS.22          	25             	13.604
MS.23          	25             	13.636
MS.24          	24.95          	13.308
MS.25          	24.9           	13.535
MS.26          	24.85          	13.529
MS.27          	24.8           	13.535
MS.28          	24.75          	13.386
MS.29          	24.702         	13.561
MS.30          	24.653         	13.503
MS.31          	24.602         	13.424
MS.32          	24.555         	13.449
MS.33          	24.505         	13.368
MS.34          	24.455         	13.453
MS.35          	24.407         	13.4
MS.36          	24.358         	13.324
MS.37          	24.31          	13.245
MS.38          	24.26          	13.223
MS.39          	24.212         	12.818
MS.40          	24.165         	13.404
MS.41          	24.115         	12.899
MS.42          	24.067         	12.746
MS.43          	24.02          	13.13
MS.44          	23.972         	12.826
MS.45          	23.925         	12.74
MS.46          	23.875         	12.5
MS.47          	23.827         	12.54
MS.48          	23.78          	12.727
MS.49          	23.733         	12.274
MS.50          	23.685         	12.232
MS.51          	23.637         	11.875
MS.52          	23.59          	12.131
MS.53          	23.545         	12.395
MS.54          	23.497         	11.787
MS.55          	23.45          	12.266
MS.56          	23.403         	12.063
MS.57          	23.358         	11.485
MS.58          	23.31          	11.956
MS.59          	23.262         	11.301
MS.60          	23.217         	11.583
MS.61          	23.17          	11.845
MS.62          	23.125         	11.38
MS.63          	23.077         	11.398
MS.64          	23.032         	11.281
MS.65          	22.985         	11.021
MS.66          	22.94          	11.481
MS.67          	22.895         	10.758
MS.68          	22.847         	10.999
MS.69          	22.802         	10.969
MS.70          	22.757         	10.979
MS.71          	22.712         	11.036
MS.72          	22.665         	11.005
MS.73          	22.62          	10.715
MS.74          	22.575         	10.496
MS.75          	22.53          	10.546
MS.76          	22.485         	10.899
MS.77          	22.44          	10.339
MS.78          	22.395         	10.701
MS.79          	22.35          	10.748
MS.80          	22.307         	10.506
MS.81          	22.262         	10.421
MS.82          	22.217         	9.982
MS.83          	22.172         	10.155
MS.84          	22.127         	10.288
MS.85          	22.085         	10.323
MS.86          	22.04          	10.327
MS.87          	21.997         	9.859
MS.88          	21.952         	10.258
MS.89          	21.907         	9.795
MS.90          	21.865         	9.577
MS.91          	21.82          	9.485
MS.92          	21.778         	9.799
MS.93          	21.735         	9.914
MS.94          	21.69          	9.791
MS.95          	21.647         	9.511
MS.96          	21.605         	9.751
MS.97          	21.56          	8.754
MS.98          	21.517         	8.651
MS.99          	21.475         	8.893
MS.100         	21.432         	8.961
MS.101         	21.39          	9.003
MS.102         	21.345         	9.366
MS.103         	21.302         	8.615
MS.104         	21.26          	8.292
MS.105         	21.217         	8.282
MS.106         	21.175         	8.107
MS.107         	21.135         	8.347
MS.108         	21.092         	7.865
MS.109         	21.05          	8.186
MS.110         	21.007         	8.216
MS.111         	20.965         	7.873
MS.112         	20.922         	8.244
MS.113         	20.882         	7.738
MS.114         	20.84          	7.243
MS.115         	20.797         	7.624
MS.116         	20.757         	7.003
MS.117         	20.715         	6.931
MS.118         	20.675         	6.723
MS.119         	20.632         	6.782
MS.120         	20.592         	6.232
MS.121         	20.55          	6.643
MS.122         	20.51          	6.564
MS.123         	20.467         	6.796
MS.124         	20.427         	6.002
MS.125         	20.387         	5.68
MS.126         	20.345         	6.185
MS.127         	20.305         	5.811
MS.128         	20.265         	5.46
MS.129         	20.225         	5.952
MS.130         	20.182         	5.102
MS.131         	20.142         	5.098
MS.132         	20.102         	5.239
MS.133         	20.062         	4.963
MS.134         	20.022         	5.309
MS.135         	19.983         	4.778
MS.136         	19.942         	4.24
MS.137         	19.903         	5.001
MS.138         	19.862         	4.669
MS.139         	19.823         	3.73
MS.140         	19.785         	4.276
MS.141         	19.745         	3.837
MS.142         	19.705         	4.23
MS.143         	19.665         	4.195
MS.144         	19.627         	3.654
MS.145         	19.587         	3.617
MS.146         	19.547         	3.341
MS.147         	19.51          	3.253
MS.148         	19.47          	3.108
MS.149         	19.43          	3.565
MS.150         	19.392         	2.81
MS.151         	19.352         	2.892
MS.152         	19.315         	2.977
MS.153         	19.278         	3.088
MS.154         	19.237         	2.737
MS.155         	19.2           	2.9
MS.156         	19.16          	2.653
MS.157         	19.122         	2.6
MS.158         	19.085         	2.552
MS.159         	19.047         	2.663
MS.160         	19.007         	2.264
MS.161         	18.97          	2.274
MS.162         	18.932         	2.272
MS.163         	18.895         	2.357
MS.164         	18.858         	2.091
MS.165         	18.82          	2.05
MS.166         	18.782         	2.04
MS.167         	18.745         	2.197
MS.168         	18.708         	2.048
MS.169         	18.67          	2.143
MS.170         	18.632         	1.956
MS.171         	18.595         	2.01
MS.172         	18.557         	1.97
MS.173         	18.52          	2.119
MS.174         	18.483         	1.905
MS.175         	18.448         	1.919
MS.176         	18.41          	1.795
MS.177         	18.372         	1.877
MS.178         	18.335         	1.736
MS.179         	18.3           	1.664
MS.180         	18.262         	1.666
MS.181         	18.227         	1.827
MS.182         	18.19          	1.66
MS.183         	18.153         	1.565
MS.184         	18.118         	1.674
MS.185         	18.08          	1.66
MS.186         	18.045         	1.486
MS.187         	18.01          	1.458
MS.188         	17.972         	1.567
MS.189         	17.938         	1.43
MS.190         	17.903         	1.372
MS.191         	17.865         	1.454
MS.192         	17.83          	1.456
MS.193         	17.795         	1.196
MS.194         	17.757         	1.164
MS.195         	17.722         	1.16
MS.196         	17.688         	1.261
MS.197         	17.653         	1.251
MS.198         	17.618         	1.261
MS.199         	17.583         	0.975
MS.200         	17.547         	0.92
MS.201         	17.512         	1.225
MS.202         	17.477         	1.291
MS.203         	17.442         	1.035
MS.204         	17.407         	0.918
MS.205         	17.372         	0.765
MS.206         	17.337         	0.838
MS.207         	17.302         	1.035
MS.208         	17.267         	0.471
MS.209         	17.235         	0.91
MS.210         	17.2           	0.495
MS.211         	17.165         	0.729
MS.212         	17.13          	0.824
MS.213         	17.097         	0.81
MS.214         	17.062         	0.594
MS.215         	17.028         	0.413
MS.216         	16.995         	0.673
MS.217         	16.96          	0.568
MS.218         	16.927         	0.532
MS.219         	16.892         	0.548
MS.220         	16.86          	0.459
MS.221         	16.825         	0.471
MS.222         	16.792         	0.552
MS.223         	16.757         	0.415
MS.224         	16.725         	0.411
MS.225         	16.69          	0.5
MS.226         	16.657         	0.437
MS.227         	16.625         	0.411
MS.228         	16.59          	0.332
MS.229         	16.557         	0.552
MS.230         	16.525         	0.266
MS.231         	16.493         	0.403
MS.232         	16.46          	0.348
MS.233         	16.425         	0.395
MS.234         	16.392         	0.24
MS.235         	16.36          	0.27
MS.236         	16.327         	0.179
MS.237         	16.295         	0.352
MS.238         	16.262         	0.292
MS.239         	16.23          	0.24
MS.240         	16.198         	0.205
MS.241         	16.165         	0.143
MS.242         	16.132         	0.189
MS.243         	16.1           	0.147
MS.244         	16.067         	0.157
MS.245         	16.038         	0.149
MS.246         	16.005         	0.209
MS.247         	15.972         	0.153
MS.248         	15.94          	0.139
MS.249         	15.91          	0.163
MS.250         	15.877         	0.133
MS.251         	15.845         	0.125
MS.252         	15.812         	0.155
MS.253         	15.782         	0.137
MS.254         	15.75          	0.171
MS.255         	15.72          	0.141
MS.256         	15.688         	0.139
MS.257         	15.657         	0.131
MS.258         	15.625         	0.179
MS.259         	15.595         	0.133
MS.260         	15.562         	0.137
MS.261         	15.532         	0.135
MS.262         	15.5           	0.131
MS.263         	15.47          	0.135
MS.264         	15.438         	0.137
MS.265         	15.407         	0.123
MS.266         	15.377         	0.119
MS.267         	15.347         	0.125
MS.268         	15.315         	0.133
MS.269         	15.285         	0.105
MS.270         	15.255         	0.105
MS.271         	15.225         	0.115
MS.272         	15.193         	0.103
MS.273         	15.162         	0.113
MS.274         	15.132         	0.115
MS.275         	15.102         	0.101
MS.276         	15.072         	0.111
MS.277         	15.042         	0.095
MS.278         	15.012         	0.115
MS.279         	14.983         	0.101
MS.280         	14.952         	0.105
MS.281         	14.922         	0.091
MS.282         	14.892         	0.097
MS.283         	14.862         	0.093
MS.284         	14.832         	0.093
MS.285         	14.802         	0.107
MS.286         	14.775         	0.103
MS.287         	14.745         	0.089
MS.288         	14.715         	0.091
MS.289         	14.685         	0.105
MS.290         	14.657         	0.103
MS.291         	14.627         	0.064
MS.292         	14.597         	0.079
MS.293         	14.568         	0.081
MS.294         	14.54          	0.075
MS.295         	14.51          	0.083
MS.296         	14.483         	0.079
MS.297         	14.452         	0.081
MS.298         	14.422         	0.073
MS.299         	14.395         	0.079
MS.300         	14.365         	0.07
MS.301         	14.337         	0.064
MS.302         	14.31          	0.062
MS.303         	14.28          	0.07
MS.304         	14.252         	0.064
MS.305         	14.222         	0.073
MS.306         	14.195         	0.062
MS.307         	14.167         	0.064
MS.308         	14.137         	0.062
MS.309         	14.11          	0.064
MS.310         	14.082         	0.058
MS.311         	14.052         	0.06
MS.312         	14.025         	0.062
MS.313         	13.997         	0.07
MS.314         	13.97          	0.062
MS.315         	13.943         	0.062
MS.316         	13.912         	0.06
MS.317         	13.885         	0.06
MS.318         	13.858         	0.06
MS.319         	13.83          	0.06
MS.320         	13.802         	0.068
MS.321         	13.775         	0.062
MS.322         	13.747         	0.062
MS.323         	13.72          	0.06
MS.324         	13.693         	0.062
MS.325         	13.665         	0.058
MS.326         	13.637         	0.06
DERIVED EXCITABILITY VARIABLES
Program = QTracP 3/4/2020
Threshold method = 6 (optimised for CAP, using data for present condition only)
SR method = 1 (using actual data values)
6.                 	0.000               	Peak response\(mV)
17.                	35                  	Age (years)
18.                	1                   	Sex (M=1, F=2)

EXTRA VARIABLES

MScPeak(mV) = 13.49
MScS5(mA) = 17.2
MScS50(mA) = 20.58
MScS95(mA) = 24.04
MScNSteps = 3
MScSteps(%) = 7.8
MScStepMax(%) = 2.7
MScD50 = 35
MScSlope = 7.93
MSFPeakAmp(mV) = 13.5
MSFNUnits = 120
MSFMeanUnitAmp(uV) = 112.6
MSFHuntTime(m) = 1.9
MSFError(%) = 4.42
MSFNLarge = 35.13
MSFMedianAmp(%) = 0.686
MSFMedianAmp(mV) = 0.0927
MSFHalfAmpAmp(%) = 1.01
MSFHalfAmpAmp(mV) = 0.136
MSFLargestAmp(%) = 3.72
MSFLargestAmp(mV) = 0.502
MSFMeanRS(%) = 2
MSFOpts = 10106121
MScDuration(min) = 2.8
MSFTraces = 312
MSFSizeLimit(uV) = 33.8
MSFLimitType = 1
MSFSmallestAmp(uV) = 37.1

EXTRA WAVEFORMS


!MScan Model
!120
	1	14.59	0.55	2
	2	16.11	0.34	2
	3	16.25	0.36	2
	4	16.35	0.47	2
	5	16.6	0.87	2
	6	16.87	0.74	2
	7	17	0.67	2
	8	17.24	1.18	2
	9	17.37	1.01	2
	10	17.49	1.08	2
	11	17.59	0.67	2
	12	17.68	0.58	2
	13	17.77	0.59	2
	14	17.83	0.37	2
	15	17.89	0.5	2
	16	17.93	0.35	2
	17	17.98	0.42	2
	18	18.04	0.32	2
	19	18.09	0.29	2
	20	18.17	0.52	2
	21	18.26	0.53	2
	22	18.34	0.52	2
	23	18.38	0.34	2
	24	18.43	0.29	2
	25	18.5	0.5	2
	26	18.6	0.5	2
	27	18.69	0.4	2
	28	18.78	0.48	2
	29	18.87	0.7	2
	30	18.89	0.3	2
	31	18.91	0.34	2
	32	18.93	0.27	2
	33	18.96	0.27	2
	34	18.99	0.37	2
	35	19.03	0.51	2
	36	19.07	0.42	2
	37	19.11	0.42	2
	38	19.15	0.48	2
	39	19.2	0.58	2
	40	19.25	0.71	2
	41	19.3	0.91	2
	42	19.35	0.7	2
	43	19.38	0.32	2
	44	19.41	0.47	2
	45	19.44	0.43	2
	46	19.47	0.55	2
	47	19.49	0.63	2
	48	19.52	0.79	2
	49	19.56	0.58	2
	50	19.61	1.15	2
	51	19.66	0.88	2
	52	19.71	1.06	2
	53	19.76	1.21	2
	54	19.83	1.43	2
	55	19.89	1.49	2
	56	19.95	1.32	2
	57	20.01	1.25	2
	58	20.07	1.89	2
	59	20.13	1.05	2
	60	20.13	1.24	2
	61	20.18	0.94	2
	62	20.22	0.89	2
	63	20.27	1.08	2
	64	20.31	1	2
	65	20.35	0.99	2
	66	20.39	0.92	2
	67	20.43	0.93	2
	68	20.47	1.01	2
	69	20.51	0.86	2
	70	20.55	0.86	2
	71	20.57	0.49	2
	72	20.6	0.49	2
	73	20.62	0.49	2
	74	20.64	0.5	2
	75	20.66	0.51	2
	76	20.69	0.58	2
	77	20.71	0.64	2
	78	20.73	0.64	2
	79	20.75	0.64	2
	80	20.8	1.42	2
	81	20.86	1.28	2
	82	20.91	0.9	2
	83	21.07	2.21	2
	84	21.17	2.07	2
	85	21.27	1.48	2
	86	21.37	1.23	2
	87	21.55	3.72	2
	88	21.69	2.13	2
	89	21.81	1.56	2
	90	21.9	1.33	2
	91	22	0.47	2
	92	22.11	1.25	2
	93	22.23	1.45	2
	94	22.34	1.03	2
	95	22.45	0.79	2
	96	22.59	1.21	2
	97	22.73	0.91	2
	98	22.82	1	2
	99	23	0.88	2
	100	23.08	0.53	2
	101	23.17	1.19	2
	102	23.3	0.49	2
	103	23.33	1.92	2
	104	23.42	1.49	2
	105	23.45	1.19	2
	106	23.54	1.09	2
	107	23.63	1.05	2
	108	23.67	0.49	2
	109	23.71	0.46	2
	110	23.75	0.35	2
	111	23.79	0.37	2
	112	23.83	1.18	2
	113	23.83	0.6	2
	114	23.87	0.6	2
	115	23.93	0.9	2
	116	23.99	0.72	2
	117	24.05	0.49	2
	118	24.11	0.64	2
	119	24.19	0.85	2
	120	24.56	0.5	2

