File:              	C:\Qtrac\Data\Daniel M Sørensen\MScan multicentre study\Data from centres\Ankara\Processed data\IAC10125B.QZD
Name:              	TR.ANK.NC.9.2
Protocol:          	MSCAN-R2
Date:              	25/1/21
Start time:        	14:25:12
Age:               	27
Sex:               	m
Temperature:
S/R sites:         	ADM
NC/disease:        	NC
Operator:          	eb
Comments:
M-SCAN DATA (6-2.2m)
Scanpts: 5, 10, 405, 426
Stim. (mA)     	Amp. (mV)
MS.1           	28.5           	11.87
MS.2           	28.5           	11.87
MS.3           	28.5           	11.862
MS.4           	28.5           	11.871
MS.5           	28.5           	11.868
MS.6           	28.5           	11.906
MS.7           	28.5           	11.862
MS.8           	28.5           	11.868
MS.9           	28.5           	11.843
MS.10          	28.5           	11.808
MS.11          	28.5           	11.836
MS.12          	28.5           	11.863
MS.13          	28.5           	11.876
MS.14          	28.5           	11.844
MS.15          	28.5           	11.873
MS.16          	28.5           	11.885
MS.17          	28.5           	11.858
MS.18          	28.5           	11.694
MS.19          	28.5           	11.868
MS.20          	28.5           	11.862
MS.21          	28.5           	11.863
MS.22          	28.5           	11.849
MS.23          	28.5           	11.887
MS.24          	28.385         	11.89
MS.25          	28.33          	11.846
MS.26          	28.272         	11.847
MS.27          	28.217         	11.841
MS.28          	28.16          	11.801
MS.29          	28.102         	11.896
MS.30          	28.047         	11.899
MS.31          	27.993         	11.884
MS.32          	27.935         	11.83
MS.33          	27.88          	11.886
MS.34          	27.825         	11.829
MS.35          	27.767         	11.534
MS.36          	27.712         	11.74
MS.37          	27.657         	11.562
MS.38          	27.602         	11.713
MS.39          	27.547         	11.759
MS.40          	27.493         	11.543
MS.41          	27.438         	11.74
MS.42          	27.382         	11.162
MS.43          	27.327         	11.385
MS.44          	27.272         	11.177
MS.45          	27.217         	11.086
MS.46          	27.165         	10.913
MS.47          	27.11          	10.638
MS.48          	27.055         	10.507
MS.49          	27.002         	10.654
MS.50          	26.948         	10.702
MS.51          	26.895         	10.242
MS.52          	26.84          	10.89
MS.53          	26.787         	10.986
MS.54          	26.733         	10.438
MS.55          	26.68          	10.444
MS.56          	26.627         	10.079
MS.57          	26.573         	10.2
MS.58          	26.52          	10.109
MS.59          	26.467         	9.967
MS.60          	26.415         	10.015
MS.61          	26.362         	9.767
MS.62          	26.307         	9.426
MS.63          	26.255         	9.448
MS.64          	26.202         	9.321
MS.65          	26.153         	9.114
MS.66          	26.1           	8.723
MS.67          	26.047         	9.087
MS.68          	25.995         	9.064
MS.69          	25.942         	8.689
MS.70          	25.89          	8.357
MS.71          	25.84          	8.452
MS.72          	25.787         	8.622
MS.73          	25.735         	8.323
MS.74          	25.685         	8.162
MS.75          	25.632         	8.04
MS.76          	25.582         	7.865
MS.77          	25.53          	8.3
MS.78          	25.48          	8.273
MS.79          	25.43          	7.941
MS.80          	25.377         	7.915
MS.81          	25.327         	7.385
MS.82          	25.278         	7.714
MS.83          	25.227         	7.95
MS.84          	25.175         	7.52
MS.85          	25.125         	7.499
MS.86          	25.075         	6.975
MS.87          	25.025         	7.308
MS.88          	24.975         	7.295
MS.89          	24.925         	7.662
MS.90          	24.875         	7.062
MS.91          	24.825         	7.301
MS.92          	24.778         	6.702
MS.93          	24.727         	6.898
MS.94          	24.677         	6.846
MS.95          	24.627         	6.855
MS.96          	24.58          	6.842
MS.97          	24.53          	6.876
MS.98          	24.48          	6.326
MS.99          	24.432         	6.593
MS.100         	24.382         	6.312
MS.101         	24.335         	6.233
MS.102         	24.285         	6.385
MS.103         	24.237         	6.487
MS.104         	24.19          	6.389
MS.105         	24.14          	5.852
MS.106         	24.092         	5.765
MS.107         	24.045         	5.839
MS.108         	23.997         	5.903
MS.109         	23.948         	5.916
MS.110         	23.9           	5.774
MS.111         	23.852         	5.784
MS.112         	23.805         	5.844
MS.113         	23.757         	5.804
MS.114         	23.71          	5.884
MS.115         	23.663         	5.708
MS.116         	23.615         	5.546
MS.117         	23.567         	5.751
MS.118         	23.52          	5.618
MS.119         	23.475         	5.405
MS.120         	23.427         	5.405
MS.121         	23.38          	5.187
MS.122         	23.332         	5.298
MS.123         	23.288         	5.508
MS.124         	23.24          	5.076
MS.125         	23.195         	4.99
MS.126         	23.147         	4.904
MS.127         	23.102         	4.591
MS.128         	23.055         	4.707
MS.129         	23.01          	4.917
MS.130         	22.962         	4.802
MS.131         	22.917         	4.62
MS.132         	22.872         	4.331
MS.133         	22.825         	4.346
MS.134         	22.78          	4.448
MS.135         	22.735         	4.194
MS.136         	22.69          	4.343
MS.137         	22.645         	4.083
MS.138         	22.6           	4.323
MS.139         	22.552         	4.304
MS.140         	22.507         	4.31
MS.141         	22.462         	4.363
MS.142         	22.42          	4.191
MS.143         	22.375         	3.954
MS.144         	22.33          	3.802
MS.145         	22.285         	3.97
MS.146         	22.24          	3.959
MS.147         	22.195         	3.962
MS.148         	22.153         	3.766
MS.149         	22.108         	4.011
MS.150         	22.062         	3.656
MS.151         	22.02          	3.838
MS.152         	21.975         	3.722
MS.153         	21.93          	3.595
MS.154         	21.887         	3.529
MS.155         	21.842         	3.527
MS.156         	21.8           	3.55
MS.157         	21.755         	3.38
MS.158         	21.712         	3.469
MS.159         	21.67          	3.354
MS.160         	21.625         	3.427
MS.161         	21.583         	3.115
MS.162         	21.54          	2.931
MS.163         	21.497         	3.278
MS.164         	21.455         	3.304
MS.165         	21.41          	2.926
MS.166         	21.368         	3.312
MS.167         	21.325         	3.165
MS.168         	21.282         	3.435
MS.169         	21.24          	3.314
MS.170         	21.198         	3.457
MS.171         	21.155         	3.121
MS.172         	21.112         	3.39
MS.173         	21.07          	2.982
MS.174         	21.03          	2.893
MS.175         	20.987         	3.036
MS.176         	20.945         	2.833
MS.177         	20.903         	3.223
MS.178         	20.862         	3.168
MS.179         	20.82          	2.942
MS.180         	20.778         	3.076
MS.181         	20.737         	3.038
MS.182         	20.695         	2.823
MS.183         	20.655         	2.635
MS.184         	20.612         	2.882
MS.185         	20.573         	2.76
MS.186         	20.53          	2.722
MS.187         	20.49          	2.545
MS.188         	20.448         	2.659
MS.189         	20.407         	2.543
MS.190         	20.368         	2.668
MS.191         	20.325         	2.516
MS.192         	20.285         	2.461
MS.193         	20.245         	2.446
MS.194         	20.205         	2.57
MS.195         	20.165         	2.383
MS.196         	20.122         	2.455
MS.197         	20.083         	2.55
MS.198         	20.042         	2.449
MS.199         	20.002         	2.404
MS.200         	19.962         	2.369
MS.201         	19.922         	2.451
MS.202         	19.882         	2.433
MS.203         	19.845         	2.3
MS.204         	19.805         	2.451
MS.205         	19.765         	2.367
MS.206         	19.725         	2.458
MS.207         	19.685         	2.148
MS.208         	19.647         	2.269
MS.209         	19.608         	2.288
MS.210         	19.567         	2.257
MS.211         	19.53          	2.136
MS.212         	19.49          	2.122
MS.213         	19.45          	2.123
MS.214         	19.413         	2.134
MS.215         	19.372         	2.157
MS.216         	19.335         	2.213
MS.217         	19.295         	2.17
MS.218         	19.257         	2.224
MS.219         	19.22          	2.064
MS.220         	19.18          	1.967
MS.221         	19.142         	2.012
MS.222         	19.105         	2.117
MS.223         	19.065         	2.104
MS.224         	19.028         	2.04
MS.225         	18.99          	2.048
MS.226         	18.952         	2.046
MS.227         	18.915         	1.973
MS.228         	18.875         	2
MS.229         	18.837         	1.716
MS.230         	18.8           	1.755
MS.231         	18.762         	1.677
MS.232         	18.725         	1.804
MS.233         	18.688         	1.797
MS.234         	18.65          	1.78
MS.235         	18.612         	1.635
MS.236         	18.577         	1.721
MS.237         	18.54          	1.882
MS.238         	18.503         	1.548
MS.239         	18.465         	1.632
MS.240         	18.427         	1.71
MS.241         	18.392         	1.639
MS.242         	18.355         	1.873
MS.243         	18.317         	1.641
MS.244         	18.282         	1.625
MS.245         	18.245         	1.487
MS.246         	18.208         	1.694
MS.247         	18.172         	1.646
MS.248         	18.135         	1.606
MS.249         	18.1           	1.826
MS.250         	18.062         	1.757
MS.251         	18.028         	1.792
MS.252         	17.993         	1.729
MS.253         	17.955         	1.813
MS.254         	17.92          	1.747
MS.255         	17.885         	1.736
MS.256         	17.847         	1.65
MS.257         	17.812         	1.477
MS.258         	17.778         	1.506
MS.259         	17.743         	1.68
MS.260         	17.705         	1.547
MS.261         	17.67          	1.6
MS.262         	17.635         	1.478
MS.263         	17.6           	1.592
MS.264         	17.565         	1.409
MS.265         	17.53          	1.517
MS.266         	17.495         	1.422
MS.267         	17.46          	1.41
MS.268         	17.425         	1.565
MS.269         	17.39          	1.624
MS.270         	17.355         	1.552
MS.271         	17.32          	1.409
MS.272         	17.285         	1.379
MS.273         	17.253         	1.481
MS.274         	17.217         	1.353
MS.275         	17.182         	1.382
MS.276         	17.147         	1.5
MS.277         	17.115         	1.251
MS.278         	17.08          	1.338
MS.279         	17.045         	1.353
MS.280         	17.012         	1.394
MS.281         	16.977         	1.251
MS.282         	16.945         	1.182
MS.283         	16.91          	1.392
MS.284         	16.875         	1.301
MS.285         	16.842         	1.084
MS.286         	16.81          	1.302
MS.287         	16.775         	1.212
MS.288         	16.743         	1.241
MS.289         	16.708         	1.199
MS.290         	16.675         	1.169
MS.291         	16.642         	1.317
MS.292         	16.608         	1.316
MS.293         	16.575         	1.202
MS.294         	16.542         	0.924
MS.295         	16.51          	1.088
MS.296         	16.475         	1.132
MS.297         	16.442         	1.108
MS.298         	16.41          	0.885
MS.299         	16.378         	1.2
MS.300         	16.345         	0.782
MS.301         	16.312         	1.161
MS.302         	16.28          	0.865
MS.303         	16.247         	1.022
MS.304         	16.215         	0.787
MS.305         	16.182         	0.817
MS.306         	16.15          	0.64
MS.307         	16.118         	0.913
MS.308         	16.085         	0.627
MS.309         	16.052         	0.583
MS.310         	16.02          	0.469
MS.311         	15.99          	0.583
MS.312         	15.957         	0.79
MS.313         	15.925         	0.592
MS.314         	15.892         	0.455
MS.315         	15.862         	0.419
MS.316         	15.83          	0.569
MS.317         	15.797         	0.525
MS.318         	15.767         	0.382
MS.319         	15.735         	0.38
MS.320         	15.705         	0.471
MS.321         	15.672         	0.383
MS.322         	15.64          	0.469
MS.323         	15.61          	0.306
MS.324         	15.577         	0.446
MS.325         	15.547         	0.361
MS.326         	15.517         	0.256
MS.327         	15.485         	0.308
MS.328         	15.455         	0.345
MS.329         	15.422         	0.347
MS.330         	15.392         	0.306
MS.331         	15.362         	0.374
MS.332         	15.332         	0.371
MS.333         	15.3           	0.193
MS.334         	15.27          	0.309
MS.335         	15.24          	0.28
MS.336         	15.21          	0.293
MS.337         	15.18          	0.19
MS.338         	15.148         	0.229
MS.339         	15.117         	0.227
MS.340         	15.087         	0.286
MS.341         	15.057         	0.203
MS.342         	15.027         	0.189
MS.343         	14.997         	0.219
MS.344         	14.967         	0.194
MS.345         	14.938         	0.186
MS.346         	14.907         	0.157
MS.347         	14.877         	0.2
MS.348         	14.847         	0.095
MS.349         	14.82          	0.164
MS.350         	14.79          	0.16
MS.351         	14.76          	0.2
MS.352         	14.73          	0.088
MS.353         	14.7           	0.161
MS.354         	14.672         	0.126
MS.355         	14.642         	0.125
MS.356         	14.612         	0.088
MS.357         	14.582         	0.126
MS.358         	14.555         	0.079
MS.359         	14.525         	0.132
MS.360         	14.497         	0.125
MS.361         	14.467         	0.077
MS.362         	14.438         	0.125
MS.363         	14.41          	0.079
MS.364         	14.38          	0.073
MS.365         	14.352         	0.023
MS.366         	14.322         	0.078
MS.367         	14.295         	0.023
MS.368         	14.267         	0.022
MS.369         	14.237         	0.126
MS.370         	14.21          	0.084
MS.371         	14.18          	0.035
MS.372         	14.153         	0.083
MS.373         	14.125         	-0.011
MS.374         	14.095         	0.081
MS.375         	14.068         	0.083
MS.376         	14.04          	0.089
MS.377         	14.012         	0.023
MS.378         	13.985         	0.068
MS.379         	13.955         	-0.011
MS.380         	13.927         	-0.013
MS.381         	13.9           	0.077
MS.382         	13.872         	-0.009
MS.383         	13.845         	0.02
MS.384         	13.818         	-0.009
MS.385         	13.79          	-0.012
MS.386         	13.762         	-0.011
MS.387         	13.735         	-0.012
MS.388         	13.707         	-0.012
MS.389         	13.68          	-0.013
MS.390         	13.653         	-0.013
MS.391         	13.625         	-0.011
MS.392         	13.597         	-0.011
MS.393         	13.57          	-0.01
MS.394         	13.542         	-0.011
MS.395         	13.517         	-0.007
MS.396         	13.49          	-0.012
MS.397         	13.462         	-0.01
MS.398         	13.435         	-0.012
MS.399         	13.407         	-0.007
MS.400         	13.382         	-0.011
MS.401         	13.355         	-0.012
MS.402         	13.327         	-0.013
MS.403         	13.302         	-0.01
MS.404         	13.275         	-0.013
MS.405         	13.247         	-0.009
MS.406         	13.222         	-0.007
MS.407         	13.195         	-0.011
MS.408         	13.17          	-0.012
MS.409         	13.142         	-0.011
MS.410         	13.117         	-0.01
MS.411         	13.09          	-0.009
MS.412         	13.065         	-0.01
MS.413         	13.037         	-0.009
MS.414         	13.012         	-0.01
MS.415         	12.987         	-0.01
MS.416         	12.96          	-0.007
MS.417         	12.935         	-0.011
MS.418         	12.907         	-0.013
MS.419         	12.882         	-0.01
MS.420         	12.858         	-0.011
MS.421         	12.832         	-0.007
MS.422         	12.805         	-0.009
MS.423         	12.78          	-0.009
MS.424         	12.755         	-0.009
MS.425         	12.73          	-0.007
MS.426         	12.705         	-0.007
DERIVED EXCITABILITY VARIABLES
Program = QTracP 3/4/2020
Threshold method = 6 (optimised for CAP, using data for present condition only)
SR method = 1 (using actual data values)
6.                 	0.000               	Peak response\(mV)
17.                	27                  	Age (years)
18.                	1                   	Sex (M=1, F=2)

EXTRA VARIABLES

MScPeak(mV) = 11.86
MScS5(mA) = 15.99
MScS50(mA) = 24.15
MScS95(mA) = 27.35
MScNSteps = 2
MScSteps(%) = 5.5
MScStepMax(%) = 2.9
MScD50 = 42
MScSlope = 4.88
MSFPeakAmp(mV) = 11.9
MSFNUnits = 154
MSFMeanUnitAmp(uV) = 77.1
MSFHuntTime(m) = 2.36
MSFError(%) = 5.44
MSFNLarge = 38.97
MSFMedianAmp(%) = 0.466
MSFMedianAmp(mV) = 0.0553
MSFHalfAmpAmp(%) = 0.732
MSFHalfAmpAmp(mV) = 0.0869
MSFLargestAmp(%) = 2.63
MSFLargestAmp(mV) = 0.313
MSFMeanRS(%) = 2
MSFOpts = 10106121
MScDuration(min) = 3.8
MSFTraces = 422
MSFSizeLimit(uV) = 29.7
MSFLimitType = 1
MSFSmallestAmp(uV) = 30.5

EXTRA WAVEFORMS


!MScan Model
!154
	1	14.33	0.44	2
	2	14.33	0.26	2
	3	14.64	0.47	2
	4	14.94	0.45	2
	5	15.11	0.34	2
	6	15.26	0.44	2
	7	15.54	0.73	2
	8	15.68	0.35	2
	9	15.84	0.75	2
	10	15.97	0.87	2
	11	16.05	0.51	2
	12	16.11	0.41	2
	13	16.18	0.71	2
	14	16.27	0.73	2
	15	16.44	2.07	2
	16	16.9	1.43	2
	17	17.07	0.61	2
	18	17.31	1.01	2
	19	17.66	0.66	2
	20	17.75	0.4	2
	21	17.83	0.54	2
	22	18.54	0.46	2
	23	18.66	0.35	2
	24	18.72	0.33	2
	25	18.79	0.5	2
	26	18.87	0.47	2
	27	18.95	0.39	2
	28	19.12	1.24	2
	29	19.35	0.45	2
	30	19.47	0.45	2
	31	19.58	0.47	2
	32	19.68	0.45	2
	33	19.93	1.14	2
	34	20.1	0.33	2
	35	20.3	0.61	2
	36	20.4	0.53	2
	37	20.44	0.32	2
	38	20.48	0.34	2
	39	20.53	0.4	2
	40	20.58	0.42	2
	41	20.71	1.08	2
	42	21.15	2.18	2
	43	21.54	0.86	2
	44	21.6	0.49	2
	45	21.66	0.59	2
	46	21.72	0.39	2
	47	21.75	0.26	2
	48	21.78	0.27	2
	49	21.81	0.27	2
	50	21.84	0.27	2
	51	21.87	0.29	2
	52	21.9	0.31	2
	53	21.93	0.33	2
	54	21.96	0.32	2
	55	22	0.29	2
	56	22.04	0.39	2
	57	22.12	0.75	2
	58	22.21	0.73	2
	59	22.31	0.88	2
	60	22.49	1.09	2
	61	22.71	1.9	2
	62	22.78	0.42	2
	63	22.84	0.44	2
	64	22.89	0.5	2
	65	22.94	0.63	2
	66	22.99	0.62	2
	67	23.05	0.87	2
	68	23.1	0.95	2
	69	23.15	0.7	2
	70	23.2	0.66	2
	71	23.23	0.44	2
	72	23.26	0.46	2
	73	23.3	0.48	2
	74	23.33	0.51	2
	75	23.36	0.42	2
	76	23.4	0.45	2
	77	23.44	0.47	2
	78	23.47	0.47	2
	79	23.51	0.34	2
	80	23.57	0.66	2
	81	23.62	0.34	2
	82	23.66	0.34	2
	83	23.97	1.62	2
	84	24.04	0.86	2
	85	24.11	0.8	2
	86	24.17	0.7	2
	87	24.23	0.65	2
	88	24.28	0.66	2
	89	24.34	0.81	2
	90	24.39	0.82	2
	91	24.44	0.73	2
	92	24.5	0.42	2
	93	24.55	0.54	2
	94	24.61	0.72	2
	95	24.74	1.85	2
	96	24.96	2.63	2
	97	25.16	2.3	2
	98	25.26	0.96	2
	99	25.35	1.25	2
	100	25.44	1.2	2
	101	25.53	0.96	2
	102	25.62	1.07	2
	103	25.66	0.47	2
	104	25.7	0.4	2
