File:              	C:\Qtrac\Data\Daniel M Sørensen\MScan multicentre study\Data from centres\Ankara\Processed data\IKC10113C.QZD
Name:              	TR.ANK.NC.10.1
Protocol:          	MSCAN-R2
Date:              	13/1/21
Start time:        	15:22:16
Age:               	25
Sex:               	f
Temperature:
S/R sites:         	TA
NC/disease:        	NC
Operator:          	eb
Comments:
M-SCAN DATA (4.8-1.1m)
Scanpts: 3, 9, 398, 419
Stim. (mA)     	Amp. (mV)
MS.1           	19.5           	4.757
MS.2           	19.5           	4.745
MS.3           	19.5           	4.731
MS.4           	19.5           	4.759
MS.5           	19.5           	4.755
MS.6           	19.5           	4.691
MS.7           	19.5           	4.731
MS.8           	19.5           	4.739
MS.9           	19.5           	4.639
MS.10          	19.5           	4.741
MS.11          	19.5           	4.723
MS.12          	19.5           	4.663
MS.13          	19.5           	4.719
MS.14          	19.5           	4.721
MS.15          	19.5           	4.77
MS.16          	19.5           	4.766
MS.17          	19.5           	4.816
MS.18          	19.5           	4.812
MS.19          	19.5           	4.786
MS.20          	19.5           	4.763
MS.21          	19.5           	4.812
MS.22          	19.5           	4.808
MS.23          	19.5           	4.856
MS.24          	19.422         	4.749
MS.25          	19.382         	4.838
MS.26          	19.345         	4.8
MS.27          	19.305         	4.82
MS.28          	19.267         	4.677
MS.29          	19.23          	4.413
MS.30          	19.19          	4.715
MS.31          	19.153         	4.848
MS.32          	19.115         	4.683
MS.33          	19.075         	4.425
MS.34          	19.038         	4.661
MS.35          	19             	4.707
MS.36          	18.962         	4.367
MS.37          	18.922         	4.653
MS.38          	18.885         	4.766
MS.39          	18.847         	4.548
MS.40          	18.81          	4.58
MS.41          	18.772         	4.381
MS.42          	18.735         	4.659
MS.43          	18.698         	4.683
MS.44          	18.66          	4.659
MS.45          	18.622         	4.715
MS.46          	18.585         	4.701
MS.47          	18.55          	4.627
MS.48          	18.512         	4.864
MS.49          	18.475         	4.612
MS.50          	18.438         	4.594
MS.51          	18.4           	4.359
MS.52          	18.365         	4.566
MS.53          	18.327         	4.616
MS.54          	18.29          	4.572
MS.55          	18.255         	4.574
MS.56          	18.217         	4.592
MS.57          	18.182         	4.661
MS.58          	18.145         	4.568
MS.59          	18.11          	4.484
MS.60          	18.073         	4.482
MS.61          	18.038         	4.445
MS.62          	18             	4.516
MS.63          	17.965         	4.381
MS.64          	17.93          	4.58
MS.65          	17.892         	4.439
MS.66          	17.858         	4.52
MS.67          	17.823         	4.548
MS.68          	17.785         	4.361
MS.69          	17.75          	4.568
MS.70          	17.715         	4.562
MS.71          	17.68          	4.604
MS.72          	17.645         	4.518
MS.73          	17.61          	4.562
MS.74          	17.575         	4.486
MS.75          	17.538         	4.576
MS.76          	17.503         	4.669
MS.77          	17.467         	4.482
MS.78          	17.435         	4.427
MS.79          	17.4           	4.429
MS.80          	17.365         	3.94
MS.81          	17.33          	4.29
MS.82          	17.295         	4.339
MS.83          	17.26          	3.98
MS.84          	17.225         	4.312
MS.85          	17.192         	4.417
MS.86          	17.157         	4.099
MS.87          	17.122         	4.161
MS.88          	17.087         	4.167
MS.89          	17.055         	4.21
MS.90          	17.02          	4.282
MS.91          	16.987         	4.137
MS.92          	16.952         	3.944
MS.93          	16.917         	4.113
MS.94          	16.885         	4.123
MS.95          	16.85          	4.115
MS.96          	16.817         	3.96
MS.97          	16.782         	4.095
MS.98          	16.75          	4.016
MS.99          	16.717         	4.042
MS.100         	16.682         	3.831
MS.101         	16.65          	4.034
MS.102         	16.618         	3.845
MS.103         	16.583         	3.744
MS.104         	16.55          	3.583
MS.105         	16.517         	3.893
MS.106         	16.485         	3.837
MS.107         	16.452         	3.712
MS.108         	16.417         	3.887
MS.109         	16.385         	3.895
MS.110         	16.352         	3.654
MS.111         	16.32          	3.543
MS.112         	16.288         	3.581
MS.113         	16.255         	3.674
MS.114         	16.222         	3.553
MS.115         	16.19          	3.505
MS.116         	16.157         	3.519
MS.117         	16.125         	3.466
MS.118         	16.092         	3.354
MS.119         	16.062         	3.428
MS.120         	16.03          	3.341
MS.121         	15.997         	3.39
MS.122         	15.965         	3.555
MS.123         	15.932         	3.378
MS.124         	15.902         	3.35
MS.125         	15.87          	3.356
MS.126         	15.837         	3.297
MS.127         	15.807         	3.174
MS.128         	15.775         	3.219
MS.129         	15.742         	3.203
MS.130         	15.712         	3.241
MS.131         	15.68          	3.144
MS.132         	15.65          	2.935
MS.133         	15.617         	3.045
MS.134         	15.587         	2.87
MS.135         	15.555         	2.933
MS.136         	15.525         	2.983
MS.137         	15.492         	2.991
MS.138         	15.462         	2.983
MS.139         	15.432         	2.778
MS.140         	15.4           	2.902
MS.141         	15.37          	2.923
MS.142         	15.34          	2.882
MS.143         	15.307         	2.727
MS.144         	15.277         	2.78
MS.145         	15.247         	2.604
MS.146         	15.217         	2.782
MS.147         	15.188         	2.502
MS.148         	15.155         	2.566
MS.149         	15.125         	2.596
MS.150         	15.095         	2.544
MS.151         	15.065         	2.562
MS.152         	15.035         	2.344
MS.153         	15.005         	2.522
MS.154         	14.975         	2.532
MS.155         	14.945         	2.485
MS.156         	14.915         	2.469
MS.157         	14.885         	2.459
MS.158         	14.855         	2.322
MS.159         	14.827         	2.288
MS.160         	14.797         	2.429
MS.161         	14.767         	2.389
MS.162         	14.737         	2.351
MS.163         	14.707         	2.274
MS.164         	14.68          	2.27
MS.165         	14.65          	2.278
MS.166         	14.62          	2.256
MS.167         	14.59          	2.27
MS.168         	14.562         	2.199
MS.169         	14.532         	2.153
MS.170         	14.505         	2.159
MS.171         	14.475         	2.175
MS.172         	14.445         	2.197
MS.173         	14.417         	2.075
MS.174         	14.387         	2.143
MS.175         	14.36          	2.121
MS.176         	14.33          	2.175
MS.177         	14.302         	1.946
MS.178         	14.273         	1.946
MS.179         	14.245         	1.772
MS.180         	14.217         	1.922
MS.181         	14.188         	1.994
MS.182         	14.16          	1.893
MS.183         	14.132         	1.946
MS.184         	14.102         	1.891
MS.185         	14.075         	2.018
MS.186         	14.047         	1.849
MS.187         	14.02          	1.809
MS.188         	13.99          	1.797
MS.189         	13.962         	1.656
MS.190         	13.935         	1.785
MS.191         	13.907         	1.678
MS.192         	13.88          	1.738
MS.193         	13.852         	1.7
MS.194         	13.825         	1.664
MS.195         	13.797         	1.638
MS.196         	13.77          	1.398
MS.197         	13.742         	1.482
MS.198         	13.715         	1.541
MS.199         	13.688         	1.49
MS.200         	13.66          	1.492
MS.201         	13.632         	1.317
MS.202         	13.605         	1.422
MS.203         	13.577         	1.317
MS.204         	13.55          	1.257
MS.205         	13.523         	1.356
MS.206         	13.495         	1.19
MS.207         	13.47          	1.245
MS.208         	13.443         	1.217
MS.209         	13.415         	1.16
MS.210         	13.387         	1.188
MS.211         	13.362         	1.198
MS.212         	13.335         	1.152
MS.213         	13.307         	1.11
MS.214         	13.282         	1.126
MS.215         	13.255         	1.068
MS.216         	13.23          	1.108
MS.217         	13.202         	1.019
MS.218         	13.175         	1.047
MS.219         	13.15          	0.92
MS.220         	13.122         	0.943
MS.221         	13.097         	0.929
MS.222         	13.07          	0.884
MS.223         	13.045         	1.015
MS.224         	13.02          	0.872
MS.225         	12.992         	0.961
MS.226         	12.967         	0.898
MS.227         	12.94          	0.898
MS.228         	12.915         	0.775
MS.229         	12.89          	0.888
MS.230         	12.862         	0.87
MS.231         	12.837         	0.844
MS.232         	12.812         	0.804
MS.233         	12.787         	0.723
MS.234         	12.76          	0.683
MS.235         	12.735         	0.779
MS.236         	12.71          	0.675
MS.237         	12.685         	0.661
MS.238         	12.66          	0.725
MS.239         	12.635         	0.723
MS.240         	12.61          	0.582
MS.241         	12.585         	0.667
MS.242         	12.557         	0.59
MS.243         	12.532         	0.657
MS.244         	12.507         	0.56
MS.245         	12.483         	0.592
MS.246         	12.457         	0.61
MS.247         	12.432         	0.612
MS.248         	12.41          	0.592
MS.249         	12.385         	0.556
MS.250         	12.36          	0.594
MS.251         	12.335         	0.532
MS.252         	12.31          	0.52
MS.253         	12.285         	0.481
MS.254         	12.26          	0.495
MS.255         	12.238         	0.473
MS.256         	12.212         	0.51
MS.257         	12.188         	0.514
MS.258         	12.162         	0.473
MS.259         	12.14          	0.457
MS.260         	12.115         	0.453
MS.261         	12.09          	0.439
MS.262         	12.065         	0.415
MS.263         	12.042         	0.437
MS.264         	12.017         	0.405
MS.265         	11.995         	0.403
MS.266         	11.97          	0.429
MS.267         	11.945         	0.409
MS.268         	11.922         	0.383
MS.269         	11.898         	0.407
MS.270         	11.875         	0.385
MS.271         	11.85          	0.373
MS.272         	11.827         	0.363
MS.273         	11.802         	0.377
MS.274         	11.78          	0.344
MS.275         	11.757         	0.352
MS.276         	11.733         	0.328
MS.277         	11.71          	0.365
MS.278         	11.685         	0.34
MS.279         	11.662         	0.354
MS.280         	11.64          	0.312
MS.281         	11.617         	0.296
MS.282         	11.592         	0.33
MS.283         	11.57          	0.332
MS.284         	11.547         	0.334
MS.285         	11.525         	0.31
MS.286         	11.5           	0.308
MS.287         	11.477         	0.29
MS.288         	11.455         	0.29
MS.289         	11.432         	0.26
MS.290         	11.41          	0.268
MS.291         	11.387         	0.312
MS.292         	11.363         	0.262
MS.293         	11.34          	0.276
MS.294         	11.318         	0.236
MS.295         	11.295         	0.26
MS.296         	11.273         	0.28
MS.297         	11.25          	0.246
MS.298         	11.227         	0.238
MS.299         	11.205         	0.268
MS.300         	11.182         	0.278
MS.301         	11.16          	0.258
MS.302         	11.137         	0.246
MS.303         	11.117         	0.211
MS.304         	11.095         	0.197
MS.305         	11.073         	0.238
MS.306         	11.05          	0.22
MS.307         	11.028         	0.216
MS.308         	11.005         	0.203
MS.309         	10.983         	0.143
MS.310         	10.962         	0.205
MS.311         	10.94          	0.133
MS.312         	10.917         	0.209
MS.313         	10.895         	0.119
MS.314         	10.875         	0.197
MS.315         	10.852         	0.226
MS.316         	10.83          	0.159
MS.317         	10.81          	0.139
MS.318         	10.787         	0.107
MS.319         	10.765         	0.087
MS.320         	10.745         	0.119
MS.321         	10.722         	0.185
MS.322         	10.702         	0.117
MS.323         	10.68          	0.161
MS.324         	10.66          	0.179
MS.325         	10.637         	0.151
MS.326         	10.617         	0.145
MS.327         	10.595         	0.079
MS.328         	10.575         	0.089
MS.329         	10.552         	0.081
MS.330         	10.532         	0.087
MS.331         	10.51          	0.085
MS.332         	10.49          	0.151
MS.333         	10.47          	0.07
MS.334         	10.448         	0.06
MS.335         	10.427         	0.077
MS.336         	10.407         	0.07
MS.337         	10.385         	0.058
MS.338         	10.365         	0.058
MS.339         	10.345         	0.056
MS.340         	10.323         	0.05
MS.341         	10.302         	0.073
MS.342         	10.282         	0.042
MS.343         	10.262         	0.052
MS.344         	10.24          	0.064
MS.345         	10.22          	0.038
MS.346         	10.2           	0.068
MS.347         	10.18          	0.048
MS.348         	10.16          	0.044
MS.349         	10.14          	0.058
MS.350         	10.12          	0.038
MS.351         	10.097         	0.05
MS.352         	10.077         	0.042
MS.353         	10.057         	0.046
MS.354         	10.037         	0.048
MS.355         	10.017         	0.044
MS.356         	9.997          	0.034
MS.357         	9.977          	0.05
MS.358         	9.957          	0.044
MS.359         	9.938          	0.038
MS.360         	9.917          	0.036
MS.361         	9.9            	0.046
MS.362         	9.88           	0.046
MS.363         	9.86           	0.032
MS.364         	9.84           	0.032
MS.365         	9.82           	0.04
MS.366         	9.8            	0.034
MS.367         	9.78           	0.044
MS.368         	9.76           	0.04
MS.369         	9.742          	0.032
MS.370         	9.722          	0.034
MS.371         	9.702          	0.042
MS.372         	9.682          	0.038
MS.373         	9.665          	0.032
MS.374         	9.645          	0.04
MS.375         	9.625          	0.04
MS.376         	9.605          	0.04
MS.377         	9.587          	0.034
MS.378         	9.568          	0.036
MS.379         	9.55           	0.034
MS.380         	9.53           	0.036
MS.381         	9.51           	0.036
MS.382         	9.492          	0.038
MS.383         	9.472          	0.032
MS.384         	9.452          	0.038
MS.385         	9.435          	0.032
MS.386         	9.415          	0.034
MS.387         	9.398          	0.032
MS.388         	9.377          	0.032
MS.389         	9.36           	0.036
MS.390         	9.34           	0.036
MS.391         	9.323          	0.038
MS.392         	9.302          	0.03
MS.393         	9.285          	0.036
MS.394         	9.267          	0.032
MS.395         	9.247          	0.028
MS.396         	9.23           	0.032
MS.397         	9.21           	0.036
MS.398         	9.193          	0.036
MS.399         	9.175          	0.026
MS.400         	9.155          	0.032
MS.401         	9.137          	0.028
MS.402         	9.12           	0.028
MS.403         	9.1            	0.034
MS.404         	9.082          	0.03
MS.405         	9.065          	0.03
MS.406         	9.047          	0.034
MS.407         	9.028          	0.028
MS.408         	9.01           	0.032
MS.409         	8.992          	0.03
MS.410         	8.975          	0.034
MS.411         	8.957          	0.034
MS.412         	8.94           	0.04
MS.413         	8.92           	0.032
MS.414         	8.903          	0.028
MS.415         	8.885          	0.03
MS.416         	8.867          	0.032
MS.417         	8.85           	0.03
MS.418         	8.832          	0.034
MS.419         	8.815          	0.032
DERIVED EXCITABILITY VARIABLES
Program = QTracP 3/4/2020
Threshold method = 6 (optimised for CAP, using data for present condition only)
SR method = 1 (using actual data values)
6.                 	0.000               	Peak response\(mV)
17.                	25                  	Age (years)
18.                	2                   	Sex (M=1, F=2)

EXTRA VARIABLES

MScPeak(mV) = 4.72
MScS5(mA) = 11.18
MScS50(mA) = 14.9
MScS95(mA) = 18.41
MScNSteps = 3
MScSteps(%) = 6.7
MScStepMax(%) = 2.6
MScD50 = 49
MScSlope = 5.61
MSFPeakAmp(mV) = 4.69
MSFNUnits = 119
MSFMeanUnitAmp(uV) = 39.4
MSFHuntTime(m) = 2.08
MSFError(%) = 3
MSFNLarge = 26.32
MSFMedianAmp(%) = 0.601
MSFMedianAmp(mV) = 0.0282
MSFHalfAmpAmp(%) = 1.07
MSFHalfAmpAmp(mV) = 0.0501
MSFLargestAmp(%) = 5.39
MSFLargestAmp(mV) = 0.253
MSFMeanRS(%) = 2
MSFOpts = 10106121
MScDuration(min) = 3.7
MSFTraces = 417
MSFSizeLimit(uV) = 11.7
MSFLimitType = 1
MSFSmallestAmp(uV) = 13.4

EXTRA WAVEFORMS


!MScan Model
!119
	1	10.04	0.29	2
	2	10.32	0.33	2
	3	10.46	0.41	2
	4	10.56	0.62	2
	5	10.87	1.1	2
	6	11.03	0.98	2
	7	11.09	0.38	2
	8	11.24	0.71	2
	9	11.42	0.78	2
	10	11.59	0.73	2
	11	11.69	0.38	2
	12	11.77	0.41	2
	13	11.83	0.29	2
	14	11.91	0.41	2
	15	11.98	0.47	2
	16	12.03	0.36	2
	17	12.13	0.56	2
	18	12.19	0.47	2
	19	12.22	0.33	2
	20	12.25	0.3	2
	21	12.28	0.34	2
	22	12.37	0.57	2
	23	12.41	0.42	2
	24	12.51	1.12	2
	25	12.57	0.42	2
	26	12.62	0.43	2
	27	12.67	0.6	2
	28	12.71	0.53	2
	29	12.74	0.59	2
	30	12.79	0.72	2
	31	12.84	0.81	2
	32	12.89	0.76	2
	33	12.97	1.08	2
	34	13.04	0.71	2
	35	13.07	0.32	2
	36	13.1	0.54	2
	37	13.13	0.55	2
	38	13.17	0.5	2
	39	13.2	0.5	2
	40	13.25	0.39	2
	41	13.28	0.46	2
	42	13.29	0.31	2
	43	13.31	0.35	2
	44	13.33	0.35	2
	45	13.35	0.32	2
	46	13.36	0.36	2
	47	13.37	0.33	2
	48	13.39	0.34	2
	49	13.41	0.33	2
	50	13.43	0.33	2
	51	13.45	0.32	2
	52	13.46	0.29	2
	53	13.48	0.31	2
	54	13.5	0.31	2
	55	13.52	0.29	2
	56	13.53	0.35	2
	57	13.55	0.39	2
	58	13.58	0.57	2
	59	13.6	0.57	2
	60	13.62	0.6	2
	61	13.65	0.59	2
	62	13.67	0.61	2
	63	13.7	0.64	2
	64	13.73	0.73	2
	65	13.76	0.82	2
	66	13.8	0.78	2
	67	13.83	0.77	2
	68	13.87	0.89	2
	69	13.91	1.23	2
	70	13.96	1.02	2
	71	14.03	1.37	2
	72	14.21	2.8	2
	73	14.3	1.5	2
	74	14.36	0.33	2
	75	14.4	0.94	2
	76	14.44	0.73	2
	77	14.47	0.69	2
	78	14.51	0.65	2
	79	14.54	0.43	2
	80	14.58	0.44	2
	81	14.62	0.34	2
	82	14.65	0.5	2
	83	14.7	0.64	2
	84	14.79	1.36	2
	85	14.9	1.33	2
	86	15	1.4	2
	87	15.05	0.6	2
	88	15.13	2.18	2
	89	15.18	0.63	2
	90	15.22	0.65	2
	91	15.25	0.64	2
	92	15.28	0.89	2
	93	15.38	2.07	2
	94	15.47	1.33	2
	95	15.52	1.07	2
	96	15.58	1.24	2
	97	15.61	0.61	2
	98	15.63	0.5	2
	99	15.66	0.5	2
	100	15.68	0.5	2
	101	15.71	0.47	2
	102	15.73	0.72	2
	103	15.76	0.76	2
	104	15.81	1.56	2
	105	15.92	1.62	2
	106	16.01	1.57	2
	107	16.1	1.31	2
	108	16.14	0.53	2
	109	16.18	0.49	2
	110	16.22	0.87	2
	111	16.39	3.08	2
	112	16.56	3	2
	113	16.63	1.03	2
	114	16.73	1.79	2
	115	16.87	2.39	2
	116	17.32	5.39	2
	117	17.93	2.88	2.4
	118	18.19	2.19	2
	119	19.11	1.77	1.6

