File:              	C:\Qtrac\Data\Daniel M Sørensen\MScan multicentre study\Data from centres\Ankara\Processed data\RÇC10113B.QZD
Name:              	TR.ANK.NC.11.1
Protocol:          	MSCAN-R2
Date:              	13/1/21
Start time:        	18:24:47
Age:               	30
Sex:               	F
Temperature:
S/R sites:         	APB
NC/disease:        	NC
Operator:          	HA
Comments:
M-SCAN DATA (6.1-1m)
Scanpts: 8, 13, 442, 447
Stim. (mA)     	Amp. (mV)
MS.1           	21             	11.424
MS.2           	21             	11.388
MS.3           	21             	11.408
MS.4           	21             	11.35
MS.5           	21             	11.338
MS.6           	21             	11.336
MS.7           	21             	11.35
MS.8           	21             	11.293
MS.9           	21             	11.35
MS.10          	21             	11.32
MS.11          	21             	11.295
MS.12          	21             	11.305
MS.13          	21             	11.287
MS.14          	21             	11.328
MS.15          	21             	11.287
MS.16          	21             	11.283
MS.17          	21             	11.299
MS.18          	21             	11.281
MS.19          	21             	11.303
MS.20          	21             	11.261
MS.21          	21             	11.265
MS.22          	21             	11.267
MS.23          	21             	11.013
MS.24          	20.958         	10.903
MS.25          	20.915         	11.211
MS.26          	20.875         	11.259
MS.27          	20.833         	11.249
MS.28          	20.79          	11.233
MS.29          	20.75          	11.243
MS.30          	20.708         	11.233
MS.31          	20.667         	11.231
MS.32          	20.625         	11.247
MS.33          	20.585         	10.951
MS.34          	20.542         	11.084
MS.35          	20.502         	10.953
MS.36          	20.46          	10.842
MS.37          	20.42          	10.52
MS.38          	20.38          	10.49
MS.39          	20.337         	10.496
MS.40          	20.297         	10.532
MS.41          	20.257         	10.794
MS.42          	20.217         	10.957
MS.43          	20.177         	10.478
MS.44          	20.137         	10.721
MS.45          	20.095         	10.397
MS.46          	20.055         	10.21
MS.47          	20.015         	10.141
MS.48          	19.975         	10.276
MS.49          	19.935         	10.119
MS.50          	19.895         	10.129
MS.51          	19.858         	9.734
MS.52          	19.817         	9.712
MS.53          	19.778         	9.811
MS.54          	19.737         	10.065
MS.55          	19.698         	10.059
MS.56          	19.66          	9.648
MS.57          	19.62          	9.634
MS.58          	19.58          	9.843
MS.59          	19.54          	9.906
MS.60          	19.502         	9.745
MS.61          	19.462         	9.475
MS.62          	19.425         	9.751
MS.63          	19.385         	9.521
MS.64          	19.347         	9.32
MS.65          	19.307         	9.585
MS.66          	19.27          	9.283
MS.67          	19.23          	9.162
MS.68          	19.192         	9.056
MS.69          	19.155         	9.003
MS.70          	19.115         	8.967
MS.71          	19.077         	9.112
MS.72          	19.04          	9.042
MS.73          	19.002         	9.029
MS.74          	18.962         	8.891
MS.75          	18.925         	8.882
MS.76          	18.887         	8.87
MS.77          	18.85          	9.05
MS.78          	18.812         	8.993
MS.79          	18.775         	8.909
MS.80          	18.737         	8.721
MS.81          	18.7           	8.629
MS.82          	18.663         	8.697
MS.83          	18.625         	8.909
MS.84          	18.587         	8.703
MS.85          	18.55          	8.798
MS.86          	18.515         	8.584
MS.87          	18.477         	8.359
MS.88          	18.44          	8.238
MS.89          	18.403         	8.353
MS.90          	18.368         	8.449
MS.91          	18.33          	8.429
MS.92          	18.292         	8.472
MS.93          	18.257         	8.22
MS.94          	18.22          	8.333
MS.95          	18.182         	8.675
MS.96          	18.147         	8.216
MS.97          	18.11          	8.304
MS.98          	18.075         	7.922
MS.99          	18.04          	7.992
MS.100         	18.003         	7.716
MS.101         	17.967         	7.976
MS.102         	17.93          	8.085
MS.103         	17.895         	7.785
MS.104         	17.86          	8.115
MS.105         	17.823         	7.452
MS.106         	17.788         	7.436
MS.107         	17.753         	7.257
MS.108         	17.717         	7.044
MS.109         	17.682         	7.571
MS.110         	17.645         	7.654
MS.111         	17.61          	7.156
MS.112         	17.575         	6.673
MS.113         	17.54          	6.457
MS.114         	17.505         	7.056
MS.115         	17.47          	6.427
MS.116         	17.435         	7.195
MS.117         	17.4           	6.617
MS.118         	17.365         	6.226
MS.119         	17.333         	6.431
MS.120         	17.297         	6.677
MS.121         	17.262         	6.927
MS.122         	17.227         	6.333
MS.123         	17.192         	6.063
MS.124         	17.16          	5.962
MS.125         	17.125         	6.016
MS.126         	17.09          	6.375
MS.127         	17.057         	6.31
MS.128         	17.022         	6.469
MS.129         	16.987         	5.67
MS.130         	16.955         	6.018
MS.131         	16.92          	5.803
MS.132         	16.887         	5.851
MS.133         	16.852         	6.028
MS.134         	16.82          	5.76
MS.135         	16.785         	5.726
MS.136         	16.753         	5.495
MS.137         	16.717         	5.972
MS.138         	16.685         	5.877
MS.139         	16.653         	5.479
MS.140         	16.618         	5.205
MS.141         	16.585         	5.694
MS.142         	16.552         	5.479
MS.143         	16.52          	5.293
MS.144         	16.485         	4.985
MS.145         	16.452         	4.866
MS.146         	16.42          	4.906
MS.147         	16.387         	5.021
MS.148         	16.355         	4.983
MS.149         	16.323         	4.915
MS.150         	16.29          	4.995
MS.151         	16.257         	4.846
MS.152         	16.225         	4.812
MS.153         	16.192         	4.596
MS.154         	16.16          	4.955
MS.155         	16.128         	4.695
MS.156         	16.095         	4.602
MS.157         	16.062         	4.755
MS.158         	16.03          	4.59
MS.159         	16             	4.421
MS.160         	15.967         	4.627
MS.161         	15.935         	4.55
MS.162         	15.902         	4.532
MS.163         	15.872         	4.62
MS.164         	15.84          	4.399
MS.165         	15.807         	4.042
MS.166         	15.777         	3.978
MS.167         	15.745         	4.202
MS.168         	15.712         	4.469
MS.169         	15.682         	4.433
MS.170         	15.65          	4.119
MS.171         	15.62          	3.698
MS.172         	15.587         	3.732
MS.173         	15.557         	3.863
MS.174         	15.525         	4.036
MS.175         	15.495         	4.069
MS.176         	15.465         	3.672
MS.177         	15.432         	3.525
MS.178         	15.402         	3.434
MS.179         	15.372         	3.426
MS.180         	15.34          	3.779
MS.181         	15.31          	3.821
MS.182         	15.28          	3.65
MS.183         	15.25          	3.271
MS.184         	15.217         	3.418
MS.185         	15.188         	3.605
MS.186         	15.157         	3.464
MS.187         	15.127         	3.63
MS.188         	15.097         	3.285
MS.189         	15.068         	2.788
MS.190         	15.037         	3.408
MS.191         	15.007         	3.146
MS.192         	14.977         	3.533
MS.193         	14.947         	3.476
MS.194         	14.917         	3.251
MS.195         	14.887         	2.653
MS.196         	14.858         	2.516
MS.197         	14.827         	2.471
MS.198         	14.797         	2.908
MS.199         	14.77          	3.152
MS.200         	14.74          	2.985
MS.201         	14.71          	2.316
MS.202         	14.68          	2.097
MS.203         	14.65          	2.441
MS.204         	14.622         	2.544
MS.205         	14.592         	2.437
MS.206         	14.562         	2.524
MS.207         	14.535         	2.27
MS.208         	14.505         	2.163
MS.209         	14.477         	2.143
MS.210         	14.447         	2.479
MS.211         	14.417         	2.129
MS.212         	14.39          	2.383
MS.213         	14.36          	2.05
MS.214         	14.332         	2.147
MS.215         	14.305         	1.877
MS.216         	14.275         	2.119
MS.217         	14.247         	2.077
MS.218         	14.217         	2.022
MS.219         	14.19          	2.097
MS.220         	14.162         	1.871
MS.221         	14.132         	1.926
MS.222         	14.105         	1.708
MS.223         	14.077         	2.022
MS.224         	14.047         	1.891
MS.225         	14.02          	1.903
MS.226         	13.992         	1.692
MS.227         	13.965         	1.815
MS.228         	13.938         	1.758
MS.229         	13.91          	1.611
MS.230         	13.88          	1.69
MS.231         	13.852         	1.75
MS.232         	13.825         	1.436
MS.233         	13.797         	1.454
MS.234         	13.77          	1.631
MS.235         	13.742         	1.68
MS.236         	13.715         	1.358
MS.237         	13.688         	1.458
MS.238         	13.66          	1.384
MS.239         	13.632         	1.281
MS.240         	13.605         	1.325
MS.241         	13.58          	1.36
MS.242         	13.552         	1.378
MS.243         	13.525         	1.428
MS.244         	13.497         	1.37
MS.245         	13.47          	1.285
MS.246         	13.445         	1.223
MS.247         	13.417         	1.416
MS.248         	13.39          	1.515
MS.249         	13.362         	1.287
MS.250         	13.337         	1.225
MS.251         	13.31          	1.295
MS.252         	13.282         	1.271
MS.253         	13.257         	1.374
MS.254         	13.23          	1.233
MS.255         	13.205         	1.047
MS.256         	13.177         	1.206
MS.257         	13.153         	1.219
MS.258         	13.125         	0.725
MS.259         	13.1           	1.19
MS.260         	13.072         	1.211
MS.261         	13.047         	1.215
MS.262         	13.02          	0.679
MS.263         	12.995         	0.969
MS.264         	12.967         	0.703
MS.265         	12.943         	1.013
MS.266         	12.917         	0.816
MS.267         	12.89          	1.011
MS.268         	12.865         	0.842
MS.269         	12.84          	0.878
MS.270         	12.815         	0.967
MS.271         	12.787         	0.995
MS.272         	12.762         	0.931
MS.273         	12.738         	0.884
MS.274         	12.712         	1.009
MS.275         	12.688         	0.677
MS.276         	12.66          	0.58
MS.277         	12.635         	0.973
MS.278         	12.61          	0.624
MS.279         	12.585         	0.568
MS.280         	12.56          	0.489
MS.281         	12.535         	0.769
MS.282         	12.51          	0.5
MS.283         	12.485         	0.794
MS.284         	12.46          	0.552
MS.285         	12.435         	0.491
MS.286         	12.41          	0.371
MS.287         	12.385         	0.636
MS.288         	12.36          	0.467
MS.289         	12.335         	0.491
MS.290         	12.312         	0.544
MS.291         	12.287         	0.481
MS.292         	12.262         	0.3
MS.293         	12.238         	0.455
MS.294         	12.212         	0.425
MS.295         	12.19          	0.502
MS.296         	12.165         	0.375
MS.297         	12.14          	0.175
MS.298         	12.115         	0.342
MS.299         	12.092         	0.367
MS.300         	12.068         	0.294
MS.301         	12.042         	0.348
MS.302         	12.02          	0.3
MS.303         	11.995         	0.304
MS.304         	11.972         	0.203
MS.305         	11.947         	0.209
MS.306         	11.922         	0.256
MS.307         	11.9           	0.304
MS.308         	11.875         	0.306
MS.309         	11.852         	0.216
MS.310         	11.827         	0.214
MS.311         	11.805         	0.25
MS.312         	11.782         	0.218
MS.313         	11.757         	0.207
MS.314         	11.735         	0.216
MS.315         	11.71          	0.207
MS.316         	11.688         	0.22
MS.317         	11.665         	0.214
MS.318         	11.64          	0.216
MS.319         	11.617         	0.207
MS.320         	11.595         	0.209
MS.321         	11.57          	0.214
MS.322         	11.547         	0.209
MS.323         	11.525         	0.201
MS.324         	11.502         	0.216
MS.325         	11.48          	0.228
MS.326         	11.455         	0.224
MS.327         	11.432         	0.218
MS.328         	11.41          	0.207
MS.329         	11.387         	0.224
MS.330         	11.365         	0.143
MS.331         	11.342         	0.224
MS.332         	11.32          	0.222
MS.333         	11.297         	0.153
MS.334         	11.275         	0.139
MS.335         	11.252         	0.207
MS.336         	11.23          	0.232
MS.337         	11.207         	0.155
MS.338         	11.185         	0.209
MS.339         	11.162         	0.157
MS.340         	11.14          	0.145
MS.341         	11.117         	0.203
MS.342         	11.095         	0.119
MS.343         	11.073         	0.121
MS.344         	11.05          	0.119
MS.345         	11.03          	0.145
MS.346         	11.007         	0.131
MS.347         	10.985         	0.143
MS.348         	10.962         	0.151
MS.349         	10.94          	0.139
MS.350         	10.92          	0.161
MS.351         	10.898         	0.149
MS.352         	10.875         	0.165
MS.353         	10.855         	0.145
MS.354         	10.832         	0.103
MS.355         	10.81          	0.135
MS.356         	10.79          	0.153
MS.357         	10.767         	0.157
MS.358         	10.745         	0.137
MS.359         	10.725         	0.153
MS.360         	10.702         	0.149
MS.361         	10.682         	0.155
MS.362         	10.66          	0.159
MS.363         	10.64          	0.157
MS.364         	10.617         	0.155
MS.365         	10.597         	0.151
MS.366         	10.575         	0.153
MS.367         	10.555         	0.157
MS.368         	10.532         	0.133
MS.369         	10.512         	0.155
MS.370         	10.49          	0.159
MS.371         	10.47          	0.083
MS.372         	10.45          	0.117
MS.373         	10.427         	0.127
MS.374         	10.407         	0.149
MS.375         	10.387         	0.153
MS.376         	10.365         	0.121
MS.377         	10.345         	0.119
MS.378         	10.325         	0.085
MS.379         	10.305         	0.129
MS.380         	10.282         	0.085
MS.381         	10.262         	0.089
MS.382         	10.242         	0.101
MS.383         	10.222         	0.089
MS.384         	10.202         	0.153
MS.385         	10.18          	0.091
MS.386         	10.16          	0.117
MS.387         	10.14          	0.117
MS.388         	10.12          	0.099
MS.389         	10.1           	0.101
MS.390         	10.08          	0.113
MS.391         	10.06          	0.093
MS.392         	10.04          	0.081
MS.393         	10.02          	0.105
MS.394         	10             	0.095
MS.395         	9.98           	0.091
MS.396         	9.96           	0.095
MS.397         	9.94           	0.103
MS.398         	9.92           	0.091
MS.399         	9.9            	0.105
MS.400         	9.88           	0.099
MS.401         	9.86           	0.105
MS.402         	9.84           	0.089
MS.403         	9.82           	0.115
MS.404         	9.802          	0.079
MS.405         	9.782          	0.091
MS.406         	9.762          	0.103
MS.407         	9.742          	0.062
MS.408         	9.722          	0.085
MS.409         	9.705          	0.095
MS.410         	9.685          	0.115
MS.411         	9.665          	0.109
MS.412         	9.645          	0.081
MS.413         	9.627          	0.095
MS.414         	9.608          	0.101
MS.415         	9.587          	0.097
MS.416         	9.57           	0.103
MS.417         	9.55           	0.101
MS.418         	9.53           	0.109
MS.419         	9.512          	0.081
MS.420         	9.492          	0.079
MS.421         	9.472          	0.079
MS.422         	9.455          	0.095
MS.423         	9.435          	0.075
MS.424         	9.417          	0.077
MS.425         	9.398          	0.083
MS.426         	9.38           	0.107
MS.427         	9.36           	0.083
MS.428         	9.342          	0.079
MS.429         	9.323          	0.085
MS.430         	9.305          	0.087
MS.431         	9.285          	0.083
MS.432         	9.267          	0.079
MS.433         	9.25           	0.083
MS.434         	9.23           	0.075
MS.435         	9.212          	0.083
MS.436         	9.193          	0.087
MS.437         	9.175          	0.081
MS.438         	9.158          	0.075
MS.439         	9.137          	0.087
MS.440         	9.12           	0.091
MS.441         	9.102          	0.079
MS.442         	9.085          	0.089
MS.443         	9.065          	0.091
MS.444         	9.047          	0.083
MS.445         	9.03           	0.085
MS.446         	9.012          	0.087
MS.447         	8.992          	0.089
MS.448         	8.975          	0.087
MS.449         	8.957          	0.091
MS.450         	8.94           	0.081
MS.451         	8.922          	0.093
MS.452         	8.905          	0.066
MS.453         	8.887          	0.056
MS.454         	8.867          	0.06
MS.455         	8.85           	0.089
MS.456         	8.832          	0.085
MS.457         	8.815          	0.093
MS.458         	8.797          	0.064
MS.459         	8.78           	0.085
MS.460         	8.762          	0.091
MS.461         	8.745          	0.091
MS.462         	8.727          	0.089
MS.463         	8.71           	0.064
MS.464         	8.693          	0.089
MS.465         	8.675          	0.087
MS.466         	8.658          	0.06
MS.467         	8.64           	0.06
MS.468         	8.625          	0.06
MS.469         	8.608          	0.062
MS.470         	8.59           	0.091
MS.471         	8.573          	0.062
MS.472         	8.555          	0.06
MS.473         	8.537          	0.06
MS.474         	8.52           	0.064
MS.475         	8.505          	0.087
MS.476         	8.488          	0.081
MS.477         	8.47           	0.064
MS.478         	8.452          	0.06
MS.479         	8.435          	0.085
MS.480         	8.42           	0.064
MS.481         	8.403          	0.06
MS.482         	8.385          	0.06
MS.483         	8.37           	0.066
MS.484         	8.352          	0.064
MS.485         	8.335          	0.06
MS.486         	8.32           	0.062
MS.487         	8.302          	0.062
MS.488         	8.285          	0.016
MS.489         	8.27           	0.06
MS.490         	8.252          	0.066
MS.491         	8.235          	0.06
MS.492         	8.22           	0.064
MS.493         	8.202          	0.06
MS.494         	8.188          	0.064
MS.495         	8.17           	0.062
MS.496         	8.155          	0.064
MS.497         	8.137          	0.062
MS.498         	8.122          	0.066
MS.499         	8.105          	0.064
MS.500         	8.09           	0.062
