File:              	C:\Qtrac\Data\Daniel M Sørensen\MScan multicentre study\Data from centres\Bucharest\TDLC00129E.QZD
Name:              	RO.BU.NC.2.1
Protocol:          	MSCAN-R2
Date:              	29/1/20
Start time:        	12:44:19
Age:               	57
Sex:               	M
Temperature:       	37.2
S/R sites:         	ADM
NC/disease:        	RONC2.1
Operator:          	TL
Comments:
M-SCAN DATA (7.6-1.6m)
Scanpts: 10, 15, 618, 625
Stim. (mA)     	Amp. (mV)
MS.1           	34.5           	6.631
MS.2           	34.5           	6.606
MS.3           	34.5           	6.598
MS.4           	34.5           	6.532
MS.5           	34.5           	6.641
MS.6           	34.5           	6.627
MS.7           	34.5           	6.619
MS.8           	34.5           	6.643
MS.9           	34.5           	6.653
MS.10          	34.5           	6.655
MS.11          	34.5           	6.627
MS.12          	34.5           	6.647
MS.13          	34.5           	6.653
MS.14          	34.5           	6.627
MS.15          	34.5           	6.647
MS.16          	34.5           	6.651
MS.17          	34.5           	6.637
MS.18          	34.5           	6.633
MS.19          	34.5           	6.705
MS.20          	34.5           	6.552
MS.21          	34.5           	6.631
MS.22          	34.5           	6.647
MS.23          	34.5           	6.675
MS.24          	34.362         	6.651
MS.25          	34.292         	6.619
MS.26          	34.225         	6.651
MS.27          	34.157         	6.673
MS.28          	34.087         	6.635
MS.29          	34.02          	6.645
MS.30          	33.952         	6.54
MS.31          	33.885         	6.635
MS.32          	33.818         	6.641
MS.33          	33.75          	6.578
MS.34          	33.682         	6.502
MS.35          	33.615         	6.619
MS.36          	33.548         	6.659
MS.37          	33.48          	6.617
MS.38          	33.412         	6.496
MS.39          	33.347         	6.606
MS.40          	33.28          	6.625
MS.41          	33.212         	6.534
MS.42          	33.147         	6.429
MS.43          	33.08          	6.645
MS.44          	33.015         	6.447
MS.45          	32.95          	6.584
MS.46          	32.882         	6.56
MS.47          	32.818         	6.351
MS.48          	32.752         	6.431
MS.49          	32.688         	6.504
MS.50          	32.62          	6.59
MS.51          	32.555         	6.389
MS.52          	32.49          	6.596
MS.53          	32.425         	6.192
MS.54          	32.36          	6.619
MS.55          	32.298         	6.451
MS.56          	32.232         	6.425
MS.57          	32.167         	6.347
MS.58          	32.103         	6.371
MS.59          	32.04          	6.544
MS.60          	31.975         	6.411
MS.61          	31.91          	6.212
MS.62          	31.847         	6.236
MS.63          	31.782         	6.474
MS.64          	31.72          	6.455
MS.65          	31.657         	6.143
MS.66          	31.592         	6.359
MS.67          	31.53          	6.016
MS.68          	31.467         	6.405
MS.69          	31.405         	6.012
MS.70          	31.342         	6.157
MS.71          	31.28          	6.266
MS.72          	31.217         	6.105
MS.73          	31.155         	6.061
MS.74          	31.092         	6.196
MS.75          	31.03          	6.036
MS.76          	30.967         	6.006
MS.77          	30.905         	5.968
MS.78          	30.845         	5.942
MS.79          	30.782         	6.018
MS.80          	30.722         	5.881
MS.81          	30.66          	5.982
MS.82          	30.597         	6.028
MS.83          	30.537         	6.016
MS.84          	30.477         	5.859
MS.85          	30.415         	5.986
MS.86          	30.355         	5.91
MS.87          	30.295         	5.956
MS.88          	30.233         	5.98
MS.89          	30.172         	5.91
MS.90          	30.112         	5.863
MS.91          	30.052         	5.843
MS.92          	29.992         	5.881
MS.93          	29.932         	5.908
MS.94          	29.872         	5.96
MS.95          	29.812         	5.817
MS.96          	29.755         	5.924
MS.97          	29.695         	5.855
MS.98          	29.635         	5.97
MS.99          	29.575         	5.833
MS.100         	29.517         	5.934
MS.101         	29.457         	5.831
MS.102         	29.4           	5.932
MS.103         	29.34          	5.873
MS.104         	29.282         	6.002
MS.105         	29.222         	5.936
MS.106         	29.165         	5.964
MS.107         	29.108         	5.899
MS.108         	29.047         	5.928
MS.109         	28.99          	5.94
MS.110         	28.932         	5.887
MS.111         	28.875         	5.958
MS.112         	28.817         	6.014
MS.113         	28.76          	5.944
MS.114         	28.702         	6.073
MS.115         	28.645         	5.787
MS.116         	28.587         	5.95
MS.117         	28.53          	5.93
MS.118         	28.472         	5.821
MS.119         	28.415         	5.763
MS.120         	28.36          	5.893
MS.121         	28.302         	5.74
MS.122         	28.245         	5.698
MS.123         	28.19          	5.811
MS.124         	28.132         	5.499
MS.125         	28.077         	5.67
MS.126         	28.02          	5.789
MS.127         	27.965         	5.227
MS.128         	27.91          	5.837
MS.129         	27.852         	5.317
MS.130         	27.797         	5.323
MS.131         	27.743         	5.188
MS.132         	27.688         	5.646
MS.133         	27.632         	4.957
MS.134         	27.577         	5.317
MS.135         	27.52          	4.975
MS.136         	27.465         	5.118
MS.137         	27.412         	4.743
MS.138         	27.358         	4.953
MS.139         	27.302         	5.168
MS.140         	27.247         	4.512
MS.141         	27.192         	5.215
MS.142         	27.137         	5.136
MS.143         	27.085         	4.731
MS.144         	27.03          	4.961
MS.145         	26.975         	4.576
MS.146         	26.922         	4.286
MS.147         	26.868         	4.532
MS.148         	26.815         	4.173
MS.149         	26.762         	4.353
MS.150         	26.707         	4.576
MS.151         	26.655         	4.057
MS.152         	26.6           	4.208
MS.153         	26.547         	4.347
MS.154         	26.495         	3.97
MS.155         	26.442         	3.992
MS.156         	26.39          	4.212
MS.157         	26.337         	3.988
MS.158         	26.285         	3.835
MS.159         	26.233         	3.813
MS.160         	26.18          	4.121
MS.161         	26.127         	3.873
MS.162         	26.075         	3.909
MS.163         	26.022         	3.932
MS.164         	25.97          	3.609
MS.165         	25.917         	3.839
MS.166         	25.868         	3.847
MS.167         	25.815         	3.684
MS.168         	25.762         	3.607
MS.169         	25.712         	3.766
MS.170         	25.66          	3.478
MS.171         	25.61          	3.672
MS.172         	25.557         	3.579
MS.173         	25.507         	3.489
MS.174         	25.455         	3.632
MS.175         	25.405         	3.561
MS.176         	25.355         	3.732
MS.177         	25.305         	3.374
MS.178         	25.252         	3.484
MS.179         	25.202         	3.239
MS.180         	25.153         	3.358
MS.181         	25.102         	3.754
MS.182         	25.052         	3.162
MS.183         	25.002         	3.404
MS.184         	24.952         	3.164
MS.185         	24.903         	3.166
MS.186         	24.852         	3.307
MS.187         	24.802         	3.037
MS.188         	24.752         	3.178
MS.189         	24.705         	3.337
MS.190         	24.655         	2.818
MS.191         	24.605         	2.83
MS.192         	24.555         	3.17
MS.193         	24.507         	2.914
MS.194         	24.457         	2.957
MS.195         	24.41          	3.098
MS.196         	24.36          	2.89
MS.197         	24.312         	3.029
MS.198         	24.262         	2.657
MS.199         	24.215         	2.765
MS.200         	24.165         	2.536
MS.201         	24.118         	2.447
MS.202         	24.07          	2.802
MS.203         	24.022         	2.318
MS.204         	23.972         	2.508
MS.205         	23.925         	2.268
MS.206         	23.877         	2.129
MS.207         	23.83          	2.465
MS.208         	23.782         	2.065
MS.209         	23.735         	2.175
MS.210         	23.688         	2.175
MS.211         	23.64          	1.954
MS.212         	23.592         	2.052
MS.213         	23.545         	2.125
MS.214         	23.5           	1.952
MS.215         	23.452         	1.998
MS.216         	23.405         	2.067
MS.217         	23.358         	1.835
MS.218         	23.312         	1.811
MS.219         	23.265         	1.978
MS.220         	23.217         	1.839
MS.221         	23.172         	1.736
MS.222         	23.125         	1.835
MS.223         	23.08          	1.656
MS.224         	23.032         	1.73
MS.225         	22.987         	1.891
MS.226         	22.942         	1.635
MS.227         	22.895         	1.627
MS.228         	22.85          	1.754
MS.229         	22.805         	1.642
MS.230         	22.76          	1.692
MS.231         	22.712         	1.76
MS.232         	22.667         	1.69
MS.233         	22.622         	1.698
MS.234         	22.577         	1.668
MS.235         	22.532         	1.579
MS.236         	22.487         	1.589
MS.237         	22.442         	1.571
MS.238         	22.397         	1.501
MS.239         	22.352         	1.529
MS.240         	22.307         	1.607
MS.241         	22.262         	1.541
MS.242         	22.22          	1.509
MS.243         	22.175         	1.446
MS.244         	22.13          	1.537
MS.245         	22.085         	1.368
MS.246         	22.042         	1.438
MS.247         	21.997         	1.343
MS.248         	21.955         	1.539
MS.249         	21.91          	1.452
MS.250         	21.868         	1.341
MS.251         	21.823         	1.37
MS.252         	21.78          	1.414
MS.253         	21.735         	1.255
MS.254         	21.692         	1.42
MS.255         	21.65          	1.307
MS.256         	21.605         	1.263
MS.257         	21.562         	1.339
MS.258         	21.52          	1.263
MS.259         	21.477         	1.259
MS.260         	21.432         	1.154
MS.261         	21.39          	0.991
MS.262         	21.347         	1.176
MS.263         	21.305         	1.202
MS.264         	21.262         	1.251
MS.265         	21.22          	1.13
MS.266         	21.177         	1.18
MS.267         	21.135         	1.164
MS.268         	21.092         	1.041
MS.269         	21.05          	1.158
MS.270         	21.01          	1.219
MS.271         	20.967         	1.035
MS.272         	20.925         	1.094
MS.273         	20.882         	0.965
MS.274         	20.842         	1.07
MS.275         	20.8           	1.132
MS.276         	20.757         	0.991
MS.277         	20.717         	0.886
MS.278         	20.675         	0.979
MS.279         	20.635         	1.001
MS.280         	20.592         	0.834
MS.281         	20.552         	0.852
MS.282         	20.51          	0.908
MS.283         	20.47          	0.79
MS.284         	20.43          	0.779
MS.285         	20.387         	0.862
MS.286         	20.347         	0.931
MS.287         	20.307         	0.689
MS.288         	20.265         	0.667
MS.289         	20.225         	0.55
MS.290         	20.185         	0.588
MS.291         	20.145         	0.659
MS.292         	20.105         	0.616
MS.293         	20.065         	0.544
MS.294         	20.025         	0.55
MS.295         	19.985         	0.56
MS.296         	19.945         	0.693
MS.297         	19.905         	0.481
MS.298         	19.865         	0.586
MS.299         	19.825         	0.506
MS.300         	19.785         	0.522
MS.301         	19.745         	0.604
MS.302         	19.708         	0.465
MS.303         	19.667         	0.475
MS.304         	19.627         	0.419
MS.305         	19.587         	0.574
MS.306         	19.55          	0.377
MS.307         	19.51          	0.449
MS.308         	19.472         	0.487
MS.309         	19.432         	0.425
MS.310         	19.395         	0.407
MS.311         	19.355         	0.383
MS.312         	19.317         	0.383
MS.313         	19.278         	0.461
MS.314         	19.24          	0.375
MS.315         	19.2           	0.363
MS.316         	19.163         	0.371
MS.317         	19.125         	0.409
MS.318         	19.085         	0.324
MS.319         	19.047         	0.332
MS.320         	19.01          	0.336
MS.321         	18.972         	0.342
MS.322         	18.935         	0.322
MS.323         	18.895         	0.328
MS.324         	18.858         	0.346
MS.325         	18.82          	0.405
MS.326         	18.782         	0.296
MS.327         	18.745         	0.314
MS.328         	18.708         	0.385
MS.329         	18.67          	0.316
MS.330         	18.632         	0.216
MS.331         	18.595         	0.254
MS.332         	18.56          	0.294
MS.333         	18.522         	0.306
MS.334         	18.485         	0.296
MS.335         	18.448         	0.28
MS.336         	18.41          	0.209
MS.337         	18.375         	0.24
MS.338         	18.337         	0.29
MS.339         	18.3           	0.238
MS.340         	18.265         	0.26
MS.341         	18.227         	0.218
MS.342         	18.192         	0.242
MS.343         	18.155         	0.276
MS.344         	18.12          	0.232
MS.345         	18.083         	0.232
MS.346         	18.047         	0.246
MS.347         	18.01          	0.228
MS.348         	17.975         	0.232
MS.349         	17.938         	0.216
MS.350         	17.903         	0.216
MS.351         	17.868         	0.214
MS.352         	17.833         	0.207
MS.353         	17.795         	0.236
MS.354         	17.76          	0.226
MS.355         	17.725         	0.201
MS.356         	17.69          	0.203
MS.357         	17.655         	0.222
MS.358         	17.618         	0.191
MS.359         	17.583         	0.193
MS.360         	17.547         	0.197
MS.361         	17.512         	0.201
MS.362         	17.477         	0.195
MS.363         	17.442         	0.211
MS.364         	17.407         	0.171
MS.365         	17.372         	0.203
MS.366         	17.34          	0.193
MS.367         	17.305         	0.183
MS.368         	17.27          	0.181
MS.369         	17.235         	0.207
MS.370         	17.2           	0.183
MS.371         	17.167         	0.171
MS.372         	17.132         	0.205
MS.373         	17.097         	0.177
MS.374         	17.062         	0.175
MS.375         	17.03          	0.169
MS.376         	16.995         	0.171
MS.377         	16.962         	0.179
MS.378         	16.927         	0.183
MS.379         	16.895         	0.165
MS.380         	16.86          	0.167
MS.381         	16.827         	0.167
MS.382         	16.792         	0.165
MS.383         	16.76          	0.163
MS.384         	16.725         	0.163
MS.385         	16.692         	0.177
MS.386         	16.66          	0.165
MS.387         	16.625         	0.167
MS.388         	16.592         	0.169
MS.389         	16.56          	0.169
MS.390         	16.528         	0.131
MS.391         	16.493         	0.175
MS.392         	16.46          	0.161
MS.393         	16.427         	0.167
MS.394         	16.395         	0.161
MS.395         	16.362         	0.133
MS.396         	16.33          	0.129
MS.397         	16.297         	0.157
MS.398         	16.265         	0.125
MS.399         	16.233         	0.153
MS.400         	16.2           	0.131
MS.401         	16.167         	0.159
MS.402         	16.135         	0.127
MS.403         	16.102         	0.125
MS.404         	16.07          	0.127
MS.405         	16.038         	0.125
MS.406         	16.005         	0.129
MS.407         	15.975         	0.159
MS.408         	15.943         	0.167
MS.409         	15.91          	0.123
MS.410         	15.877         	0.129
MS.411         	15.847         	0.129
MS.412         	15.815         	0.125
MS.413         	15.782         	0.127
MS.414         	15.752         	0.127
MS.415         	15.72          	0.129
MS.416         	15.69          	0.125
MS.417         	15.657         	0.129
MS.418         	15.627         	0.125
MS.419         	15.595         	0.123
MS.420         	15.565         	0.125
MS.421         	15.532         	0.121
MS.422         	15.502         	0.125
MS.423         	15.47          	0.117
MS.424         	15.44          	0.119
MS.425         	15.41          	0.123
MS.426         	15.377         	0.123
MS.427         	15.347         	0.119
MS.428         	15.318         	0.123
MS.429         	15.287         	0.123
MS.430         	15.255         	0.121
MS.431         	15.225         	0.125
MS.432         	15.195         	0.121
MS.433         	15.165         	0.123
MS.434         	15.135         	0.117
MS.435         	15.105         	0.125
MS.436         	15.075         	0.129
MS.437         	15.042         	0.125
MS.438         	15.012         	0.121
MS.439         	14.983         	0.119
MS.440         	14.952         	0.123
MS.441         	14.925         	0.127
MS.442         	14.895         	0.123
MS.443         	14.865         	0.123
MS.444         	14.835         	0.123
MS.445         	14.805         	0.121
MS.446         	14.775         	0.119
MS.447         	14.745         	0.127
MS.448         	14.717         	0.121
MS.449         	14.688         	0.127
MS.450         	14.657         	0.125
MS.451         	14.627         	0.121
MS.452         	14.6           	0.115
MS.453         	14.57          	0.121
MS.454         	14.54          	0.125
MS.455         	14.512         	0.119
MS.456         	14.483         	0.121
MS.457         	14.455         	0.117
MS.458         	14.425         	0.121
MS.459         	14.395         	0.119
MS.460         	14.367         	0.119
MS.461         	14.337         	0.121
MS.462         	14.31          	0.123
MS.463         	14.282         	0.121
MS.464         	14.252         	0.117
MS.465         	14.225         	0.121
MS.466         	14.195         	0.121
MS.467         	14.167         	0.119
MS.468         	14.14          	0.119
MS.469         	14.11          	0.119
MS.470         	14.082         	0.121
MS.471         	14.055         	0.119
MS.472         	14.028         	0.119
MS.473         	13.997         	0.117
MS.474         	13.97          	0.121
MS.475         	13.943         	0.119
MS.476         	13.915         	0.117
MS.477         	13.887         	0.117
MS.478         	13.86          	0.121
MS.479         	13.832         	0.123
MS.480         	13.805         	0.117
MS.481         	13.778         	0.117
MS.482         	13.75          	0.117
MS.483         	13.722         	0.121
MS.484         	13.695         	0.115
MS.485         	13.667         	0.115
MS.486         	13.64          	0.115
MS.487         	13.612         	0.117
MS.488         	13.585         	0.117
MS.489         	13.557         	0.117
MS.490         	13.53          	0.121
MS.491         	13.502         	0.121
MS.492         	13.477         	0.119
MS.493         	13.45          	0.119
MS.494         	13.422         	0.119
MS.495         	13.395         	0.117
MS.496         	13.37          	0.119
MS.497         	13.342         	0.113
MS.498         	13.315         	0.117
MS.499         	13.29          	0.115
MS.500         	13.262         	0.115
MS.501         	13.235         	0.117
