File:              	C:\Qtrac\Data\Daniel M Sørensen\MScan multicentre study\Data from centres\Bucharest\Processed data\TDLC01230A.QZD
Name:              	RO.BU.NC.9.1
Protocol:          	MSCAN-R2
Date:              	30/12/20
Start time:        	10:50:00
Age:               	35
Sex:               	M
Temperature:       	36.3
S/R sites:         	APB
NC/disease:        	NC9
Operator:          	TL
Comments:          	RO.NC.9.1.
M-SCAN DATA (8-1.1m)
Scanpts: 7, 13, 715, 737
Stim. (mA)     	Amp. (mV)
MS.1           	16.5           	9.501
MS.2           	16.5           	9.509
MS.3           	16.5           	9.511
MS.4           	16.5           	9.487
MS.5           	16.5           	9.45
MS.6           	16.5           	9.45
MS.7           	16.5           	9.471
MS.8           	16.5           	9.483
MS.9           	16.5           	9.495
MS.10          	16.5           	9.444
MS.11          	16.5           	9.465
MS.12          	16.5           	9.471
MS.13          	16.5           	9.495
MS.14          	16.5           	9.448
MS.15          	16.5           	9.456
MS.16          	16.5           	9.471
MS.17          	16.5           	9.454
MS.18          	16.5           	9.446
MS.19          	16.5           	9.473
MS.20          	16.5           	9.473
MS.21          	16.5           	9.434
MS.22          	16.5           	9.404
MS.23          	16.5           	9.428
MS.24          	16.435         	9.43
MS.25          	16.4           	9.408
MS.26          	16.368         	9.424
MS.27          	16.335         	9.434
MS.28          	16.302         	9.408
MS.29          	16.27          	9.436
MS.30          	16.237         	9.531
MS.31          	16.205         	9.412
MS.32          	16.172         	9.42
MS.33          	16.14          	9.402
MS.34          	16.108         	9.463
MS.35          	16.077         	9.424
MS.36          	16.045         	9.394
MS.37          	16.012         	9.507
MS.38          	15.98          	9.418
MS.39          	15.947         	9.444
MS.40          	15.917         	9.489
MS.41          	15.885         	9.428
MS.42          	15.852         	9.454
MS.43          	15.822         	9.448
MS.44          	15.79          	9.503
MS.45          	15.757         	9.416
MS.46          	15.727         	9.436
MS.47          	15.695         	9.507
MS.48          	15.665         	9.521
MS.49          	15.632         	9.444
MS.50          	15.602         	9.465
MS.51          	15.57          	9.418
MS.52          	15.54          	9.412
MS.53          	15.507         	9.416
MS.54          	15.477         	9.39
MS.55          	15.445         	9.471
MS.56          	15.415         	9.436
MS.57          	15.385         	9.426
MS.58          	15.352         	9.438
MS.59          	15.322         	9.487
MS.60          	15.292         	9.438
MS.61          	15.262         	9.422
MS.62          	15.233         	9.412
MS.63          	15.2           	9.454
MS.64          	15.17          	9.581
MS.65          	15.14          	9.436
MS.66          	15.11          	9.523
MS.67          	15.08          	9.446
MS.68          	15.05          	9.436
MS.69          	15.02          	9.527
MS.70          	14.99          	9.444
MS.71          	14.96          	9.434
MS.72          	14.93          	9.41
MS.73          	14.9           	9.493
MS.74          	14.87          	9.44
MS.75          	14.84          	9.43
MS.76          	14.81          	9.469
MS.77          	14.78          	9.426
MS.78          	14.752         	9.483
MS.79          	14.722         	9.489
MS.80          	14.693         	9.477
MS.81          	14.662         	9.487
MS.82          	14.635         	9.418
MS.83          	14.605         	9.424
MS.84          	14.575         	9.448
MS.85          	14.547         	9.511
MS.86          	14.517         	9.452
MS.87          	14.487         	9.454
MS.88          	14.46          	9.479
MS.89          	14.43          	9.428
MS.90          	14.403         	9.442
MS.91          	14.372         	9.444
MS.92          	14.345         	9.448
MS.93          	14.315         	9.418
MS.94          	14.287         	9.428
MS.95          	14.257         	9.432
MS.96          	14.23          	9.432
MS.97          	14.202         	9.422
MS.98          	14.172         	9.432
MS.99          	14.145         	9.416
MS.100         	14.117         	9.42
MS.101         	14.087         	9.398
MS.102         	14.06          	9.406
MS.103         	14.032         	9.42
MS.104         	14.005         	9.388
MS.105         	13.975         	9.424
MS.106         	13.947         	9.39
MS.107         	13.92          	9.41
MS.108         	13.892         	9.422
MS.109         	13.865         	9.418
MS.110         	13.837         	9.41
MS.111         	13.81          	9.378
MS.112         	13.782         	9.408
MS.113         	13.755         	9.412
MS.114         	13.727         	9.42
MS.115         	13.7           	9.41
MS.116         	13.672         	9.442
MS.117         	13.645         	9.392
MS.118         	13.617         	9.4
MS.119         	13.59          	9.4
MS.120         	13.562         	9.344
MS.121         	13.535         	9.364
MS.122         	13.51          	9.398
MS.123         	13.483         	9.386
MS.124         	13.455         	9.372
MS.125         	13.427         	9.382
MS.126         	13.403         	9.372
MS.127         	13.375         	9.388
MS.128         	13.347         	9.372
MS.129         	13.32          	9.352
MS.130         	13.295         	9.378
MS.131         	13.267         	9.364
MS.132         	13.242         	9.35
MS.133         	13.215         	9.366
MS.134         	13.188         	9.348
MS.135         	13.162         	9.352
MS.136         	13.135         	9.364
MS.137         	13.11          	9.38
MS.138         	13.082         	9.356
MS.139         	13.057         	9.354
MS.140         	13.032         	9.366
MS.141         	13.005         	9.348
MS.142         	12.98          	9.376
MS.143         	12.952         	9.384
MS.144         	12.927         	9.354
MS.145         	12.903         	9.348
MS.146         	12.875         	9.378
MS.147         	12.85          	9.374
MS.148         	12.825         	9.368
MS.149         	12.8           	9.364
MS.150         	12.773         	9.328
MS.151         	12.747         	9.34
MS.152         	12.722         	9.364
MS.153         	12.697         	9.356
MS.154         	12.672         	9.33
MS.155         	12.645         	9.318
MS.156         	12.62          	9.36
MS.157         	12.595         	9.362
MS.158         	12.57          	9.336
MS.159         	12.545         	9.326
MS.160         	12.52          	9.326
MS.161         	12.495         	9.332
MS.162         	12.47          	9.318
MS.163         	12.445         	9.309
MS.164         	12.42          	9.356
MS.165         	12.395         	9.33
MS.166         	12.37          	9.291
MS.167         	12.347         	9.334
MS.168         	12.322         	9.35
MS.169         	12.297         	9.289
MS.170         	12.273         	9.313
MS.171         	12.247         	9.293
MS.172         	12.222         	9.283
MS.173         	12.2           	9.301
MS.174         	12.175         	9.313
MS.175         	12.15          	9.223
MS.176         	12.125         	9.291
MS.177         	12.102         	9.301
MS.178         	12.077         	9.207
MS.179         	12.052         	9.299
MS.180         	12.03          	9.301
MS.181         	12.005         	9.291
MS.182         	11.983         	9.301
MS.183         	11.957         	9.309
MS.184         	11.932         	9.283
MS.185         	11.91          	9.257
MS.186         	11.885         	9.305
MS.187         	11.863         	9.181
MS.188         	11.837         	9.177
MS.189         	11.815         	9.263
MS.190         	11.79          	9.265
MS.191         	11.767         	9.181
MS.192         	11.745         	9.179
MS.193         	11.72          	9.179
MS.194         	11.697         	9.245
MS.195         	11.675         	9.179
MS.196         	11.65          	9.243
MS.197         	11.627         	9.185
MS.198         	11.605         	9.179
MS.199         	11.58          	9.183
MS.200         	11.557         	9.243
MS.201         	11.535         	9.156
MS.202         	11.512         	9.177
MS.203         	11.488         	9.116
MS.204         	11.465         	9.15
MS.205         	11.443         	9.114
MS.206         	11.42          	9.124
MS.207         	11.398         	9.227
MS.208         	11.375         	9.168
MS.209         	11.352         	9.168
MS.210         	11.33          	9.098
MS.211         	11.307         	9.074
MS.212         	11.282         	9.122
MS.213         	11.26          	9.122
MS.214         	11.238         	9.126
MS.215         	11.215         	9.106
MS.216         	11.195         	9.104
MS.217         	11.172         	9.118
MS.218         	11.15          	9.096
MS.219         	11.127         	9.082
MS.220         	11.105         	9.106
MS.221         	11.082         	8.929
MS.222         	11.06          	9.104
MS.223         	11.037         	9.096
MS.224         	11.015         	9.074
MS.225         	10.995         	9.066
MS.226         	10.972         	8.893
MS.227         	10.95          	9.064
MS.228         	10.927         	8.905
MS.229         	10.907         	8.884
MS.230         	10.885         	9.06
MS.231         	10.863         	8.897
MS.232         	10.84          	8.888
MS.233         	10.82          	8.886
MS.234         	10.797         	8.888
MS.235         	10.778         	8.699
MS.236         	10.755         	8.85
MS.237         	10.733         	8.899
MS.238         	10.712         	8.484
MS.239         	10.69          	8.663
MS.240         	10.67          	8.484
MS.241         	10.648         	8.647
MS.242         	10.627         	8.49
MS.243         	10.605         	8.611
MS.244         	10.585         	8.429
MS.245         	10.562         	8.439
MS.246         	10.542         	8.451
MS.247         	10.52          	8.459
MS.248         	10.5           	8.441
MS.249         	10.48          	8.558
MS.250         	10.457         	8.478
MS.251         	10.438         	8.411
MS.252         	10.415         	8.347
MS.253         	10.395         	8.393
MS.254         	10.375         	8.339
MS.255         	10.355         	8.399
MS.256         	10.332         	8.343
MS.257         	10.312         	8.389
MS.258         	10.292         	8.329
MS.259         	10.273         	8.276
MS.260         	10.25          	8.268
MS.261         	10.23          	8.254
MS.262         	10.21          	8.294
MS.263         	10.19          	8.246
MS.264         	10.17          	8.258
MS.265         	10.15          	8.232
MS.266         	10.127         	8.244
MS.267         	10.108         	8.248
MS.268         	10.087         	8.248
MS.269         	10.068         	8.23
MS.270         	10.047         	8.256
MS.271         	10.028         	8.216
MS.272         	10.007         	8.228
MS.273         	9.988          	8.202
MS.274         	9.967          	8.224
MS.275         	9.948          	8.18
MS.276         	9.927          	8.18
MS.277         	9.907          	8.204
MS.278         	9.887          	8.137
MS.279         	9.867          	8.175
MS.280         	9.85           	8.036
MS.281         	9.83           	8.161
MS.282         	9.81           	8.117
MS.283         	9.79           	8.133
MS.284         	9.77           	8.196
MS.285         	9.75           	8.095
MS.286         	9.733          	8.002
MS.287         	9.712          	7.821
MS.288         	9.693          	7.799
MS.289         	9.672          	7.728
MS.290         	9.655          	7.922
MS.291         	9.635          	7.779
MS.292         	9.615          	7.714
MS.293         	9.595          	7.688
MS.294         	9.577          	7.738
MS.295         	9.557          	7.67
MS.296         	9.537          	7.313
MS.297         	9.52           	7.36
MS.298         	9.5            	7.531
MS.299         	9.483          	7.422
MS.300         	9.462          	7.08
MS.301         	9.445          	7.295
MS.302         	9.425          	7.364
MS.303         	9.405          	7.505
MS.304         	9.387          	7.104
MS.305         	9.367          	7.168
MS.306         	9.35           	7.372
MS.307         	9.33           	6.993
MS.308         	9.312          	7.118
MS.309         	9.295          	6.778
MS.310         	9.275          	6.921
MS.311         	9.257          	6.985
MS.312         	9.238          	6.965
MS.313         	9.22           	6.735
MS.314         	9.202          	6.345
MS.315         	9.182          	6.496
MS.316         	9.165          	6.596
MS.317         	9.148          	6.427
MS.318         	9.127          	6.347
MS.319         	9.11           	6.167
MS.320         	9.092          	6.262
MS.321         	9.073          	5.956
MS.322         	9.055          	5.793
MS.323         	9.037          	6.155
MS.324         	9.02           	5.827
MS.325         	9              	5.609
MS.326         	8.983          	5.696
MS.327         	8.965          	5.569
MS.328         	8.948          	5.672
MS.329         	8.93           	5.668
MS.330         	8.912          	5.859
MS.331         	8.895          	5.66
MS.332         	8.875          	5.503
MS.333         	8.858          	5.43
MS.334         	8.84           	5.519
MS.335         	8.823          	5.408
MS.336         	8.805          	5.358
MS.337         	8.787          	4.961
MS.338         	8.77           	5.054
MS.339         	8.752          	4.794
MS.340         	8.735          	5.098
MS.341         	8.717          	4.917
MS.342         	8.7            	4.741
MS.343         	8.682          	4.921
MS.344         	8.665          	5.056
MS.345         	8.648          	4.349
MS.346         	8.63           	4.637
MS.347         	8.613          	4.508
MS.348         	8.597          	4.405
MS.349         	8.58           	4.737
MS.350         	8.562          	4.278
MS.351         	8.545          	4.185
MS.352         	8.528          	4.371
MS.353         	8.51           	4.308
MS.354         	8.495          	4.383
MS.355         	8.477          	4.284
MS.356         	8.46           	3.99
MS.357         	8.443          	3.815
MS.358         	8.427          	3.96
MS.359         	8.41           	4.28
MS.360         	8.392          	3.994
MS.361         	8.375          	3.934
MS.362         	8.36           	3.591
MS.363         	8.342          	3.766
MS.364         	8.325          	3.793
MS.365         	8.31           	3.632
MS.366         	8.292          	3.428
MS.367         	8.275          	3.537
MS.368         	8.26           	3.38
MS.369         	8.242          	3.533
MS.370         	8.227          	3.825
MS.371         	8.21           	3.269
MS.372         	8.193          	3.235
MS.373         	8.177          	3.47
MS.374         	8.16           	3.267
MS.375         	8.145          	3.313
MS.376         	8.127          	3.148
MS.377         	8.113          	3.198
MS.378         	8.095          	3.102
MS.379         	8.08           	3.128
MS.380         	8.062          	3.126
MS.381         	8.047          	2.822
MS.382         	8.033          	2.961
MS.383         	8.015          	2.902
MS.384         	8              	2.864
MS.385         	7.982          	2.987
MS.386         	7.967          	2.846
MS.387         	7.952          	2.896
MS.388         	7.935          	2.741
MS.389         	7.92           	2.437
MS.390         	7.905          	2.806
MS.391         	7.887          	2.556
MS.392         	7.872          	2.506
MS.393         	7.857          	2.326
MS.394         	7.84           	2.483
MS.395         	7.825          	2.3
MS.396         	7.81           	2.312
MS.397         	7.795          	2.191
MS.398         	7.777          	1.73
MS.399         	7.762          	2.145
MS.400         	7.747          	2.129
MS.401         	7.732          	1.954
MS.402         	7.717          	1.668
MS.403         	7.7            	1.863
MS.404         	7.685          	1.901
MS.405         	7.67           	1.885
MS.406         	7.655          	1.879
MS.407         	7.64           	1.768
MS.408         	7.625          	1.551
MS.409         	7.61           	1.764
MS.410         	7.595          	1.585
MS.411         	7.58           	1.525
MS.412         	7.562          	1.535
MS.413         	7.547          	1.75
MS.414         	7.532          	1.585
MS.415         	7.517          	1.527
MS.416         	7.503          	1.515
MS.417         	7.487          	1.428
MS.418         	7.472          	1.396
MS.419         	7.457          	1.418
MS.420         	7.442          	1.366
MS.421         	7.427          	1.38
MS.422         	7.415          	1.529
MS.423         	7.4            	1.402
MS.424         	7.385          	1.372
MS.425         	7.37           	1.4
MS.426         	7.355          	1.452
MS.427         	7.34           	1.339
MS.428         	7.325          	1.309
MS.429         	7.31           	1.267
MS.430         	7.295          	1.299
MS.431         	7.282          	1.241
MS.432         	7.267          	1.211
MS.433         	7.253          	1.283
MS.434         	7.237          	1.198
MS.435         	7.222          	1.265
MS.436         	7.21           	1.188
MS.437         	7.195          	1.1
MS.438         	7.18           	1.18
MS.439         	7.165          	1.164
MS.440         	7.152          	1.235
MS.441         	7.137          	1.156
MS.442         	7.122          	1.178
MS.443         	7.11           	1.15
MS.444         	7.095          	1.253
MS.445         	7.08           	1.084
MS.446         	7.067          	1.219
MS.447         	7.052          	1.166
MS.448         	7.037          	1.086
MS.449         	7.025          	1.142
MS.450         	7.01           	1.078
MS.451         	6.995          	1.055
MS.452         	6.983          	0.83
MS.453         	6.967          	0.794
MS.454         	6.955          	0.852
MS.455         	6.94           	1.017
MS.456         	6.927          	0.81
MS.457         	6.912          	1.078
MS.458         	6.9            	0.757
MS.459         	6.885          	1.039
MS.460         	6.872          	1.009
MS.461         	6.858          	0.806
MS.462         	6.845          	0.747
MS.463         	6.83           	0.842
MS.464         	6.817          	0.745
MS.465         	6.802          	0.751
MS.466         	6.79           	0.755
MS.467         	6.775          	0.723
MS.468         	6.762          	0.55
MS.469         	6.747          	0.953
MS.470         	6.735          	0.747
MS.471         	6.722          	0.767
MS.472         	6.707          	0.677
MS.473         	6.695          	0.753
MS.474         	6.682          	0.727
MS.475         	6.668          	0.649
MS.476         	6.655          	0.58
MS.477         	6.642          	0.689
MS.478         	6.628          	0.622
MS.479         	6.615          	0.638
MS.480         	6.602          	0.473
MS.481         	6.587          	0.872
MS.482         	6.575          	0.689
MS.483         	6.562          	0.643
MS.484         	6.55           	0.598
MS.485         	6.535          	0.677
MS.486         	6.523          	0.467
MS.487         	6.51           	0.506
MS.488         	6.497          	0.497
MS.489         	6.485          	0.367
MS.490         	6.47           	0.338
MS.491         	6.457          	0.52
MS.492         	6.445          	0.473
MS.493         	6.432          	0.342
MS.494         	6.42           	0.348
MS.495         	6.407          	0.375
MS.496         	6.395          	0.352
MS.497         	6.38           	0.495
MS.498         	6.367          	0.346
MS.499         	6.355          	0.34
MS.500         	6.342          	0.338
MS.501         	6.33           	0.34
