File:              	C:\Qtrac\Data\Daniel M Sørensen\MScan multicentre study\Data from centres\Bucharest\TDLC00129F.QZD
Name:              	RO.BU.NC.2.1
Protocol:          	MSCAN-R2
Date:              	29/1/20
Start time:        	13:01:32
Age:               	57
Sex:               	M
Temperature:       	36.9
S/R sites:         	TA
NC/disease:        	RONC2.1
Operator:          	TL
Comments:
M-SCAN DATA (10.7-2.3m)
Scanpts: 8, 16, 761, 769
Stim. (mA)     	Amp. (mV)
MS.1           	31             	7.295
MS.2           	31             	7.315
MS.3           	31             	7.307
MS.4           	31             	7.277
MS.5           	31             	7.255
MS.6           	31             	7.237
MS.7           	31             	7.233
MS.8           	31             	7.219
MS.9           	31             	7.249
MS.10          	31             	7.217
MS.11          	31             	7.227
MS.12          	31             	7.211
MS.13          	31             	7.227
MS.14          	31             	7.219
MS.15          	31             	7.227
MS.16          	31             	7.209
MS.17          	31             	7.209
MS.18          	31             	7.195
MS.19          	31             	7.217
MS.20          	31             	7.221
MS.21          	31             	7.213
MS.22          	31             	7.154
MS.23          	31             	7.199
MS.24          	30.875         	7.128
MS.25          	30.815         	7.213
MS.26          	30.752         	7.199
MS.27          	30.692         	7.207
MS.28          	30.63          	7.203
MS.29          	30.57          	7.185
MS.30          	30.507         	7.191
MS.31          	30.448         	7.178
MS.32          	30.385         	7.189
MS.33          	30.325         	7.197
MS.34          	30.265         	7.197
MS.35          	30.205         	7.203
MS.36          	30.145         	7.124
MS.37          	30.082         	7.185
MS.38          	30.022         	7.178
MS.39          	29.962         	7.176
MS.40          	29.903         	7.168
MS.41          	29.845         	7.199
MS.42          	29.785         	7.18
MS.43          	29.725         	7.185
MS.44          	29.665         	7.172
MS.45          	29.605         	7.174
MS.46          	29.547         	7.176
MS.47          	29.487         	7.195
MS.48          	29.43          	7.166
MS.49          	29.37          	7.178
MS.50          	29.312         	7.172
MS.51          	29.252         	7.174
MS.52          	29.195         	7.182
MS.53          	29.137         	7.15
MS.54          	29.077         	7.176
MS.55          	29.02          	7.18
MS.56          	28.962         	7.168
MS.57          	28.905         	7.11
MS.58          	28.847         	7.136
MS.59          	28.787         	7.16
MS.60          	28.73          	7.162
MS.61          	28.675         	7.142
MS.62          	28.618         	7.084
MS.63          	28.56          	7.174
MS.64          	28.502         	7.172
MS.65          	28.445         	7.146
MS.66          	28.387         	7.15
MS.67          	28.332         	7.158
MS.68          	28.275         	7.146
MS.69          	28.217         	7.14
MS.70          	28.162         	7.154
MS.71          	28.105         	7.14
MS.72          	28.05          	7.148
MS.73          	27.995         	7.134
MS.74          	27.938         	7.144
MS.75          	27.882         	7.136
MS.76          	27.827         	7.138
MS.77          	27.77          	7.156
MS.78          	27.715         	7.15
MS.79          	27.66          	7.144
MS.80          	27.605         	7.146
MS.81          	27.55          	7.124
MS.82          	27.495         	7.154
MS.83          	27.44          	7.14
MS.84          	27.385         	7.142
MS.85          	27.33          	7.126
MS.86          	27.275         	7.148
MS.87          	27.22          	7.138
MS.88          	27.167         	7.128
MS.89          	27.112         	7.118
MS.90          	27.057         	7.054
MS.91          	27.005         	7.122
MS.92          	26.95          	7.128
MS.93          	26.895         	7.156
MS.94          	26.842         	7.134
MS.95          	26.79          	7.134
MS.96          	26.735         	7.144
MS.97          	26.682         	7.13
MS.98          	26.627         	7.13
MS.99          	26.575         	7.058
MS.100         	26.522         	7.126
MS.101         	26.47          	7.132
MS.102         	26.417         	7.138
MS.103         	26.362         	7.132
MS.104         	26.31          	7.132
MS.105         	26.257         	7.124
MS.106         	26.205         	7.128
MS.107         	26.153         	7.13
MS.108         	26.1           	7.132
MS.109         	26.05          	7.12
MS.110         	25.997         	7.132
MS.111         	25.945         	7.138
MS.112         	25.892         	7.132
MS.113         	25.842         	7.144
MS.114         	25.79          	7.12
MS.115         	25.737         	7.116
MS.116         	25.688         	7.118
MS.117         	25.635         	7.118
MS.118         	25.585         	7.114
MS.119         	25.532         	7.116
MS.120         	25.483         	7.116
MS.121         	25.432         	7.122
MS.122         	25.38          	7.132
MS.123         	25.33          	7.12
MS.124         	25.28          	7.102
MS.125         	25.227         	7.106
MS.126         	25.177         	7.116
MS.127         	25.127         	7.108
MS.128         	25.077         	7.102
MS.129         	25.028         	7.11
MS.130         	24.977         	7.104
MS.131         	24.927         	7.096
MS.132         	24.877         	7.11
MS.133         	24.827         	7.09
MS.134         	24.778         	7.078
MS.135         	24.73          	7.096
MS.136         	24.68          	7.094
MS.137         	24.63          	7.088
MS.138         	24.58          	7.08
MS.139         	24.532         	7.086
MS.140         	24.483         	7.092
MS.141         	24.435         	7.08
MS.142         	24.385         	7.076
MS.143         	24.337         	7.001
MS.144         	24.288         	7.068
MS.145         	24.24          	7.07
MS.146         	24.19          	7.068
MS.147         	24.142         	7.092
MS.148         	24.095         	7.09
MS.149         	24.047         	7.066
MS.150         	23.997         	7.05
MS.151         	23.95          	7.054
MS.152         	23.903         	7.039
MS.153         	23.855         	7.074
MS.154         	23.807         	7.06
MS.155         	23.76          	7.046
MS.156         	23.712         	7.031
MS.157         	23.665         	7.042
MS.158         	23.618         	7.062
MS.159         	23.57          	7.048
MS.160         	23.522         	7.05
MS.161         	23.475         	6.971
MS.162         	23.43          	7.042
MS.163         	23.382         	7.039
MS.164         	23.335         	7.058
MS.165         	23.29          	7.044
MS.166         	23.243         	7.029
MS.167         	23.195         	7.046
MS.168         	23.15          	7.025
MS.169         	23.102         	7.027
MS.170         	23.057         	7.031
MS.171         	23.01          	7.029
MS.172         	22.965         	7.017
MS.173         	22.92          	7.039
MS.174         	22.872         	7.009
MS.175         	22.827         	7.039
MS.176         	22.782         	7.003
MS.177         	22.737         	6.961
MS.178         	22.692         	6.987
MS.179         	22.645         	7.046
MS.180         	22.6           	6.999
MS.181         	22.555         	6.995
MS.182         	22.51          	7.021
MS.183         	22.465         	6.995
MS.184         	22.42          	7.007
MS.185         	22.375         	7.007
MS.186         	22.33          	7.003
MS.187         	22.288         	6.995
MS.188         	22.243         	6.989
MS.189         	22.198         	6.979
MS.190         	22.153         	6.987
MS.191         	22.11          	6.981
MS.192         	22.065         	6.985
MS.193         	22.02          	6.977
MS.194         	21.977         	6.983
MS.195         	21.932         	6.975
MS.196         	21.89          	6.981
MS.197         	21.845         	6.959
MS.198         	21.802         	6.951
MS.199         	21.757         	6.915
MS.200         	21.715         	6.979
MS.201         	21.67          	6.931
MS.202         	21.627         	6.925
MS.203         	21.585         	6.927
MS.204         	21.542         	6.951
MS.205         	21.497         	6.925
MS.206         	21.455         	6.931
MS.207         	21.413         	6.909
MS.208         	21.37          	6.913
MS.209         	21.327         	6.915
MS.210         	21.285         	6.911
MS.211         	21.243         	6.919
MS.212         	21.2           	6.89
MS.213         	21.157         	6.898
MS.214         	21.115         	6.898
MS.215         	21.073         	6.919
MS.216         	21.03          	6.921
MS.217         	20.987         	6.898
MS.218         	20.948         	6.886
MS.219         	20.905         	6.886
MS.220         	20.862         	6.896
MS.221         	20.823         	6.884
MS.222         	20.78          	6.896
MS.223         	20.737         	6.878
MS.224         	20.698         	6.87
MS.225         	20.655         	6.888
MS.226         	20.615         	6.868
MS.227         	20.573         	6.876
MS.228         	20.532         	6.872
MS.229         	20.49          	6.862
MS.230         	20.45          	6.868
MS.231         	20.41          	6.868
MS.232         	20.368         	6.862
MS.233         	20.327         	6.866
MS.234         	20.288         	6.858
MS.235         	20.247         	6.876
MS.236         	20.205         	6.856
MS.237         	20.165         	6.84
MS.238         	20.125         	6.834
MS.239         	20.085         	6.854
MS.240         	20.045         	6.832
MS.241         	20.005         	6.834
MS.242         	19.965         	6.828
MS.243         	19.925         	6.832
MS.244         	19.885         	6.834
MS.245         	19.845         	6.85
MS.246         	19.805         	6.832
MS.247         	19.767         	6.848
MS.248         	19.727         	6.804
MS.249         	19.688         	6.81
MS.250         	19.647         	6.828
MS.251         	19.61          	6.808
MS.252         	19.57          	6.808
MS.253         	19.53          	6.824
MS.254         	19.493         	6.82
MS.255         	19.452         	6.808
MS.256         	19.415         	6.806
MS.257         	19.375         	6.8
MS.258         	19.337         	6.802
MS.259         	19.297         	6.766
MS.260         	19.26          	6.804
MS.261         	19.22          	6.79
MS.262         	19.182         	6.778
MS.263         	19.145         	6.749
MS.264         	19.105         	6.804
MS.265         	19.067         	6.741
MS.266         	19.03          	6.731
MS.267         	18.993         	6.776
MS.268         	18.952         	6.739
MS.269         	18.915         	6.743
MS.270         	18.877         	6.774
MS.271         	18.84          	6.731
MS.272         	18.802         	6.715
MS.273         	18.765         	6.762
MS.274         	18.727         	6.703
MS.275         	18.69          	6.725
MS.276         	18.653         	6.713
MS.277         	18.615         	6.715
MS.278         	18.577         	6.699
MS.279         	18.54          	6.707
MS.280         	18.505         	6.701
MS.281         	18.467         	6.689
MS.282         	18.43          	6.711
MS.283         	18.392         	6.679
MS.284         	18.358         	6.687
MS.285         	18.32          	6.701
MS.286         	18.282         	6.679
MS.287         	18.247         	6.679
MS.288         	18.21          	6.679
MS.289         	18.175         	6.669
MS.290         	18.137         	6.683
MS.291         	18.102         	6.663
MS.292         	18.065         	6.679
MS.293         	18.03          	6.651
MS.294         	17.993         	6.673
MS.295         	17.958         	6.645
MS.296         	17.92          	6.687
MS.297         	17.885         	6.655
MS.298         	17.85          	6.623
MS.299         	17.815         	6.61
MS.300         	17.778         	6.635
MS.301         	17.743         	6.621
MS.302         	17.708         	6.615
MS.303         	17.672         	6.6
MS.304         	17.637         	6.608
MS.305         	17.602         	6.596
MS.306         	17.567         	6.645
MS.307         	17.53          	6.58
MS.308         	17.495         	6.592
MS.309         	17.46          	6.6
MS.310         	17.427         	6.59
MS.311         	17.392         	6.592
MS.312         	17.358         	6.582
MS.313         	17.323         	6.582
MS.314         	17.288         	6.54
MS.315         	17.253         	6.586
MS.316         	17.217         	6.538
MS.317         	17.185         	6.508
MS.318         	17.15          	6.588
MS.319         	17.115         	6.508
MS.320         	17.083         	6.524
MS.321         	17.047         	6.496
MS.322         	17.012         	6.514
MS.323         	16.98          	6.492
MS.324         	16.945         	6.469
MS.325         	16.913         	6.453
MS.326         	16.878         	6.451
MS.327         	16.845         	6.439
MS.328         	16.81          	6.427
MS.329         	16.778         	6.453
MS.330         	16.743         	6.403
MS.331         	16.71          	6.459
MS.332         	16.675         	6.373
MS.333         	16.642         	6.425
MS.334         	16.61          	6.395
MS.335         	16.577         	6.331
MS.336         	16.542         	6.381
MS.337         	16.51          	6.351
MS.338         	16.477         	6.367
MS.339         	16.445         	6.326
MS.340         	16.413         	6.337
MS.341         	16.378         	6.282
MS.342         	16.345         	6.296
MS.343         	16.312         	6.3
MS.344         	16.28          	6.276
MS.345         	16.247         	6.32
MS.346         	16.215         	6.202
MS.347         	16.182         	6.25
MS.348         	16.15          	6.234
MS.349         	16.118         	6.226
MS.350         	16.087         	6.175
MS.351         	16.055         	6.204
MS.352         	16.022         	6.083
MS.353         	15.99          	6.089
MS.354         	15.957         	6.153
MS.355         	15.927         	6.093
MS.356         	15.895         	6.143
MS.357         	15.862         	6.143
MS.358         	15.83          	6.03
MS.359         	15.8           	6.059
MS.360         	15.767         	5.958
MS.361         	15.737         	5.97
MS.362         	15.705         	5.972
MS.363         	15.672         	5.922
MS.364         	15.642         	5.946
MS.365         	15.61          	6.055
MS.366         	15.58          	5.914
MS.367         	15.55          	5.895
MS.368         	15.517         	5.901
MS.369         	15.487         	5.869
MS.370         	15.455         	5.922
MS.371         	15.425         	5.893
MS.372         	15.395         	5.851
MS.373         	15.362         	5.815
MS.374         	15.332         	5.829
MS.375         	15.302         	5.855
MS.376         	15.273         	5.791
MS.377         	15.24          	5.855
MS.378         	15.21          	5.801
MS.379         	15.18          	5.803
MS.380         	15.15          	5.756
MS.381         	15.12          	5.758
MS.382         	15.09          	5.728
MS.383         	15.06          	5.704
MS.384         	15.03          	5.702
MS.385         	15             	5.674
MS.386         	14.97          	5.734
MS.387         	14.94          	5.668
MS.388         	14.91          	5.652
MS.389         	14.88          	5.634
MS.390         	14.85          	5.615
MS.391         	14.82          	5.632
MS.392         	14.79          	5.615
MS.393         	14.76          	5.597
MS.394         	14.733         	5.601
MS.395         	14.702         	5.553
MS.396         	14.672         	5.527
MS.397         	14.642         	5.513
MS.398         	14.615         	5.446
MS.399         	14.585         	5.493
MS.400         	14.555         	5.503
MS.401         	14.527         	5.412
MS.402         	14.497         	5.402
MS.403         	14.467         	5.37
MS.404         	14.44          	5.404
MS.405         	14.41          	5.424
MS.406         	14.382         	5.454
MS.407         	14.352         	5.374
MS.408         	14.325         	5.348
MS.409         	14.295         	5.307
MS.410         	14.267         	5.315
MS.411         	14.24          	5.372
MS.412         	14.21          	5.241
MS.413         	14.182         	5.277
MS.414         	14.155         	5.295
MS.415         	14.125         	5.207
MS.416         	14.097         	5.237
MS.417         	14.07          	5.15
MS.418         	14.04          	5.182
MS.419         	14.012         	5.09
MS.420         	13.985         	5.08
MS.421         	13.957         	5.136
MS.422         	13.93          	5.1
MS.423         	13.903         	5.098
MS.424         	13.872         	5.025
MS.425         	13.845         	5.013
MS.426         	13.818         	4.915
MS.427         	13.79          	4.832
MS.428         	13.762         	4.86
MS.429         	13.735         	4.778
MS.430         	13.707         	4.81
MS.431         	13.68          	4.826
MS.432         	13.653         	4.721
MS.433         	13.625         	4.671
MS.434         	13.6           	4.719
MS.435         	13.572         	4.725
MS.436         	13.545         	4.679
MS.437         	13.517         	4.651
MS.438         	13.49          	4.669
MS.439         	13.462         	4.598
MS.440         	13.438         	4.516
MS.441         	13.41          	4.5
MS.442         	13.382         	4.562
MS.443         	13.355         	4.52
MS.444         	13.33          	4.524
MS.445         	13.302         	4.445
MS.446         	13.278         	4.473
MS.447         	13.25          	4.465
MS.448         	13.222         	4.381
MS.449         	13.197         	4.421
MS.450         	13.17          	4.252
MS.451         	13.145         	4.379
MS.452         	13.117         	4.349
MS.453         	13.092         	4.222
MS.454         	13.065         	4.226
MS.455         	13.04          	4.212
MS.456         	13.012         	4.173
MS.457         	12.987         	4.161
MS.458         	12.962         	4.185
MS.459         	12.935         	4.131
MS.460         	12.91          	4.071
MS.461         	12.885         	4.143
MS.462         	12.858         	4.087
MS.463         	12.832         	4.006
MS.464         	12.807         	3.96
MS.465         	12.782         	3.964
MS.466         	12.755         	3.984
MS.467         	12.73          	3.942
MS.468         	12.705         	3.883
MS.469         	12.68          	3.873
MS.470         	12.655         	3.819
MS.471         	12.63          	3.853
MS.472         	12.602         	3.807
MS.473         	12.577         	3.758
MS.474         	12.552         	3.74
MS.475         	12.528         	3.686
MS.476         	12.502         	3.646
MS.477         	12.477         	3.706
MS.478         	12.452         	3.609
MS.479         	12.427         	3.595
MS.480         	12.403         	3.527
MS.481         	12.38          	3.551
MS.482         	12.355         	3.553
MS.483         	12.33          	3.495
MS.484         	12.305         	3.414
MS.485         	12.28          	3.36
MS.486         	12.255         	3.386
MS.487         	12.23          	3.416
MS.488         	12.207         	3.452
MS.489         	12.182         	3.406
MS.490         	12.157         	3.307
MS.491         	12.132         	3.215
MS.492         	12.11          	3.309
MS.493         	12.085         	3.203
MS.494         	12.06          	3.309
MS.495         	12.037         	3.182
MS.496         	12.012         	3.201
MS.497         	11.99          	3.078
MS.498         	11.965         	3.132
MS.499         	11.94          	3.172
MS.500         	11.917         	3.18
MS.501         	11.892         	3.098
MS.502         	11.87          	3.057
