File:              	C:\Qtrac\Data\Daniel M Sørensen\MScan multicentre study\Data from centres\Bucharest\Processed data\TDLC00910B.QZD
Name:              	RO.BU.NC.5.2
Protocol:          	MSCAN-R2
Date:              	10/9/20
Start time:        	16:13:38
Age:               	53
Sex:               	F
Temperature:       	36.1
S/R sites:         	ADM
NC/disease:        	NC
Operator:          	TL
Comments:          	RONC.5.2.
M-SCAN DATA (6.9-1.9m)
Scanpts: 70, 77, 508, 518
Stim. (mA)     	Amp. (mV)
MS.1           	15             	7.146
MS.2           	15             	7.158
MS.3           	15             	7.154
MS.4           	15             	7.152
MS.5           	15             	7.156
MS.6           	15             	7.162
MS.7           	15             	7.172
MS.8           	15             	7.17
MS.9           	15             	7.158
MS.10          	15             	7.156
MS.11          	15             	7.166
MS.12          	15             	7.168
MS.13          	15             	7.144
MS.14          	15             	7.128
MS.15          	15             	7.16
MS.16          	15             	7.152
MS.17          	15             	7.128
MS.18          	15             	7.128
MS.19          	15             	7.146
MS.20          	15             	7.126
MS.21          	15             	7.185
MS.22          	15             	7.14
MS.23          	15             	7.11
MS.24          	14.94          	7.152
MS.25          	14.91          	7.14
MS.26          	14.88          	7.144
MS.27          	14.85          	7.144
MS.28          	14.82          	7.134
MS.29          	14.792         	7.124
MS.30          	14.762         	7.12
MS.31          	14.733         	7.148
MS.32          	14.702         	7.164
MS.33          	14.672         	7.176
MS.34          	14.645         	7.182
MS.35          	14.615         	7.193
MS.36          	14.585         	7.172
MS.37          	14.557         	7.182
MS.38          	14.527         	7.189
MS.39          	14.497         	7.18
MS.40          	14.47          	7.193
MS.41          	14.44          	7.156
MS.42          	14.412         	7.172
MS.43          	14.382         	7.174
MS.44          	14.355         	7.185
MS.45          	14.325         	7.193
MS.46          	14.297         	7.185
MS.47          	14.267         	7.178
MS.48          	14.24          	7.176
MS.49          	14.212         	7.176
MS.50          	14.182         	7.193
MS.51          	14.155         	7.203
MS.52          	14.127         	7.193
MS.53          	14.097         	7.195
MS.54          	14.07          	7.215
MS.55          	14.042         	7.205
MS.56          	14.015         	7.203
MS.57          	13.985         	7.189
MS.58          	13.957         	7.201
MS.59          	13.93          	7.209
MS.60          	13.903         	7.225
MS.61          	13.875         	7.223
MS.62          	13.847         	7.227
MS.63          	13.82          	7.251
MS.64          	13.792         	7.237
MS.65          	13.765         	7.215
MS.66          	13.737         	7.239
MS.67          	13.71          	7.231
MS.68          	13.682         	7.249
MS.69          	13.655         	7.263
MS.70          	13.627         	7.265
MS.71          	13.6           	7.255
MS.72          	13.572         	7.265
MS.73          	13.545         	7.235
MS.74          	13.517         	7.213
MS.75          	13.492         	7.253
MS.76          	13.465         	7.243
MS.77          	13.438         	7.255
MS.78          	13.41          	7.263
MS.79          	13.385         	7.235
MS.80          	13.358         	7.251
MS.81          	13.33          	7.257
MS.82          	13.305         	7.241
MS.83          	13.278         	7.213
MS.84          	13.25          	7.231
MS.85          	13.225         	7.251
MS.86          	13.197         	7.225
MS.87          	13.172         	7.251
MS.88          	13.145         	7.241
MS.89          	13.12          	7.229
MS.90          	13.092         	7.229
MS.91          	13.068         	7.221
MS.92          	13.04          	7.189
MS.93          	13.015         	7.229
MS.94          	12.987         	7.225
MS.95          	12.962         	7.231
MS.96          	12.938         	7.231
MS.97          	12.91          	7.221
MS.98          	12.885         	7.233
MS.99          	12.86          	7.229
MS.100         	12.832         	7.259
MS.101         	12.807         	7.191
MS.102         	12.782         	7.241
MS.103         	12.757         	7.221
MS.104         	12.73          	7.253
MS.105         	12.705         	7.217
MS.106         	12.68          	7.189
MS.107         	12.655         	7.193
MS.108         	12.63          	7.207
MS.109         	12.605         	7.239
MS.110         	12.58          	7.16
MS.111         	12.555         	7.17
MS.112         	12.53          	7.166
MS.113         	12.505         	7.176
MS.114         	12.48          	7.156
MS.115         	12.455         	7.166
MS.116         	12.43          	7.122
MS.117         	12.405         	7.116
MS.118         	12.38          	7.098
MS.119         	12.355         	7.023
MS.120         	12.33          	7.023
MS.121         	12.305         	6.913
MS.122         	12.28          	6.971
MS.123         	12.257         	6.963
MS.124         	12.233         	6.872
MS.125         	12.207         	6.963
MS.126         	12.182         	6.913
MS.127         	12.157         	6.907
MS.128         	12.135         	6.965
MS.129         	12.11          	6.884
MS.130         	12.085         	6.925
MS.131         	12.062         	6.842
MS.132         	12.037         	6.824
MS.133         	12.012         	6.88
MS.134         	11.99          	6.766
MS.135         	11.965         	6.876
MS.136         	11.943         	6.882
MS.137         	11.917         	6.836
MS.138         	11.895         	6.61
MS.139         	11.87          	6.629
MS.140         	11.847         	6.832
MS.141         	11.822         	6.76
MS.142         	11.8           	6.653
MS.143         	11.775         	6.739
MS.144         	11.752         	6.826
MS.145         	11.73          	6.608
MS.146         	11.705         	6.782
MS.147         	11.682         	6.615
MS.148         	11.657         	6.655
MS.149         	11.635         	6.723
MS.150         	11.613         	6.598
MS.151         	11.59          	6.743
MS.152         	11.565         	6.504
MS.153         	11.542         	6.53
MS.154         	11.52          	6.474
MS.155         	11.497         	6.576
MS.156         	11.472         	6.435
MS.157         	11.45          	6.278
MS.158         	11.427         	6.322
MS.159         	11.405         	6.314
MS.160         	11.382         	6.151
MS.161         	11.36          	6.26
MS.162         	11.337         	5.978
MS.163         	11.315         	6.125
MS.164         	11.292         	6.093
MS.165         	11.27          	6.02
MS.166         	11.247         	5.958
MS.167         	11.225         	6.081
MS.168         	11.202         	6
MS.169         	11.18          	6.044
MS.170         	11.157         	6.008
MS.171         	11.135         	5.936
MS.172         	11.113         	6.093
MS.173         	11.09          	6.149
MS.174         	11.068         	6.24
MS.175         	11.045         	6.053
MS.176         	11.023         	6.292
MS.177         	11.002         	6.091
MS.178         	10.98          	6.113
MS.179         	10.957         	6.093
MS.180         	10.935         	5.881
MS.181         	10.915         	5.966
MS.182         	10.892         	5.914
MS.183         	10.87          	5.954
MS.184         	10.847         	5.803
MS.185         	10.827         	5.754
MS.186         	10.805         	5.555
MS.187         	10.785         	5.837
MS.188         	10.762         	5.525
MS.189         	10.74          	5.692
MS.190         	10.72          	5.845
MS.191         	10.698         	5.579
MS.192         	10.677         	5.684
MS.193         	10.655         	5.833
MS.194         	10.635         	5.499
MS.195         	10.613         	5.865
MS.196         	10.592         	5.72
MS.197         	10.57          	5.454
MS.198         	10.55          	5.7
MS.199         	10.528         	5.499
MS.200         	10.507         	5.454
MS.201         	10.485         	5.577
MS.202         	10.465         	5.515
MS.203         	10.445         	5.479
MS.204         	10.422         	5.402
MS.205         	10.403         	5.493
MS.206         	10.382         	5.333
MS.207         	10.36          	5.257
MS.208         	10.34          	5.217
MS.209         	10.32          	5.195
MS.210         	10.3           	5.12
MS.211         	10.278         	5.017
MS.212         	10.257         	5.211
MS.213         	10.238         	4.941
MS.214         	10.217         	5.156
MS.215         	10.198         	4.947
MS.216         	10.175         	4.981
MS.217         	10.155         	5.049
MS.218         	10.135         	4.768
MS.219         	10.115         	4.824
MS.220         	10.095         	4.917
MS.221         	10.075         	4.844
MS.222         	10.055         	4.788
MS.223         	10.035         	4.997
MS.224         	10.015         	4.651
MS.225         	9.995          	4.625
MS.226         	9.975          	4.558
MS.227         	9.955          	4.524
MS.228         	9.935          	4.735
MS.229         	9.915          	4.385
MS.230         	9.895          	4.326
MS.231         	9.875          	4.554
MS.232         	9.855          	4.29
MS.233         	9.835          	4.332
MS.234         	9.818          	4.453
MS.235         	9.797          	4.31
MS.236         	9.778          	4.208
MS.237         	9.757          	4.522
MS.238         	9.738          	4.222
MS.239         	9.717          	4.014
MS.240         	9.7            	4.212
MS.241         	9.68           	3.974
MS.242         	9.66           	3.98
MS.243         	9.64           	3.853
MS.244         	9.622          	3.825
MS.245         	9.602          	3.916
MS.246         	9.582          	3.875
MS.247         	9.565          	3.555
MS.248         	9.545          	3.803
MS.249         	9.525          	3.489
MS.250         	9.507          	3.539
MS.251         	9.488          	3.581
MS.252         	9.47           	3.585
MS.253         	9.45           	3.46
MS.254         	9.432          	3.426
MS.255         	9.412          	3.515
MS.256         	9.395          	3.231
MS.257         	9.375          	3.309
MS.258         	9.358          	3.456
MS.259         	9.337          	3.501
MS.260         	9.32           	3.533
MS.261         	9.3            	3.529
MS.262         	9.283          	3.368
MS.263         	9.262          	3.418
MS.264         	9.245          	3.255
MS.265         	9.225          	3.46
MS.266         	9.207          	3.287
MS.267         	9.19           	3.416
MS.268         	9.17           	3.164
MS.269         	9.153          	3.134
MS.270         	9.135          	3.333
MS.271         	9.115          	3.255
MS.272         	9.097          	3.092
MS.273         	9.08           	3.162
MS.274         	9.062          	3.168
MS.275         	9.042          	3.279
MS.276         	9.025          	3.12
MS.277         	9.007          	3.106
MS.278         	8.99           	2.866
MS.279         	8.972          	2.882
MS.280         	8.952          	3.047
MS.281         	8.935          	2.83
MS.282         	8.917          	2.834
MS.283         	8.9            	2.854
MS.284         	8.882          	3.027
MS.285         	8.865          	2.886
MS.286         	8.847          	2.832
MS.287         	8.83           	2.824
MS.288         	8.812          	2.78
MS.289         	8.795          	2.792
MS.290         	8.775          	2.59
MS.291         	8.757          	2.6
MS.292         	8.74           	2.667
MS.293         	8.722          	2.498
MS.294         	8.707          	2.635
MS.295         	8.69           	2.367
MS.296         	8.672          	2.518
MS.297         	8.655          	2.481
MS.298         	8.637          	2.381
MS.299         	8.62           	2.324
MS.300         	8.602          	2.425
MS.301         	8.585          	2.161
MS.302         	8.568          	2.244
MS.303         	8.55           	2.3
MS.304         	8.535          	2.119
MS.305         	8.517          	2.175
MS.306         	8.5            	2.274
MS.307         	8.483          	1.944
MS.308         	8.465          	2.206
MS.309         	8.45           	1.928
MS.310         	8.432          	2.02
MS.311         	8.415          	2.179
MS.312         	8.398          	1.897
MS.313         	8.382          	1.96
MS.314         	8.365          	1.827
MS.315         	8.347          	1.748
MS.316         	8.332          	2.06
MS.317         	8.315          	1.756
MS.318         	8.297          	1.734
MS.319         	8.283          	1.813
MS.320         	8.265          	1.686
MS.321         	8.247          	1.823
MS.322         	8.233          	1.779
MS.323         	8.215          	1.644
MS.324         	8.2            	1.702
MS.325         	8.182          	1.658
MS.326         	8.167          	1.64
MS.327         	8.15           	1.615
MS.328         	8.135          	1.613
MS.329         	8.117          	1.555
MS.330         	8.102          	1.503
MS.331         	8.085          	1.456
MS.332         	8.07           	1.44
MS.333         	8.052          	1.358
MS.334         	8.037          	1.148
MS.335         	8.02           	1.082
MS.336         	8.005          	1.17
MS.337         	7.99           	1.045
MS.338         	7.972          	0.991
MS.339         	7.957          	0.983
MS.340         	7.94           	1.184
MS.341         	7.925          	1.039
MS.342         	7.91           	1.005
MS.343         	7.892          	1.035
MS.344         	7.878          	0.989
MS.345         	7.862          	0.975
MS.346         	7.847          	0.832
MS.347         	7.83           	1.005
MS.348         	7.815          	0.989
MS.349         	7.8            	0.902
MS.350         	7.785          	0.957
MS.351         	7.767          	0.904
MS.352         	7.753          	0.844
MS.353         	7.737          	0.86
MS.354         	7.722          	0.82
MS.355         	7.707          	0.914
MS.356         	7.69           	0.794
MS.357         	7.675          	0.959
MS.358         	7.66           	0.86
MS.359         	7.645          	0.784
MS.360         	7.63           	0.834
MS.361         	7.615          	0.822
MS.362         	7.6            	0.79
MS.363         	7.585          	0.842
MS.364         	7.57           	0.775
MS.365         	7.555          	0.802
MS.366         	7.537          	0.771
MS.367         	7.523          	0.737
MS.368         	7.507          	0.773
MS.369         	7.492          	0.651
MS.370         	7.477          	0.802
MS.371         	7.462          	0.759
MS.372         	7.447          	0.781
MS.373         	7.435          	0.755
MS.374         	7.42           	0.739
MS.375         	7.405          	0.602
MS.376         	7.39           	0.655
MS.377         	7.375          	0.705
MS.378         	7.36           	0.598
MS.379         	7.345          	0.683
MS.380         	7.33           	0.612
MS.381         	7.315          	0.542
MS.382         	7.302          	0.612
MS.383         	7.287          	0.673
MS.384         	7.273          	0.53
MS.385         	7.257          	0.512
MS.386         	7.242          	0.643
MS.387         	7.227          	0.598
MS.388         	7.215          	0.536
MS.389         	7.2            	0.55
MS.390         	7.185          	0.5
MS.391         	7.17           	0.461
MS.392         	7.157          	0.641
MS.393         	7.142          	0.481
MS.394         	7.128          	0.443
MS.395         	7.115          	0.449
MS.396         	7.1            	0.453
MS.397         	7.085          	0.514
MS.398         	7.072          	0.461
MS.399         	7.057          	0.489
MS.400         	7.043          	0.453
MS.401         	7.03           	0.508
MS.402         	7.015          	0.465
MS.403         	7              	0.431
MS.404         	6.987          	0.477
MS.405         	6.972          	0.387
MS.406         	6.96           	0.441
MS.407         	6.945          	0.447
MS.408         	6.932          	0.453
MS.409         	6.918          	0.443
MS.410         	6.902          	0.338
MS.411         	6.89           	0.371
MS.412         	6.875          	0.332
MS.413         	6.862          	0.395
MS.414         	6.847          	0.357
MS.415         	6.835          	0.34
MS.416         	6.822          	0.3
MS.417         	6.807          	0.387
MS.418         	6.795          	0.322
MS.419         	6.78           	0.342
MS.420         	6.767          	0.324
MS.421         	6.753          	0.344
MS.422         	6.74           	0.346
MS.423         	6.727          	0.322
MS.424         	6.712          	0.292
MS.425         	6.7            	0.375
MS.426         	6.685          	0.419
MS.427         	6.672          	0.246
MS.428         	6.66           	0.294
MS.429         	6.645          	0.363
MS.430         	6.632          	0.31
MS.431         	6.62           	0.294
MS.432         	6.608          	0.272
MS.433         	6.592          	0.266
MS.434         	6.58           	0.244
MS.435         	6.567          	0.26
MS.436         	6.555          	0.165
MS.437         	6.54           	0.224
MS.438         	6.527          	0.22
MS.439         	6.515          	0.232
MS.440         	6.503          	0.258
MS.441         	6.487          	0.209
MS.442         	6.475          	0.246
MS.443         	6.462          	0.177
MS.444         	6.45           	0.258
MS.445         	6.438          	0.177
MS.446         	6.425          	0.183
MS.447         	6.41           	0.097
MS.448         	6.398          	0.193
MS.449         	6.385          	0.175
MS.450         	6.372          	0.145
MS.451         	6.36           	0.127
MS.452         	6.347          	0.121
MS.453         	6.335          	0.133
MS.454         	6.322          	0.151
MS.455         	6.31           	0.113
MS.456         	6.297          	0.111
MS.457         	6.285          	0.141
MS.458         	6.273          	0.107
MS.459         	6.26           	0.087
MS.460         	6.247          	0.083
MS.461         	6.235          	0.064
MS.462         	6.222          	0.099
MS.463         	6.21           	0.087
MS.464         	6.197          	0.054
MS.465         	6.185          	0.075
MS.466         	6.172          	0.058
MS.467         	6.16           	0.058
MS.468         	6.148          	0.048
MS.469         	6.135          	0.101
MS.470         	6.122          	0.077
MS.471         	6.11           	0.054
MS.472         	6.097          	0.081
MS.473         	6.088          	0.066
MS.474         	6.075          	0.058
MS.475         	6.062          	0.087
MS.476         	6.05           	0.064
MS.477         	6.037          	0.075
MS.478         	6.025          	0.056
MS.479         	6.012          	0.05
MS.480         	6.003          	0.042
MS.481         	5.99           	0.07
MS.482         	5.977          	0.07
MS.483         	5.965          	0.075
MS.484         	5.955          	0.052
MS.485         	5.942          	0.056
MS.486         	5.93           	0.054
MS.487         	5.918          	0.052
MS.488         	5.907          	0.066
MS.489         	5.895          	0.04
MS.490         	5.882          	0.056
MS.491         	5.87           	0.03
MS.492         	5.86           	0.044
MS.493         	5.847          	0.062
MS.494         	5.835          	0.052
MS.495         	5.825          	0.081
MS.496         	5.812          	0.026
MS.497         	5.8            	0.058
MS.498         	5.79           	0.048
MS.499         	5.777          	0.034
MS.500         	5.767          	0.062
MS.501         	5.755          	0.079
