File:              	C:\Qtrac\Data\Daniel M Sørensen\MScan multicentre study\Data from centres\Bucharest\Processed data\TDLC01229C.QZD
Name:              	RO.BU.NC.8.1
Protocol:          	MSCAN-R2
Date:              	29/12/20
Start time:        	13:22:36
Age:               	36
Sex:               	F
Temperature:       	36.2
S/R sites:         	ADM
NC/disease:        	NC8
Operator:          	TL
Comments:          	RO.NC.8.1.
M-SCAN DATA (8.7-0.9m)
Scanpts: 347, 361, 800, 822
Stim. (mA)     	Amp. (mV)
MS.1           	23.5           	10.081
MS.2           	23.5           	10.095
MS.3           	23.5           	10.083
MS.4           	23.5           	10.083
MS.5           	23.5           	10.075
MS.6           	23.5           	10.123
MS.7           	23.5           	10.127
MS.8           	23.5           	10.065
MS.9           	23.5           	10.051
MS.10          	23.5           	9.994
MS.11          	23.5           	9.92
MS.12          	23.5           	9.936
MS.13          	23.5           	9.918
MS.14          	23.5           	9.93
MS.15          	23.5           	9.857
MS.16          	23.5           	9.857
MS.17          	23.5           	9.861
MS.18          	23.5           	9.841
MS.19          	23.5           	9.845
MS.20          	23.5           	9.837
MS.21          	23.5           	9.871
MS.22          	23.5           	9.859
MS.23          	23.5           	9.883
MS.24          	23.405         	9.837
MS.25          	23.36          	9.896
MS.26          	23.312         	9.861
MS.27          	23.265         	9.865
MS.28          	23.22          	9.888
MS.29          	23.172         	9.879
MS.30          	23.127         	9.885
MS.31          	23.08          	9.873
MS.32          	23.035         	9.849
MS.33          	22.987         	9.881
MS.34          	22.942         	9.968
MS.35          	22.897         	9.92
MS.36          	22.85          	9.853
MS.37          	22.805         	9.894
MS.38          	22.76          	9.928
MS.39          	22.715         	9.938
MS.40          	22.67          	9.958
MS.41          	22.622         	9.9
MS.42          	22.577         	9.877
MS.43          	22.532         	9.9
MS.44          	22.487         	9.894
MS.45          	22.442         	9.908
MS.46          	22.397         	9.879
MS.47          	22.355         	9.896
MS.48          	22.31          	9.92
MS.49          	22.265         	9.906
MS.50          	22.22          	9.908
MS.51          	22.175         	9.918
MS.52          	22.132         	9.91
MS.53          	22.087         	9.924
MS.54          	22.042         	9.91
MS.55          	22             	9.926
MS.56          	21.955         	9.946
MS.57          	21.91          	9.946
MS.58          	21.868         	9.95
MS.59          	21.823         	9.936
MS.60          	21.78          	9.924
MS.61          	21.737         	9.914
MS.62          	21.692         	9.938
MS.63          	21.65          	9.952
MS.64          	21.608         	9.93
MS.65          	21.562         	9.936
MS.66          	21.52          	9.924
MS.67          	21.477         	9.962
MS.68          	21.435         	9.912
MS.69          	21.392         	9.952
MS.70          	21.35          	9.966
MS.71          	21.305         	9.944
MS.72          	21.262         	9.952
MS.73          	21.22          	9.93
MS.74          	21.177         	9.958
MS.75          	21.137         	9.948
MS.76          	21.095         	9.938
MS.77          	21.052         	9.932
MS.78          	21.01          	9.982
MS.79          	20.967         	9.958
MS.80          	20.925         	9.952
MS.81          	20.885         	9.95
MS.82          	20.842         	9.95
MS.83          	20.8           	9.966
MS.84          	20.76          	9.942
MS.85          	20.717         	9.932
MS.86          	20.677         	9.96
MS.87          	20.635         	9.954
MS.88          	20.595         	9.972
MS.89          	20.552         	9.946
MS.90          	20.512         	9.966
MS.91          	20.47          	9.938
MS.92          	20.43          	9.984
MS.93          	20.39          	9.952
MS.94          	20.347         	9.94
MS.95          	20.307         	9.948
MS.96          	20.267         	9.958
MS.97          	20.227         	9.94
MS.98          	20.185         	9.926
MS.99          	20.145         	9.932
MS.100         	20.105         	9.976
MS.101         	20.065         	9.954
MS.102         	20.025         	9.954
MS.103         	19.985         	9.966
MS.104         	19.945         	9.958
MS.105         	19.905         	9.948
MS.106         	19.865         	9.98
MS.107         	19.825         	9.96
MS.108         	19.788         	9.97
MS.109         	19.747         	9.962
MS.110         	19.708         	9.988
MS.111         	19.667         	9.972
MS.112         	19.63          	9.976
MS.113         	19.59          	9.982
MS.114         	19.55          	9.982
MS.115         	19.512         	9.97
MS.116         	19.472         	9.984
MS.117         	19.432         	9.97
MS.118         	19.395         	9.964
MS.119         	19.355         	9.968
MS.120         	19.317         	9.972
MS.121         	19.278         	9.98
MS.122         	19.24          	10.002
MS.123         	19.202         	10.037
MS.124         	19.163         	10.049
MS.125         	19.125         	10.01
MS.126         	19.087         	10.01
MS.127         	19.047         	9.994
MS.128         	19.01          	10.002
MS.129         	18.972         	9.992
MS.130         	18.935         	10.004
MS.131         	18.897         	9.988
MS.132         	18.86          	9.954
MS.133         	18.823         	9.958
MS.134         	18.785         	9.974
MS.135         	18.747         	9.968
MS.136         	18.71          	9.93
MS.137         	18.672         	9.956
MS.138         	18.635         	9.966
MS.139         	18.597         	9.95
MS.140         	18.56          	9.964
MS.141         	18.522         	9.99
MS.142         	18.485         	9.948
MS.143         	18.448         	9.946
MS.144         	18.413         	9.944
MS.145         	18.375         	9.968
MS.146         	18.337         	9.948
MS.147         	18.302         	9.94
MS.148         	18.265         	9.94
MS.149         	18.227         	9.97
MS.150         	18.192         	9.966
MS.151         	18.155         	9.932
MS.152         	18.12          	9.958
MS.153         	18.083         	9.974
MS.154         	18.047         	9.948
MS.155         	18.01          	9.962
MS.156         	17.975         	9.944
MS.157         	17.94          	9.968
MS.158         	17.903         	9.96
MS.159         	17.868         	9.96
MS.160         	17.833         	9.954
MS.161         	17.797         	9.96
MS.162         	17.76          	9.972
MS.163         	17.725         	9.95
MS.164         	17.69          	9.988
MS.165         	17.655         	9.99
MS.166         	17.62          	10
MS.167         	17.585         	9.982
MS.168         	17.55          	10.002
MS.169         	17.515         	10.002
MS.170         	17.48          	9.994
MS.171         	17.445         	10.004
MS.172         	17.41          	9.986
MS.173         	17.375         	9.964
MS.174         	17.34          	9.918
MS.175         	17.305         	9.958
MS.176         	17.27          	9.988
MS.177         	17.235         	9.982
MS.178         	17.202         	9.968
MS.179         	17.167         	9.972
MS.180         	17.132         	9.984
MS.181         	17.097         	9.926
MS.182         	17.065         	9.926
MS.183         	17.03          	9.936
MS.184         	16.997         	9.952
MS.185         	16.962         	9.918
MS.186         	16.927         	9.96
MS.187         	16.895         	9.936
MS.188         	16.86          	9.944
MS.189         	16.827         	9.98
MS.190         	16.792         	9.97
MS.191         	16.76          	10.002
MS.192         	16.727         	9.966
MS.193         	16.692         	9.952
MS.194         	16.66          	10.002
MS.195         	16.628         	9.988
MS.196         	16.592         	9.994
MS.197         	16.56          	9.996
MS.198         	16.528         	10.014
MS.199         	16.495         	10.008
MS.200         	16.46          	10.008
MS.201         	16.427         	9.982
MS.202         	16.395         	9.982
MS.203         	16.362         	9.98
MS.204         	16.33          	10
MS.205         	16.297         	10.008
MS.206         	16.265         	10.008
MS.207         	16.233         	10.002
MS.208         	16.2           	10.002
MS.209         	16.167         	9.958
MS.210         	16.135         	9.835
MS.211         	16.102         	9.702
MS.212         	16.07          	9.791
MS.213         	16.038         	9.787
MS.214         	16.007         	9.896
MS.215         	15.975         	9.875
MS.216         	15.943         	9.809
MS.217         	15.91          	9.934
MS.218         	15.88          	10.002
MS.219         	15.847         	9.982
MS.220         	15.815         	9.948
MS.221         	15.785         	9.972
MS.222         	15.752         	9.958
MS.223         	15.72          	9.984
MS.224         	15.69          	9.978
MS.225         	15.657         	9.968
MS.226         	15.627         	9.974
MS.227         	15.595         	9.97
MS.228         	15.565         	9.99
MS.229         	15.532         	10.002
MS.230         	15.502         	10.006
MS.231         	15.472         	10.006
MS.232         	15.44          	9.97
MS.233         	15.41          	9.966
MS.234         	15.38          	9.96
MS.235         	15.347         	9.98
MS.236         	15.318         	9.986
MS.237         	15.287         	9.996
MS.238         	15.257         	9.972
MS.239         	15.225         	10.004
MS.240         	15.195         	9.998
MS.241         	15.165         	9.978
MS.242         	15.135         	9.988
MS.243         	15.105         	9.978
MS.244         	15.075         	9.992
MS.245         	15.045         	9.988
MS.246         	15.015         	10
MS.247         	14.985         	9.964
MS.248         	14.955         	9.978
MS.249         	14.925         	9.95
MS.250         	14.895         	9.972
MS.251         	14.865         	9.98
MS.252         	14.835         	9.968
MS.253         	14.805         	10
MS.254         	14.775         	9.992
MS.255         	14.747         	9.988
MS.256         	14.717         	9.867
MS.257         	14.688         	9.674
MS.258         	14.657         	9.72
MS.259         	14.63          	9.565
MS.260         	14.6           	9.503
MS.261         	14.57          	9.497
MS.262         	14.542         	9.829
MS.263         	14.512         	9.946
MS.264         	14.483         	9.978
MS.265         	14.455         	9.724
MS.266         	14.425         	9.543
MS.267         	14.398         	9.458
MS.268         	14.367         	9.422
MS.269         	14.34          	9.434
MS.270         	14.31          	9.44
MS.271         	14.282         	9.392
MS.272         	14.252         	9.446
MS.273         	14.225         	9.434
MS.274         	14.197         	9.432
MS.275         	14.167         	9.43
MS.276         	14.14          	9.452
MS.277         	14.112         	9.456
MS.278         	14.082         	9.535
MS.279         	14.055         	9.716
MS.280         	14.028         	9.67
MS.281         	14             	9.567
MS.282         	13.97          	9.519
MS.283         	13.943         	9.593
MS.284         	13.915         	9.805
MS.285         	13.887         	9.851
MS.286         	13.86          	9.865
MS.287         	13.832         	9.839
MS.288         	13.805         	9.863
MS.289         	13.778         	9.92
MS.290         	13.75          	9.932
MS.291         	13.722         	9.95
MS.292         	13.695         	9.914
MS.293         	13.667         	9.944
MS.294         	13.64          	9.984
MS.295         	13.612         	9.936
MS.296         	13.585         	9.932
MS.297         	13.557         	9.978
MS.298         	13.53          	9.964
MS.299         	13.505         	9.98
MS.300         	13.477         	10.026
MS.301         	13.45          	9.972
MS.302         	13.422         	9.984
MS.303         	13.398         	10
MS.304         	13.37          	10.004
MS.305         	13.342         	9.996
MS.306         	13.318         	9.982
MS.307         	13.29          	10.014
MS.308         	13.262         	10
MS.309         	13.237         	10.024
MS.310         	13.21          	10.006
MS.311         	13.185         	10.02
MS.312         	13.157         	10.041
MS.313         	13.132         	10.012
MS.314         	13.105         	10.043
MS.315         	13.08          	10.071
MS.316         	13.052         	10.041
MS.317         	13.028         	10.065
MS.318         	13             	10.039
MS.319         	12.975         	10.006
MS.320         	12.947         	10.041
MS.321         	12.922         	10.045
MS.322         	12.898         	10.053
MS.323         	12.87          	10.061
MS.324         	12.845         	10.031
MS.325         	12.82          	10.059
MS.326         	12.795         	10.037
MS.327         	12.767         	10.045
MS.328         	12.742         	10.045
MS.329         	12.717         	10.061
MS.330         	12.693         	10.041
MS.331         	12.667         	10.037
MS.332         	12.642         	10.067
MS.333         	12.617         	10.043
MS.334         	12.59          	10.051
MS.335         	12.565         	10.039
MS.336         	12.54          	10.079
MS.337         	12.515         	10.043
MS.338         	12.49          	10.035
MS.339         	12.465         	10.041
MS.340         	12.44          	10.067
MS.341         	12.415         	10.081
MS.342         	12.392         	10.033
MS.343         	12.367         	10.061
MS.344         	12.342         	10.065
MS.345         	12.318         	10.071
MS.346         	12.292         	10.039
MS.347         	12.267         	10.045
MS.348         	12.242         	10.071
MS.349         	12.22          	10.063
MS.350         	12.195         	10.059
MS.351         	12.17          	10.049
MS.352         	12.145         	10.065
MS.353         	12.122         	10.045
MS.354         	12.097         	10.047
MS.355         	12.072         	10.031
MS.356         	12.05          	10.041
MS.357         	12.025         	10.053
MS.358         	12             	10.053
MS.359         	11.977         	10.026
MS.360         	11.952         	10.057
MS.361         	11.93          	10.057
MS.362         	11.905         	10.039
MS.363         	11.882         	10.037
MS.364         	11.858         	10.039
MS.365         	11.835         	10.039
MS.366         	11.81          	10.033
MS.367         	11.787         	10.041
MS.368         	11.762         	10.055
MS.369         	11.74          	10.026
MS.370         	11.717         	10.051
MS.371         	11.693         	10.033
MS.372         	11.67          	10.014
MS.373         	11.648         	10.045
MS.374         	11.622         	10.035
MS.375         	11.6           	10.037
MS.376         	11.577         	10.045
MS.377         	11.552         	10.053
MS.378         	11.53          	10.035
MS.379         	11.507         	10.059
MS.380         	11.485         	10.055
MS.381         	11.462         	10.033
MS.382         	11.438         	10.039
MS.383         	11.415         	10.039
MS.384         	11.392         	10.035
MS.385         	11.37          	10.014
MS.386         	11.347         	10.006
MS.387         	11.325         	10.02
MS.388         	11.302         	10.014
MS.389         	11.28          	10.022
MS.390         	11.257         	10.002
MS.391         	11.235         	10.037
MS.392         	11.212         	10.02
MS.393         	11.19          	10.006
MS.394         	11.167         	10.049
MS.395         	11.145         	10.022
MS.396         	11.122         	10.026
MS.397         	11.1           	10.008
MS.398         	11.077         	10.012
MS.399         	11.055         	10.024
MS.400         	11.035         	10.033
MS.401         	11.012         	9.976
MS.402         	10.99          	9.98
MS.403         	10.967         	10.012
MS.404         	10.945         	10.033
MS.405         	10.925         	9.998
MS.406         	10.903         	9.982
MS.407         	10.88          	10.002
MS.408         	10.86          	10.012
MS.409         	10.837         	9.984
MS.410         	10.815         	10.008
MS.411         	10.795         	10.002
MS.412         	10.773         	10.002
MS.413         	10.75          	9.964
MS.414         	10.73          	9.978
MS.415         	10.707         	9.974
MS.416         	10.688         	9.988
MS.417         	10.665         	9.966
MS.418         	10.645         	9.922
MS.419         	10.622         	9.98
MS.420         	10.602         	9.97
MS.421         	10.58          	9.936
MS.422         	10.56          	9.94
MS.423         	10.537         	9.952
MS.424         	10.517         	9.926
MS.425         	10.495         	9.94
MS.426         	10.475         	9.918
MS.427         	10.455         	9.95
MS.428         	10.432         	9.952
MS.429         	10.412         	9.942
MS.430         	10.392         	9.94
MS.431         	10.37          	9.934
MS.432         	10.35          	9.95
MS.433         	10.33          	9.857
MS.434         	10.31          	9.863
MS.435         	10.287         	9.885
MS.436         	10.267         	9.908
MS.437         	10.247         	9.742
MS.438         	10.227         	9.853
MS.439         	10.205         	9.698
MS.440         	10.185         	9.902
MS.441         	10.165         	9.722
MS.442         	10.145         	9.73
MS.443         	10.125         	9.747
MS.444         	10.105         	9.718
MS.445         	10.085         	9.749
MS.446         	10.065         	9.726
MS.447         	10.045         	9.696
MS.448         	10.025         	9.805
MS.449         	10.005         	9.694
MS.450         	9.985          	9.698
MS.451         	9.965          	9.682
MS.452         	9.945          	9.72
MS.453         	9.925          	9.664
MS.454         	9.905          	9.632
MS.455         	9.885          	9.686
MS.456         	9.865          	9.74
MS.457         	9.845          	9.682
MS.458         	9.825          	9.712
MS.459         	9.805          	9.656
MS.460         	9.787          	9.545
MS.461         	9.767          	9.64
MS.462         	9.747          	9.575
MS.463         	9.727          	9.503
MS.464         	9.707          	9.551
MS.465         	9.69           	9.565
MS.466         	9.67           	9.602
MS.467         	9.65           	9.585
MS.468         	9.63           	9.513
MS.469         	9.613          	9.467
MS.470         	9.592          	9.469
MS.471         	9.573          	9.541
MS.472         	9.555          	9.509
MS.473         	9.535          	9.567
MS.474         	9.515          	9.535
MS.475         	9.497          	9.309
MS.476         	9.477          	9.467
MS.477         	9.46           	9.452
MS.478         	9.44           	9.189
MS.479         	9.422          	9.442
MS.480         	9.403          	9.066
MS.481         	9.385          	9.134
MS.482         	9.365          	8.756
MS.483         	9.347          	9.144
MS.484         	9.327          	9.04
MS.485         	9.31           	9.126
MS.486         	9.29           	8.897
MS.487         	9.273          	8.804
MS.488         	9.252          	9.177
MS.489         	9.235          	9.166
MS.490         	9.217          	9.042
MS.491         	9.198          	8.762
MS.492         	9.18           	8.768
MS.493         	9.162          	8.733
MS.494         	9.142          	8.594
MS.495         	9.125          	8.643
MS.496         	9.108          	8.713
MS.497         	9.087          	8.713
MS.498         	9.07           	8.78
