File:              	C:\Qtrac\Data\Daniel M Sørensen\MScan multicentre study\Data from centres\Bucharest\Processed data\TDLC00922B.QZD
Name:              	RO.BU.NC.7.2
Protocol:          	MSCAN-R2
Date:              	22/9/20
Start time:        	13:33:07
Age:               	48
Sex:               	F
Temperature:       	36.2
S/R sites:         	ADM
NC/disease:        	NC
Operator:          	TL
Comments:          	RONC7.2.
M-SCAN DATA (5.5-1.9m)
Scanpts: 103, 115, 381, 402
Stim. (mA)     	Amp. (mV)
MS.1           	26.5           	2.127
MS.2           	26.5           	2.149
MS.3           	26.5           	2.131
MS.4           	26.5           	2.119
MS.5           	26.5           	2.121
MS.6           	26.5           	2.101
MS.7           	26.5           	2.117
MS.8           	26.5           	2.107
MS.9           	26.5           	2.117
MS.10          	26.5           	2.113
MS.11          	26.5           	2.093
MS.12          	26.5           	2.113
MS.13          	26.5           	2.111
MS.14          	26.5           	2.105
MS.15          	26.5           	2.115
MS.16          	26.5           	2.109
MS.17          	26.5           	2.101
MS.18          	26.5           	2.117
MS.19          	26.5           	2.115
MS.20          	26.5           	2.133
MS.21          	26.5           	2.131
MS.22          	26.5           	2.129
MS.23          	26.5           	2.119
MS.24          	26.395         	2.131
MS.25          	26.342         	2.125
MS.26          	26.287         	2.115
MS.27          	26.235         	2.123
MS.28          	26.185         	2.119
MS.29          	26.132         	2.127
MS.30          	26.08          	2.125
MS.31          	26.028         	2.131
MS.32          	25.975         	2.143
MS.33          	25.922         	2.133
MS.34          	25.872         	2.135
MS.35          	25.82          	2.149
MS.36          	25.767         	2.131
MS.37          	25.717         	2.133
MS.38          	25.665         	2.119
MS.39          	25.615         	2.167
MS.40          	25.562         	2.147
MS.41          	25.512         	2.133
MS.42          	25.46          	2.145
MS.43          	25.41          	2.155
MS.44          	25.36          	2.131
MS.45          	25.307         	2.153
MS.46          	25.257         	2.167
MS.47          	25.207         	2.181
MS.48          	25.157         	2.133
MS.49          	25.108         	2.155
MS.50          	25.057         	2.151
MS.51          	25.007         	2.161
MS.52          	24.957         	2.199
MS.53          	24.907         	2.181
MS.54          	24.858         	2.169
MS.55          	24.807         	2.199
MS.56          	24.757         	2.185
MS.57          	24.707         	2.218
MS.58          	24.66          	2.171
MS.59          	24.61          	2.201
MS.60          	24.56          	2.201
MS.61          	24.512         	2.203
MS.62          	24.462         	2.191
MS.63          	24.413         	2.21
MS.64          	24.365         	2.21
MS.65          	24.315         	2.22
MS.66          	24.267         	2.236
MS.67          	24.22          	2.236
MS.68          	24.17          	2.238
MS.69          	24.122         	2.24
MS.70          	24.075         	2.216
MS.71          	24.025         	2.206
MS.72          	23.977         	2.248
MS.73          	23.93          	2.23
MS.74          	23.882         	2.222
MS.75          	23.835         	2.262
MS.76          	23.788         	2.24
MS.77          	23.74          	2.248
MS.78          	23.692         	2.236
MS.79          	23.645         	2.226
MS.80          	23.597         	2.238
MS.81          	23.55          	2.238
MS.82          	23.502         	2.258
MS.83          	23.457         	2.242
MS.84          	23.41          	2.224
MS.85          	23.362         	2.232
MS.86          	23.315         	2.236
MS.87          	23.27          	2.268
MS.88          	23.222         	2.254
MS.89          	23.177         	2.232
MS.90          	23.13          	2.276
MS.91          	23.085         	2.242
MS.92          	23.038         	2.262
MS.93          	22.993         	2.278
MS.94          	22.945         	2.214
MS.95          	22.9           	2.236
MS.96          	22.855         	2.214
MS.97          	22.807         	2.236
MS.98          	22.762         	2.248
MS.99          	22.717         	2.21
MS.100         	22.672         	2.29
MS.101         	22.627         	2.278
MS.102         	22.582         	2.224
MS.103         	22.538         	2.32
MS.104         	22.493         	2.292
MS.105         	22.448         	2.28
MS.106         	22.403         	2.304
MS.107         	22.358         	2.298
MS.108         	22.312         	2.258
MS.109         	22.267         	2.262
MS.110         	22.222         	2.3
MS.111         	22.18          	2.262
MS.112         	22.135         	2.242
MS.113         	22.09          	2.296
MS.114         	22.045         	2.268
MS.115         	22.002         	2.31
MS.116         	21.958         	2.342
MS.117         	21.915         	2.302
MS.118         	21.87          	2.304
MS.119         	21.827         	2.302
MS.120         	21.782         	2.284
MS.121         	21.74          	2.316
MS.122         	21.698         	2.312
MS.123         	21.653         	2.272
MS.124         	21.61          	2.308
MS.125         	21.567         	2.377
MS.126         	21.522         	2.334
MS.127         	21.48          	2.34
MS.128         	21.438         	2.409
MS.129         	21.395         	2.34
MS.130         	21.352         	2.298
MS.131         	21.31          	2.391
MS.132         	21.267         	2.379
MS.133         	21.225         	2.304
MS.134         	21.182         	2.302
MS.135         	21.14          	2.415
MS.136         	21.097         	2.298
MS.137         	21.055         	2.381
MS.138         	21.012         	2.381
MS.139         	20.97          	2.252
MS.140         	20.93          	2.391
MS.141         	20.887         	2.344
MS.142         	20.845         	2.298
MS.143         	20.805         	2.167
MS.144         	20.762         	2.222
MS.145         	20.72          	2.248
MS.146         	20.68          	2.25
MS.147         	20.637         	2.181
MS.148         	20.597         	2.151
MS.149         	20.555         	2.185
MS.150         	20.515         	2.123
MS.151         	20.472         	2.175
MS.152         	20.432         	2.266
MS.153         	20.392         	2.216
MS.154         	20.35          	2.193
MS.155         	20.31          	2.197
MS.156         	20.27          	2.201
MS.157         	20.23          	2.23
MS.158         	20.19          	2.224
MS.159         	20.147         	2.107
MS.160         	20.108         	2.256
MS.161         	20.067         	2.29
MS.162         	20.028         	2.107
MS.163         	19.987         	2.201
MS.164         	19.948         	2.103
MS.165         	19.907         	2.131
MS.166         	19.868         	2.169
MS.167         	19.83          	2.282
MS.168         	19.79          	2.093
MS.169         	19.75          	2.03
MS.170         	19.71          	2.065
MS.171         	19.67          	2.083
MS.172         	19.632         	2.109
MS.173         	19.592         	2.201
MS.174         	19.552         	2.093
MS.175         	19.515         	2.153
MS.176         	19.475         	2
MS.177         	19.438         	2.101
MS.178         	19.397         	2.179
MS.179         	19.358         	2.044
MS.180         	19.32          	2.151
MS.181         	19.282         	2.05
MS.182         	19.243         	2.075
MS.183         	19.205         	1.922
MS.184         	19.165         	1.958
MS.185         	19.127         	1.974
MS.186         	19.09          	2.071
MS.187         	19.052         	1.889
MS.188         	19.012         	1.942
MS.189         	18.975         	1.881
MS.190         	18.938         	1.779
MS.191         	18.9           	1.69
MS.192         	18.862         	2.115
MS.193         	18.825         	1.662
MS.194         	18.788         	1.803
MS.195         	18.75          	1.869
MS.196         	18.712         	1.785
MS.197         	18.675         	1.686
MS.198         	18.637         	1.787
MS.199         	18.6           	1.718
MS.200         	18.562         	1.652
MS.201         	18.525         	1.69
MS.202         	18.487         	1.537
MS.203         	18.452         	1.511
MS.204         	18.415         	1.623
MS.205         	18.378         	1.46
MS.206         	18.34          	1.529
MS.207         	18.305         	1.43
MS.208         	18.267         	1.386
MS.209         	18.233         	1.511
MS.210         	18.195         	1.327
MS.211         	18.157         	1.313
MS.212         	18.122         	1.347
MS.213         	18.085         	1.448
MS.214         	18.05          	0.991
MS.215         	18.015         	1.208
MS.216         	17.977         	1.122
MS.217         	17.942         	1.001
MS.218         	17.905         	0.957
MS.219         	17.87          	1.059
MS.220         	17.835         	0.705
MS.221         	17.8           	0.922
MS.222         	17.762         	0.973
MS.223         	17.727         	0.81
MS.224         	17.692         	0.679
MS.225         	17.657         	0.596
MS.226         	17.622         	0.634
MS.227         	17.587         	0.485
MS.228         	17.552         	0.461
MS.229         	17.517         	0.596
MS.230         	17.483         	0.512
MS.231         	17.448         	0.163
MS.232         	17.413         	0.264
MS.233         	17.378         	0.25
MS.234         	17.342         	0.628
MS.235         	17.307         	0.228
MS.236         	17.272         	0.107
MS.237         	17.237         	0.383
MS.238         	17.205         	0.23
MS.239         	17.17          	0.179
MS.240         	17.135         	-0.073
MS.241         	17.1           	-0.119
MS.242         	17.067         	0.151
MS.243         	17.032         	-0.066
MS.244         	17             	-0.044
MS.245         	16.965         	-0.026
MS.246         	16.93          	-0.258
MS.247         	16.897         	-0.155
MS.248         	16.862         	-0.361
MS.249         	16.83          	-0.23
MS.250         	16.795         	-0.254
MS.251         	16.762         	-0.359
MS.252         	16.73          	-0.373
MS.253         	16.695         	-0.314
MS.254         	16.663         	-0.435
MS.255         	16.63          	-0.463
MS.256         	16.595         	-0.373
MS.257         	16.562         	-0.524
MS.258         	16.53          	-0.387
MS.259         	16.497         	-0.453
MS.260         	16.462         	-0.719
MS.261         	16.43          	-0.558
MS.262         	16.397         	-0.526
MS.263         	16.365         	-0.451
MS.264         	16.333         	-0.598
MS.265         	16.3           	-0.608
MS.266         	16.267         	-0.518
MS.267         	16.235         	-0.465
MS.268         	16.202         	-0.568
MS.269         	16.17          	-0.645
MS.270         	16.137         	-0.703
MS.271         	16.105         	-0.838
MS.272         	16.073         	-0.735
MS.273         	16.04          	-0.858
MS.274         	16.01          	-0.904
MS.275         	15.977         	-0.834
MS.276         	15.945         	-0.832
MS.277         	15.912         	-0.975
MS.278         	15.882         	-0.981
MS.279         	15.85          	-1.017
MS.280         	15.818         	-1.053
MS.281         	15.787         	-0.83
MS.282         	15.755         	-1.003
MS.283         	15.722         	-0.929
MS.284         	15.693         	-0.967
MS.285         	15.66          	-1.061
MS.286         	15.63          	-0.971
MS.287         	15.597         	-1.158
MS.288         	15.568         	-1.124
MS.289         	15.535         	-1.027
MS.290         	15.505         	-1.094
MS.291         	15.472         	-1.208
MS.292         	15.443         	-1.329
MS.293         	15.412         	-1.235
MS.294         	15.38          	-1.148
MS.295         	15.35          	-1.211
MS.296         	15.32          	-1.575
MS.297         	15.29          	-1.263
MS.298         	15.257         	-1.531
MS.299         	15.227         	-1.384
MS.300         	15.197         	-1.468
MS.301         	15.167         	-1.625
MS.302         	15.137         	-1.617
MS.303         	15.108         	-1.517
MS.304         	15.077         	-1.696
MS.305         	15.047         	-1.734
MS.306         	15.017         	-1.676
MS.307         	14.987         	-1.736
MS.308         	14.957         	-1.718
MS.309         	14.927         	-1.605
MS.310         	14.898         	-1.783
MS.311         	14.867         	-1.783
MS.312         	14.837         	-1.68
MS.313         	14.807         	-1.821
MS.314         	14.777         	-1.885
MS.315         	14.747         	-1.772
MS.316         	14.72          	-1.768
MS.317         	14.69          	-1.847
MS.318         	14.66          	-1.881
MS.319         	14.63          	-1.934
MS.320         	14.602         	-1.996
MS.321         	14.572         	-1.875
MS.322         	14.542         	-1.875
MS.323         	14.515         	-1.94
MS.324         	14.485         	-2.022
MS.325         	14.457         	-2.006
MS.326         	14.427         	-2.006
MS.327         	14.398         	-1.996
MS.328         	14.37          	-1.974
MS.329         	14.342         	-2.081
MS.330         	14.312         	-1.988
MS.331         	14.285         	-1.938
MS.332         	14.255         	-1.962
MS.333         	14.227         	-2.01
MS.334         	14.197         	-2.093
MS.335         	14.17          	-2.224
MS.336         	14.142         	-2.097
MS.337         	14.112         	-2.032
MS.338         	14.085         	-2.177
MS.339         	14.057         	-2.167
MS.340         	14.03          	-2.187
MS.341         	14             	-2.187
MS.342         	13.972         	-2.147
MS.343         	13.945         	-2.169
MS.344         	13.917         	-2.153
MS.345         	13.89          	-2.083
MS.346         	13.862         	-2.165
MS.347         	13.835         	-2.197
MS.348         	13.807         	-2.139
MS.349         	13.78          	-2.183
MS.350         	13.752         	-2.244
MS.351         	13.725         	-2.199
MS.352         	13.697         	-2.145
MS.353         	13.67          	-2.212
MS.354         	13.642         	-2.226
MS.355         	13.615         	-2.169
MS.356         	13.587         	-2.185
MS.357         	13.56          	-2.226
MS.358         	13.532         	-2.167
MS.359         	13.505         	-2.238
MS.360         	13.48          	-2.236
MS.361         	13.452         	-2.268
MS.362         	13.425         	-2.197
MS.363         	13.398         	-2.302
MS.364         	13.372         	-2.246
MS.365         	13.345         	-2.197
MS.366         	13.318         	-2.288
MS.367         	13.292         	-2.264
MS.368         	13.265         	-2.246
MS.369         	13.237         	-2.252
MS.370         	13.212         	-2.276
MS.371         	13.185         	-2.248
MS.372         	13.16          	-2.252
MS.373         	13.132         	-2.286
MS.374         	13.108         	-2.26
MS.375         	13.08          	-2.29
MS.376         	13.055         	-2.226
MS.377         	13.028         	-2.254
MS.378         	13.002         	-2.276
MS.379         	12.977         	-2.27
MS.380         	12.95          	-2.29
MS.381         	12.925         	-2.278
MS.382         	12.9           	-2.282
MS.383         	12.872         	-2.254
MS.384         	12.847         	-2.256
MS.385         	12.822         	-2.272
MS.386         	12.795         	-2.26
MS.387         	12.77          	-2.262
MS.388         	12.745         	-2.25
MS.389         	12.72          	-2.256
MS.390         	12.695         	-2.246
MS.391         	12.67          	-2.24
MS.392         	12.642         	-2.232
MS.393         	12.617         	-2.23
MS.394         	12.592         	-2.23
MS.395         	12.568         	-2.226
MS.396         	12.542         	-2.22
MS.397         	12.517         	-2.214
MS.398         	12.492         	-2.212
MS.399         	12.467         	-2.206
MS.400         	12.443         	-2.201
MS.401         	12.417         	-2.191
MS.402         	12.392         	-2.187
DERIVED EXCITABILITY VARIABLES
Program = QTracP 3/4/2020
Threshold method = 6 (optimised for CAP, using data for present condition only)
SR method = 1 (using actual data values)
6.                 	0.000               	Peak response\(mV)
9.                 	36.2                	Temperature ( C)
17.                	48                  	Age (years)
18.                	2                   	Sex (M=1, F=2)

EXTRA VARIABLES

MScPeak(mV) = 4.35
MScS5(mA) = 17.33
MScS50(mA) = 21.51
MScNSteps = 2
MScSteps(%) = 5.2
MScStepMax(%) = 3.1
MScD50 = 35
MSFPeakAmp(mV) = 4.52
MSFNUnits = 80
MSFMeanUnitAmp(uV) = 56.5
MSFHuntTime(m) = 1.18
MSFError(%) = 7.51
MSFNLarge = 24.19
MSFMedianAmp(%) = 1.11
MSFMedianAmp(mV) = 0.05
MSFHalfAmpAmp(%) = 1.36
MSFHalfAmpAmp(mV) = 0.0615
MSFLargestAmp(%) = 3.13
MSFLargestAmp(mV) = 0.142
MSFMeanRS(%) = 2
MSFOpts = 10106121
MScDuration(min) = 3.6
MSFTraces = 300
MSFSizeLimit(uV) = 11.3
MSFLimitType = 1
MSFSmallestAmp(uV) = 15

EXTRA WAVEFORMS


!MScan Model
!80
	1	13.58	0.64	2
	2	13.94	1.15	2
	3	14.11	0.96	2
	4	14.24	1.43	2
	5	14.46	1.96	2
	6	14.52	0.33	2
	7	14.57	0.56	2
	8	14.63	0.75	2
	9	14.71	1.09	2
	10	14.82	1.33	2
	11	14.93	1.34	2
	12	14.99	0.92	2
	13	15.05	1.2	2
	14	15.1	0.91	2
	15	15.15	0.65	2
	16	15.2	1.18	2
	17	15.25	1.32	2
	18	15.3	1.24	2
	19	15.36	1.33	2
	20	15.44	2.14	2
	21	15.52	1.76	2
	22	15.64	1.77	2
	23	15.77	1.93	2
	24	15.87	1.17	2
	25	15.91	0.48	2
	26	15.96	0.9	2
	27	15.99	0.81	2
	28	16.03	0.7	2
	29	16.06	0.58	2
	30	16.09	0.49	2
	31	16.13	0.63	2
	32	16.16	0.72	2
	33	16.3	2.14	2
	34	16.52	2.71	2
	35	16.6	0.64	2
	36	16.65	0.85	2
	37	16.69	0.63	2
	38	16.73	0.82	2
	39	16.76	0.75	2
	40	16.81	0.8	2
	41	16.85	0.8	2
	42	16.89	0.95	2
	43	16.94	1.02	2
	44	16.99	1.19	2
	45	17.05	1.49	2
	46	17.13	2.22	2
	47	17.25	2.72	2
	48	17.37	2.84	2
	49	17.46	2.26	2
	50	17.49	0.73	2
	51	17.53	0.66	2
	52	17.56	0.55	2
	53	17.59	0.91	2
	54	17.63	1.13	2
	55	17.66	1.12	2
	56	17.7	1.08	2
	57	17.73	0.97	2
	58	17.76	0.96	2
	59	17.8	1.08	2
	60	17.84	1.55	2
	61	17.89	1.71	2
	62	17.94	1.59	2
	63	17.99	1.36	2
	64	18.04	0.86	2
	65	18.04	0.57	2
	66	18.08	0.53	2
	67	18.13	1.46	2
	68	18.18	1.23	2
	69	18.25	1.79	2
	70	18.32	1.78	2
	71	18.38	1.08	2
	72	18.43	0.71	2
	73	18.48	0.53	2
	74	18.56	1.16	2
	75	18.73	2.52	2
	76	18.98	2.9	2
	77	19.14	2.1	2
	78	19.68	3.13	2
	79	20.6	1.86	2
	80	20.79	1.2	2

