File:              	C:\Qtrac\Data\Daniel M Sørensen\MScan multicentre study\Data from centres\Bucharest\TDLC00127A.QZD
Name:              	RO.BU.NC.1.1
Protocol:          	MSCAN-R2
Date:              	27/1/20
Start time:        	14:52:14
Age:               	30
Sex:               	M
Temperature:       	36.3
S/R sites:         	APB
NC/disease:        	RONC1.1
Operator:          	TL
Comments:
M-SCAN DATA (8.9-2.3m)
Scanpts: 279, 285, 577, 597
Stim. (mA)     	Amp. (mV)
MS.1           	16.5           	9.688
MS.2           	18             	9.698
MS.3           	20             	9.712
MS.4           	20             	9.706
MS.5           	20             	9.728
MS.6           	20             	9.722
MS.7           	20             	9.722
MS.8           	20             	9.638
MS.9           	20             	9.636
MS.10          	20             	9.636
MS.11          	20             	9.646
MS.12          	20             	9.666
MS.13          	20             	9.68
MS.14          	20             	9.71
MS.15          	20             	9.708
MS.16          	20             	9.718
MS.17          	20             	9.668
MS.18          	20             	9.662
MS.19          	20             	9.676
MS.20          	20             	9.688
MS.21          	20             	9.694
MS.22          	20             	9.666
MS.23          	20             	9.672
MS.24          	19.92          	9.674
MS.25          	19.88          	9.686
MS.26          	19.84          	9.7
MS.27          	19.8           	9.72
MS.28          	19.46          	9.722
MS.29          	18.962         	9.73
MS.30          	18.925         	9.72
MS.31          	18.887         	9.702
MS.32          	18.847         	9.712
MS.33          	18.81          	9.728
MS.34          	18.772         	9.742
MS.35          	18.462         	9.767
MS.36          	18.425         	9.777
MS.37          	18.39          	9.767
MS.38          	18.352         	9.787
MS.39          	17.965         	9.799
MS.40          	17.927         	9.803
MS.41          	17.892         	9.805
MS.42          	17.858         	9.783
MS.43          	17.82          	9.795
MS.44          	17.785         	9.781
MS.45          	17.75          	9.769
MS.46          	17.715         	9.779
MS.47          	17.68          	9.775
MS.48          	17.642         	9.781
MS.49          	17.608         	9.779
MS.50          	17.573         	9.783
MS.51          	17.538         	9.789
MS.52          	17.503         	9.803
MS.53          	17.467         	9.803
MS.54          	17.432         	9.817
MS.55          	17.397         	9.827
MS.56          	17.362         	9.823
MS.57          	17.33          	9.827
MS.58          	17.295         	9.827
MS.59          	17.26          	9.817
MS.60          	17.225         	9.823
MS.61          	17.19          	9.827
MS.62          	17.157         	9.829
MS.63          	17.122         	9.825
MS.64          	17.087         	9.829
MS.65          	17.055         	9.831
MS.66          	17.02          	9.827
MS.67          	16.985         	9.823
MS.68          	16.952         	9.841
MS.69          	16.917         	9.855
MS.70          	16.885         	9.839
MS.71          	16.85          	9.833
MS.72          	16.817         	9.805
MS.73          	16.782         	9.793
MS.74          	16.75          	9.791
MS.75          	16.715         	9.785
MS.76          	16.682         	9.795
MS.77          	16.65          	9.789
MS.78          	16.615         	9.789
MS.79          	16.583         	9.801
MS.80          	16.55          	9.817
MS.81          	16.517         	9.809
MS.82          	16.483         	9.819
MS.83          	16.45          	9.823
MS.84          	16.417         	9.823
MS.85          	16.385         	9.841
MS.86          	16.352         	9.849
MS.87          	16.32          	9.871
MS.88          	16.288         	9.875
MS.89          	16.255         	9.865
MS.90          	16.222         	9.871
MS.91          	16.19          	9.861
MS.92          	16.157         	9.877
MS.93          	16.125         	9.871
MS.94          	16.092         	9.877
MS.95          	16.06          	9.881
MS.96          	16.028         	9.855
MS.97          	15.997         	9.847
MS.98          	15.965         	9.865
MS.99          	15.932         	9.869
MS.100         	15.9           	9.863
MS.101         	15.87          	9.877
MS.102         	15.837         	9.863
MS.103         	15.805         	9.859
MS.104         	15.775         	9.851
MS.105         	15.742         	9.863
MS.106         	15.71          	9.855
MS.107         	15.68          	9.857
MS.108         	15.648         	9.865
MS.109         	15.617         	9.875
MS.110         	15.585         	9.821
MS.111         	15.555         	9.811
MS.112         	15.525         	9.843
MS.113         	15.492         	9.813
MS.114         	15.462         	9.839
MS.115         	15.43          	9.813
MS.116         	15.4           	9.783
MS.117         	15.37          	9.837
MS.118         	15.337         	9.785
MS.119         	15.307         	9.795
MS.120         	15.277         	9.801
MS.121         	15.247         	9.785
MS.122         	15.217         	9.795
MS.123         	15.185         	9.849
MS.124         	15.155         	9.809
MS.125         	15.125         	9.823
MS.126         	15.095         	9.819
MS.127         	15.065         	9.829
MS.128         	15.035         	9.835
MS.129         	15.005         	9.831
MS.130         	14.975         	9.843
MS.131         	14.945         	9.867
MS.132         	14.915         	9.853
MS.133         	14.885         	9.879
MS.134         	14.855         	9.857
MS.135         	14.825         	9.849
MS.136         	14.795         	9.885
MS.137         	14.767         	9.865
MS.138         	14.737         	9.845
MS.139         	14.707         	9.841
MS.140         	14.677         	9.833
MS.141         	14.65          	9.835
MS.142         	14.62          	9.827
MS.143         	14.59          	9.823
MS.144         	14.562         	9.853
MS.145         	14.532         	9.821
MS.146         	14.502         	9.817
MS.147         	14.475         	9.831
MS.148         	14.445         	9.847
MS.149         	14.417         	9.851
MS.150         	14.387         	9.841
MS.151         	14.36          	9.847
MS.152         	14.33          	9.857
MS.153         	14.302         	9.853
MS.154         	14.273         	9.861
MS.155         	14.245         	9.849
MS.156         	14.215         	9.851
MS.157         	14.188         	9.845
MS.158         	14.16          	9.861
MS.159         	14.13          	9.843
MS.160         	14.102         	9.863
MS.161         	14.075         	9.867
MS.162         	14.047         	9.851
MS.163         	14.017         	9.859
MS.164         	13.99          	9.859
MS.165         	13.962         	9.861
MS.166         	13.935         	9.861
MS.167         	13.907         	9.851
MS.168         	13.88          	9.863
MS.169         	13.85          	9.863
MS.170         	13.822         	9.863
MS.171         	13.795         	9.797
MS.172         	13.767         	9.843
MS.173         	13.74          	9.837
MS.174         	13.712         	9.831
MS.175         	13.685         	9.825
MS.176         	13.657         	9.819
MS.177         	13.632         	9.815
MS.178         	13.605         	9.829
MS.179         	13.577         	9.833
MS.180         	13.55          	9.831
MS.181         	13.523         	9.825
MS.182         	13.495         	9.851
MS.183         	13.467         	9.855
MS.184         	13.443         	9.793
MS.185         	13.415         	9.769
MS.186         	13.387         	9.785
MS.187         	13.362         	9.795
MS.188         	13.335         	9.821
MS.189         	13.307         	9.827
MS.190         	13.282         	9.813
MS.191         	13.255         	9.807
MS.192         	13.227         	9.837
MS.193         	13.202         	9.859
MS.194         	13.175         	9.851
MS.195         	13.15          	9.839
MS.196         	13.122         	9.829
MS.197         	13.097         	9.801
MS.198         	13.07          	9.827
MS.199         	13.045         	9.827
MS.200         	13.017         	9.853
MS.201         	12.992         	9.859
MS.202         	12.967         	9.863
MS.203         	12.94          	9.869
MS.204         	12.915         	9.89
MS.205         	12.89          	9.865
MS.206         	12.862         	9.861
MS.207         	12.837         	9.859
MS.208         	12.812         	9.875
MS.209         	12.787         	9.888
MS.210         	12.76          	9.877
MS.211         	12.735         	9.9
MS.212         	12.71          	9.89
MS.213         	12.685         	9.898
MS.214         	12.66          	9.888
MS.215         	12.635         	9.839
MS.216         	12.608         	9.865
MS.217         	12.582         	9.859
MS.218         	12.557         	9.845
MS.219         	12.532         	9.813
MS.220         	12.507         	9.821
MS.221         	12.483         	9.801
MS.222         	12.457         	9.797
MS.223         	12.432         	9.811
MS.224         	12.407         	9.803
MS.225         	12.382         	9.819
MS.226         	12.36          	9.797
MS.227         	12.335         	9.805
MS.228         	12.31          	9.775
MS.229         	12.285         	9.807
MS.230         	12.26          	9.819
MS.231         	12.235         	9.843
MS.232         	12.212         	9.843
MS.233         	12.188         	9.861
MS.234         	12.162         	9.833
MS.235         	12.137         	9.815
MS.236         	12.115         	9.847
MS.237         	12.09          	9.811
MS.238         	12.065         	9.829
MS.239         	12.042         	9.831
MS.240         	12.017         	9.859
MS.241         	11.992         	9.859
MS.242         	11.97          	9.841
MS.243         	11.945         	9.869
MS.244         	11.922         	9.853
MS.245         	11.898         	9.871
MS.246         	11.875         	9.875
MS.247         	11.85          	9.881
MS.248         	11.827         	9.873
MS.249         	11.802         	9.916
MS.250         	11.78          	9.857
MS.251         	11.755         	9.855
MS.252         	11.733         	9.871
MS.253         	11.71          	9.863
MS.254         	11.685         	9.875
MS.255         	11.662         	9.863
MS.256         	11.64          	9.853
MS.257         	11.615         	9.853
MS.258         	11.592         	9.797
MS.259         	11.57          	9.813
MS.260         	11.547         	9.785
MS.261         	11.523         	9.837
MS.262         	11.5           	9.813
MS.263         	11.477         	9.779
MS.264         	11.455         	9.809
MS.265         	11.432         	9.875
MS.266         	11.407         	9.855
MS.267         	11.385         	9.853
MS.268         	11.363         	9.841
MS.269         	11.34          	9.863
MS.270         	11.318         	9.871
MS.271         	11.295         	9.873
MS.272         	11.273         	9.877
MS.273         	11.25          	9.914
MS.274         	11.227         	9.815
MS.275         	11.205         	9.849
MS.276         	11.182         	9.871
MS.277         	11.16          	9.867
MS.278         	11.137         	9.873
MS.279         	11.115         	9.926
MS.280         	11.092         	9.914
MS.281         	11.073         	9.912
MS.282         	11.05          	9.948
MS.283         	11.028         	9.898
MS.284         	11.005         	9.944
MS.285         	10.983         	9.984
MS.286         	10.962         	9.944
MS.287         	10.94          	9.932
MS.288         	10.917         	9.936
MS.289         	10.895         	9.928
MS.290         	10.875         	9.916
MS.291         	10.852         	9.922
MS.292         	10.83          	9.902
MS.293         	10.81          	9.896
MS.294         	10.787         	9.892
MS.295         	10.765         	9.888
MS.296         	10.745         	9.873
MS.297         	10.722         	9.863
MS.298         	10.702         	9.908
MS.299         	10.68          	9.873
MS.300         	10.657         	9.662
MS.301         	10.637         	9.94
MS.302         	10.615         	9.944
MS.303         	10.595         	9.918
MS.304         	10.573         	9.71
MS.305         	10.552         	9.654
MS.306         	10.532         	9.958
MS.307         	10.51          	9.656
MS.308         	10.49          	9.66
MS.309         	10.467         	9.573
MS.310         	10.448         	9.648
MS.311         	10.427         	9.694
MS.312         	10.405         	9.664
MS.313         	10.385         	9.662
MS.314         	10.365         	9.698
MS.315         	10.342         	9.692
MS.316         	10.323         	9.69
MS.317         	10.302         	9.863
MS.318         	10.282         	9.753
MS.319         	10.26          	9.684
MS.320         	10.24          	9.755
MS.321         	10.22          	9.74
MS.322         	10.2           	9.557
MS.323         	10.18          	9.597
MS.324         	10.16          	9.62
MS.325         	10.14          	9.694
MS.326         	10.117         	9.575
MS.327         	10.097         	9.604
MS.328         	10.077         	9.565
MS.329         	10.057         	9.69
MS.330         	10.037         	9.577
MS.331         	10.017         	9.324
MS.332         	9.997          	9.356
MS.333         	9.977          	9.575
MS.334         	9.957          	9.523
MS.335         	9.938          	9.318
MS.336         	9.917          	9.527
MS.337         	9.898          	9.34
MS.338         	9.877          	9.241
MS.339         	9.86           	9.16
MS.340         	9.84           	9.324
MS.341         	9.82           	9.233
MS.342         	9.8            	9.174
MS.343         	9.78           	9.189
MS.344         	9.76           	9.307
MS.345         	9.742          	9.09
MS.346         	9.722          	9.146
MS.347         	9.702          	9.201
MS.348         	9.682          	9.162
MS.349         	9.662          	9.096
MS.350         	9.645          	9.128
MS.351         	9.625          	9.136
MS.352         	9.605          	8.989
MS.353         	9.587          	9.144
MS.354         	9.568          	8.876
MS.355         	9.547          	8.931
MS.356         	9.53           	9.108
MS.357         	9.51           	9.09
MS.358         	9.492          	9.054
MS.359         	9.472          	8.788
MS.360         	9.452          	9.094
MS.361         	9.435          	8.731
MS.362         	9.415          	8.594
MS.363         	9.398          	8.423
MS.364         	9.377          	8.468
MS.365         	9.36           	8.687
MS.366         	9.34           	8.56
MS.367         	9.323          	8.679
MS.368         	9.302          	8.572
MS.369         	9.285          	8.339
MS.370         	9.265          	8.687
MS.371         	9.247          	8.431
MS.372         	9.23           	8.528
MS.373         	9.21           	8.075
MS.374         	9.193          	7.978
MS.375         	9.175          	7.805
MS.376         	9.155          	7.996
MS.377         	9.137          	7.849
MS.378         	9.12           	8.246
MS.379         	9.1            	7.9
MS.380         	9.082          	8.028
MS.381         	9.065          	8.18
MS.382         	9.047          	7.771
MS.383         	9.028          	7.454
MS.384         	9.01           	7.853
MS.385         	8.992          	7.555
MS.386         	8.975          	8.131
MS.387         	8.957          	7.555
MS.388         	8.938          	7.394
MS.389         	8.92           	7.511
MS.390         	8.903          	7.485
MS.391         	8.885          	7.368
MS.392         	8.867          	7.481
MS.393         	8.85           	7.406
MS.394         	8.832          	7.289
MS.395         	8.815          	6.929
MS.396         	8.797          	7.042
MS.397         	8.78           	7.261
MS.398         	8.762          	7.156
MS.399         	8.745          	7.118
MS.400         	8.727          	6.997
MS.401         	8.71           	6.798
MS.402         	8.693          	6.369
MS.403         	8.675          	6.574
MS.404         	8.658          	6.381
MS.405         	8.64           	6.524
MS.406         	8.622          	6.604
MS.407         	8.605          	6.363
MS.408         	8.587          	6.393
MS.409         	8.57           	6.282
MS.410         	8.555          	6.355
MS.411         	8.537          	6.234
MS.412         	8.52           	6.081
MS.413         	8.502          	6
MS.414         	8.485          	5.873
MS.415         	8.467          	6.163
MS.416         	8.452          	5.976
MS.417         	8.435          	5.998
MS.418         	8.417          	5.481
MS.419         	8.4            	5.217
MS.420         	8.385          	5.434
MS.421         	8.367          	5.247
MS.422         	8.35           	4.856
MS.423         	8.335          	4.959
MS.424         	8.318          	4.548
MS.425         	8.3            	4.417
MS.426         	8.285          	4.794
MS.427         	8.267          	4.578
MS.428         	8.252          	4.608
MS.429         	8.235          	4.246
MS.430         	8.217          	4.433
MS.431         	8.202          	4.004
MS.432         	8.185          	3.73
MS.433         	8.17           	4.135
MS.434         	8.153          	4.004
MS.435         	8.137          	4.079
MS.436         	8.12           	3.577
MS.437         	8.105          	3.837
MS.438         	8.087          	3.474
MS.439         	8.073          	3.67
MS.440         	8.055          	3.533
MS.441         	8.04           	3.325
MS.442         	8.023          	3.275
MS.443         	8.007          	3.327
MS.444         	7.992          	3.521
MS.445         	7.975          	3.428
MS.446         	7.96           	3.211
MS.447         	7.942          	3.037
MS.448         	7.927          	3.025
MS.449         	7.912          	2.802
MS.450         	7.895          	2.83
MS.451         	7.88           	2.683
MS.452         	7.865          	2.691
MS.453         	7.85           	2.651
MS.454         	7.832          	2.612
MS.455         	7.817          	2.63
MS.456         	7.802          	2.703
MS.457         	7.787          	2.32
MS.458         	7.77           	2.496
MS.459         	7.755          	2.248
MS.460         	7.74           	2.334
MS.461         	7.725          	2.262
MS.462         	7.71           	2.212
MS.463         	7.692          	2.393
MS.464         	7.677          	2.022
MS.465         	7.662          	2.185
MS.466         	7.648          	2.02
MS.467         	7.632          	1.829
MS.468         	7.617          	1.992
MS.469         	7.602          	2.01
MS.470         	7.587          	1.766
MS.471         	7.572          	1.811
MS.472         	7.555          	1.96
MS.473         	7.54           	1.418
MS.474         	7.525          	1.543
MS.475         	7.51           	1.682
MS.476         	7.495          	1.567
MS.477         	7.48           	1.478
MS.478         	7.465          	1.261
MS.479         	7.45           	1.503
MS.480         	7.438          	1.408
MS.481         	7.422          	1.402
MS.482         	7.407          	1.178
MS.483         	7.392          	1.275
MS.484         	7.378          	1.402
MS.485         	7.362          	1.168
MS.486         	7.347          	1.09
MS.487         	7.332          	1.116
MS.488         	7.317          	1.07
MS.489         	7.302          	1.068
MS.490         	7.29           	1.065
MS.491         	7.275          	0.987
MS.492         	7.26           	0.941
MS.493         	7.245          	1.029
MS.494         	7.23           	0.999
MS.495         	7.217          	0.816
MS.496         	7.202          	0.868
MS.497         	7.188          	0.82
MS.498         	7.172          	0.828
MS.499         	7.16           	0.852
MS.500         	7.145          	0.781
MS.501         	7.13           	0.369
