File:              	C:\Qtrac\Data\Daniel M Sørensen\MScan multicentre study\Data from centres\Bucharest\Processed data\TDLC00130B.QZD
Name:              	RO.BU.NC.3.1
Protocol:          	MSCAN-R2
Date:              	30/1/20
Start time:        	14:15:33
Age:               	31
Sex:               	M
Temperature:       	37.3
S/R sites:         	ADM
NC/disease:        	RONC3.1
Operator:          	TL
Comments:
M-SCAN DATA (8-0.9m)
Scanpts: 54, 60, 633, 669
Stim. (mA)     	Amp. (mV)
MS.1           	27             	9.606
MS.2           	27             	9.602
MS.3           	27             	9.581
MS.4           	27             	9.583
MS.5           	27             	9.606
MS.6           	27             	9.527
MS.7           	27             	9.602
MS.8           	27             	9.595
MS.9           	27             	9.553
MS.10          	27             	9.565
MS.11          	27             	9.62
MS.12          	27             	9.575
MS.13          	27             	9.612
MS.14          	27             	9.606
MS.15          	27             	9.622
MS.16          	27             	9.666
MS.17          	27             	9.694
MS.18          	27             	9.602
MS.19          	27             	9.64
MS.20          	27             	9.658
MS.21          	27             	9.682
MS.22          	27             	9.67
MS.23          	27             	9.692
MS.24          	26.892         	9.636
MS.25          	26.837         	9.644
MS.26          	26.785         	9.656
MS.27          	26.73          	9.688
MS.28          	26.677         	9.684
MS.29          	26.625         	9.638
MS.30          	26.573         	9.664
MS.31          	26.517         	9.668
MS.32          	26.465         	9.656
MS.33          	26.412         	9.678
MS.34          	26.36          	9.7
MS.35          	26.307         	9.718
MS.36          	26.255         	9.69
MS.37          	26.202         	9.684
MS.38          	26.15          	9.716
MS.39          	26.097         	9.692
MS.40          	26.045         	9.66
MS.41          	25.993         	9.714
MS.42          	25.94          	9.718
MS.43          	25.89          	9.658
MS.44          	25.837         	9.672
MS.45          	25.785         	9.672
MS.46          	25.735         	9.7
MS.47          	25.682         	9.708
MS.48          	25.632         	9.72
MS.49          	25.58          	9.763
MS.50          	25.53          	9.694
MS.51          	25.477         	9.714
MS.52          	25.427         	9.716
MS.53          	25.377         	9.72
MS.54          	25.325         	9.702
MS.55          	25.275         	9.7
MS.56          	25.225         	9.771
MS.57          	25.175         	9.724
MS.58          	25.125         	9.732
MS.59          	25.075         	9.69
MS.60          	25.025         	9.718
MS.61          	24.975         	9.726
MS.62          	24.925         	9.716
MS.63          	24.875         	9.714
MS.64          	24.825         	9.728
MS.65          	24.775         	9.745
MS.66          	24.725         	9.787
MS.67          	24.675         	9.736
MS.68          	24.627         	9.783
MS.69          	24.577         	9.755
MS.70          	24.528         	9.755
MS.71          	24.48          	9.747
MS.72          	24.43          	9.684
MS.73          	24.382         	9.74
MS.74          	24.332         	9.66
MS.75          	24.285         	9.714
MS.76          	24.235         	9.773
MS.77          	24.188         	9.656
MS.78          	24.14          	9.686
MS.79          	24.09          	9.704
MS.80          	24.042         	9.712
MS.81          	23.995         	9.706
MS.82          	23.948         	9.777
MS.83          	23.9           	9.722
MS.84          	23.85          	9.63
MS.85          	23.802         	9.747
MS.86          	23.755         	9.738
MS.87          	23.707         	9.702
MS.88          	23.66          	9.74
MS.89          	23.615         	9.736
MS.90          	23.567         	9.581
MS.91          	23.52          	9.696
MS.92          	23.472         	9.747
MS.93          	23.425         	9.595
MS.94          	23.38          	9.684
MS.95          	23.332         	9.666
MS.96          	23.285         	9.674
MS.97          	23.24          	9.658
MS.98          	23.192         	9.65
MS.99          	23.145         	9.704
MS.100         	23.1           	9.66
MS.101         	23.055         	9.698
MS.102         	23.007         	9.668
MS.103         	22.962         	9.684
MS.104         	22.915         	9.698
MS.105         	22.87          	9.644
MS.106         	22.825         	9.68
MS.107         	22.78          	9.662
MS.108         	22.733         	9.672
MS.109         	22.688         	9.579
MS.110         	22.642         	9.599
MS.111         	22.597         	9.628
MS.112         	22.552         	9.604
MS.113         	22.507         	9.587
MS.114         	22.462         	9.614
MS.115         	22.417         	9.597
MS.116         	22.372         	9.606
MS.117         	22.327         	9.563
MS.118         	22.282         	9.62
MS.119         	22.237         	9.636
MS.120         	22.195         	9.644
MS.121         	22.15          	9.666
MS.122         	22.105         	9.531
MS.123         	22.062         	9.616
MS.124         	22.017         	9.567
MS.125         	21.972         	9.648
MS.126         	21.93          	9.638
MS.127         	21.885         	9.569
MS.128         	21.842         	9.503
MS.129         	21.797         	9.654
MS.130         	21.755         	9.676
MS.131         	21.712         	9.521
MS.132         	21.667         	9.65
MS.133         	21.625         	9.545
MS.134         	21.583         	9.549
MS.135         	21.538         	9.539
MS.136         	21.495         	9.521
MS.137         	21.452         	9.561
MS.138         	21.41          	9.555
MS.139         	21.368         	9.581
MS.140         	21.325         	9.555
MS.141         	21.282         	9.531
MS.142         	21.24          	9.545
MS.143         	21.198         	9.595
MS.144         	21.155         	9.517
MS.145         	21.112         	9.559
MS.146         	21.07          	9.591
MS.147         	21.028         	9.551
MS.148         	20.985         	9.573
MS.149         	20.942         	9.511
MS.150         	20.903         	9.499
MS.151         	20.86          	9.555
MS.152         	20.817         	9.527
MS.153         	20.778         	9.507
MS.154         	20.735         	9.579
MS.155         	20.695         	9.587
MS.156         	20.653         	9.543
MS.157         	20.61          	9.585
MS.158         	20.57          	9.589
MS.159         	20.53          	9.587
MS.160         	20.487         	9.505
MS.161         	20.448         	9.541
MS.162         	20.405         	9.612
MS.163         	20.365         	9.569
MS.164         	20.325         	9.557
MS.165         	20.285         	9.525
MS.166         	20.243         	9.559
MS.167         	20.202         	9.533
MS.168         	20.163         	9.563
MS.169         	20.122         	9.561
MS.170         	20.083         	9.503
MS.171         	20.042         	9.519
MS.172         	20.002         	9.569
MS.173         	19.962         	9.527
MS.174         	19.922         	9.517
MS.175         	19.882         	9.555
MS.176         	19.842         	9.61
MS.177         	19.802         	9.509
MS.178         	19.762         	9.509
MS.179         	19.725         	9.535
MS.180         	19.685         	9.507
MS.181         	19.645         	9.553
MS.182         	19.605         	9.43
MS.183         	19.567         	9.533
MS.184         	19.528         	9.438
MS.185         	19.487         	9.473
MS.186         	19.45          	9.4
MS.187         	19.41          	9.475
MS.188         	19.372         	9.523
MS.189         	19.333         	9.45
MS.190         	19.295         	9.467
MS.191         	19.255         	9.541
MS.192         	19.217         	9.523
MS.193         	19.18          	9.481
MS.194         	19.14          	9.458
MS.195         	19.102         	9.43
MS.196         	19.065         	9.446
MS.197         	19.028         	9.358
MS.198         	18.987         	9.39
MS.199         	18.95          	9.41
MS.200         	18.913         	9.396
MS.201         	18.875         	9.285
MS.202         	18.837         	9.404
MS.203         	18.8           	9.41
MS.204         	18.762         	9.324
MS.205         	18.725         	9.364
MS.206         	18.688         	9.362
MS.207         	18.65          	9.376
MS.208         	18.612         	9.305
MS.209         	18.575         	9.277
MS.210         	18.538         	9.291
MS.211         	18.5           	9.235
MS.212         	18.465         	9.177
MS.213         	18.427         	9.086
MS.214         	18.39          	9.138
MS.215         	18.352         	9.118
MS.216         	18.317         	9.096
MS.217         	18.28          	9.086
MS.218         	18.245         	8.977
MS.219         	18.208         	9.062
MS.220         	18.17          	8.697
MS.221         	18.135         	8.987
MS.222         	18.097         	8.826
MS.223         	18.062         	8.796
MS.224         	18.028         	8.985
MS.225         	17.99          	8.949
MS.226         	17.955         	8.635
MS.227         	17.917         	8.498
MS.228         	17.882         	8.449
MS.229         	17.847         	8.683
MS.230         	17.812         	8.766
MS.231         	17.775         	8.56
MS.232         	17.74          	8.578
MS.233         	17.705         	8.532
MS.234         	17.67          	8.361
MS.235         	17.635         	8.482
MS.236         	17.6           	8.258
MS.237         	17.562         	8.411
MS.238         	17.528         	8.145
MS.239         	17.493         	8.139
MS.240         	17.458         	8.095
MS.241         	17.422         	8.121
MS.242         	17.39          	8.31
MS.243         	17.355         	7.96
MS.244         	17.32          	7.889
MS.245         	17.285         	8.143
MS.246         	17.25          	7.922
MS.247         	17.215         	7.904
MS.248         	17.182         	7.948
MS.249         	17.147         	7.875
MS.250         	17.112         	7.497
MS.251         	17.077         	7.66
MS.252         	17.045         	7.624
MS.253         	17.01          	7.533
MS.254         	16.977         	7.543
MS.255         	16.942         	7.42
MS.256         	16.91          	7.332
MS.257         	16.875         	7.221
MS.258         	16.842         	7.168
MS.259         	16.807         	7.108
MS.260         	16.775         	6.683
MS.261         	16.74          	7.106
MS.262         	16.708         	7.066
MS.263         	16.672         	6.832
MS.264         	16.64          	6.637
MS.265         	16.608         	6.502
MS.266         	16.575         	6.649
MS.267         	16.54          	6.161
MS.268         	16.507         	6.474
MS.269         	16.475         	6.538
MS.270         	16.442         	6.496
MS.271         	16.41          	6.361
MS.272         	16.378         	6.498
MS.273         	16.342         	6.228
MS.274         	16.31          	6.081
MS.275         	16.278         	6.244
MS.276         	16.245         	6.314
MS.277         	16.212         	6.101
MS.278         	16.18          	5.96
MS.279         	16.147         	6.026
MS.280         	16.118         	5.706
MS.281         	16.085         	5.899
MS.282         	16.052         	5.642
MS.283         	16.02          	5.63
MS.284         	15.987         	5.684
MS.285         	15.955         	5.734
MS.286         	15.925         	5.65
MS.287         	15.892         	5.523
MS.288         	15.86          	5.597
MS.289         	15.83          	5.432
MS.290         	15.797         	5.601
MS.291         	15.765         	5.412
MS.292         	15.735         	5.193
MS.293         	15.702         	5.104
MS.294         	15.672         	5.052
MS.295         	15.64          	5.027
MS.296         	15.61          	5.148
MS.297         	15.577         	4.755
MS.298         	15.547         	4.864
MS.299         	15.515         	4.673
MS.300         	15.485         	4.848
MS.301         	15.452         	4.592
MS.302         	15.422         	4.77
MS.303         	15.392         	4.933
MS.304         	15.36          	4.691
MS.305         	15.33          	4.409
MS.306         	15.3           	4.673
MS.307         	15.27          	4.639
MS.308         	15.237         	4.278
MS.309         	15.207         	4.431
MS.310         	15.177         	4.3
MS.311         	15.148         	4.496
MS.312         	15.117         	4.141
MS.313         	15.087         	4.363
MS.314         	15.057         	4.145
MS.315         	15.027         	4.097
MS.316         	14.997         	4.288
MS.317         	14.967         	4.105
MS.318         	14.938         	4.028
MS.319         	14.907         	3.863
MS.320         	14.877         	3.966
MS.321         	14.847         	3.839
MS.322         	14.818         	3.946
MS.323         	14.787         	3.847
MS.324         	14.757         	3.462
MS.325         	14.73          	3.638
MS.326         	14.7           	3.865
MS.327         	14.67          	3.658
MS.328         	14.64          	3.843
MS.329         	14.612         	3.378
MS.330         	14.582         	3.511
MS.331         	14.552         	3.545
MS.332         	14.525         	3.458
MS.333         	14.495         	3.279
MS.334         	14.467         	3.287
MS.335         	14.438         	3.221
MS.336         	14.407         	3.209
MS.337         	14.38          	3.186
MS.338         	14.35          	3.146
MS.339         	14.322         	3.102
MS.340         	14.295         	2.951
MS.341         	14.265         	3.166
MS.342         	14.237         	3.41
MS.343         	14.207         	3.06
MS.344         	14.18          	3.162
MS.345         	14.153         	3.011
MS.346         	14.122         	3.07
MS.347         	14.095         	2.812
MS.348         	14.068         	3.053
MS.349         	14.04          	3.057
MS.350         	14.01          	2.925
MS.351         	13.983         	3.084
MS.352         	13.955         	2.945
MS.353         	13.927         	2.892
MS.354         	13.9           	2.917
MS.355         	13.872         	2.894
MS.356         	13.842         	2.769
MS.357         	13.815         	2.808
MS.358         	13.787         	2.689
MS.359         	13.76          	2.749
MS.360         	13.733         	2.683
MS.361         	13.705         	2.739
MS.362         	13.677         	2.596
MS.363         	13.653         	2.58
MS.364         	13.625         	2.536
MS.365         	13.597         	2.689
MS.366         	13.57          	2.506
MS.367         	13.542         	2.616
MS.368         	13.515         	2.548
MS.369         	13.487         	2.5
MS.370         	13.462         	2.417
MS.371         	13.435         	2.548
MS.372         	13.407         	2.626
MS.373         	13.38          	2.435
MS.374         	13.355         	2.614
MS.375         	13.327         	2.407
MS.376         	13.3           	2.483
MS.377         	13.275         	2.504
MS.378         	13.247         	2.449
MS.379         	13.222         	2.34
MS.380         	13.195         	2.471
MS.381         	13.167         	2.475
MS.382         	13.142         	2.449
MS.383         	13.115         	2.346
MS.384         	13.09          	2.294
MS.385         	13.062         	2.393
MS.386         	13.037         	2.302
MS.387         	13.012         	2.304
MS.388         	12.985         	2.272
MS.389         	12.96          	2.316
MS.390         	12.932         	2.226
MS.391         	12.907         	2.33
MS.392         	12.882         	2.252
MS.393         	12.858         	2.248
MS.394         	12.83          	2.258
MS.395         	12.805         	2.214
MS.396         	12.78          	2.34
MS.397         	12.755         	2.224
MS.398         	12.727         	2.212
MS.399         	12.702         	2.113
MS.400         	12.677         	2.226
MS.401         	12.653         	2.177
MS.402         	12.627         	2.034
MS.403         	12.602         	2.075
MS.404         	12.577         	2.093
MS.405         	12.552         	2.089
MS.406         	12.528         	2.062
MS.407         	12.502         	1.982
MS.408         	12.477         	1.966
MS.409         	12.452         	1.909
MS.410         	12.427         	1.938
MS.411         	12.403         	1.901
MS.412         	12.377         	1.768
MS.413         	12.352         	2.085
MS.414         	12.327         	1.722
MS.415         	12.302         	1.762
MS.416         	12.278         	1.722
MS.417         	12.255         	1.613
MS.418         	12.23          	1.42
MS.419         	12.205         	1.664
MS.420         	12.18          	1.666
MS.421         	12.155         	1.776
MS.422         	12.132         	1.458
MS.423         	12.108         	1.358
MS.424         	12.082         	1.452
MS.425         	12.06          	1.178
MS.426         	12.035         	1.762
MS.427         	12.01          	1.17
MS.428         	11.988         	1.376
MS.429         	11.962         	1.289
MS.430         	11.94          	1.096
MS.431         	11.915         	1.49
MS.432         	11.892         	1.424
MS.433         	11.867         	1.309
MS.434         	11.845         	1.339
MS.435         	11.82          	1.339
MS.436         	11.797         	1.072
MS.437         	11.773         	1.323
MS.438         	11.75          	1.17
MS.439         	11.727         	1.033
MS.440         	11.702         	1.142
MS.441         	11.68          	0.987
MS.442         	11.655         	1.11
MS.443         	11.632         	1.106
MS.444         	11.61          	0.995
MS.445         	11.587         	0.824
MS.446         	11.562         	0.969
MS.447         	11.54          	1.253
MS.448         	11.517         	0.92
MS.449         	11.495         	0.886
MS.450         	11.47          	1.041
MS.451         	11.447         	0.927
MS.452         	11.425         	1.194
MS.453         	11.403         	0.691
MS.454         	11.38          	0.784
MS.455         	11.358         	0.701
MS.456         	11.335         	0.608
MS.457         	11.312         	0.723
MS.458         	11.29          	0.647
MS.459         	11.267         	0.6
MS.460         	11.245         	0.57
MS.461         	11.222         	0.514
MS.462         	11.2           	0.522
MS.463         	11.177         	0.584
MS.464         	11.155         	0.491
MS.465         	11.132         	0.703
MS.466         	11.11          	0.493
MS.467         	11.087         	0.471
MS.468         	11.065         	0.389
MS.469         	11.042         	0.564
MS.470         	11.023         	0.445
MS.471         	11             	0.427
MS.472         	10.977         	0.314
MS.473         	10.955         	0.393
MS.474         	10.932         	0.359
MS.475         	10.912         	0.294
MS.476         	10.89          	0.328
MS.477         	10.867         	0.385
MS.478         	10.847         	0.387
MS.479         	10.825         	0.272
MS.480         	10.802         	0.284
MS.481         	10.782         	0.314
MS.482         	10.76          	0.294
MS.483         	10.738         	0.31
MS.484         	10.717         	0.32
MS.485         	10.695         	0.326
MS.486         	10.675         	0.23
MS.487         	10.653         	0.254
MS.488         	10.632         	0.226
MS.489         	10.61          	0.274
MS.490         	10.59          	0.236
MS.491         	10.568         	0.159
MS.492         	10.547         	0.207
MS.493         	10.525         	0.32
MS.494         	10.505         	0.171
MS.495         	10.485         	0.163
MS.496         	10.462         	0.183
MS.497         	10.443         	0.203
MS.498         	10.42          	0.141
MS.499         	10.4           	0.181
MS.500         	10.38          	0.193
MS.501         	10.36          	0.163
