File:              	C:\Qtrac\Data\Daniel M Sørensen\MScan multicentre study\Data from centres\Bucharest\Processed data\TDLC00302B.QZD
Name:              	RO.BU.NC.4.2
Protocol:          	MSCAN-R2
Date:              	2/3/20
Start time:        	14:20:58
Age:               	28
Sex:               	M
Temperature:       	36.6
S/R sites:         	ADM
NC/disease:        	RONC4.2
Operator:          	TL
Comments:
M-SCAN DATA (8.3-0.8m)
Scanpts: 65, 72, 772, 794
Stim. (mA)     	Amp. (mV)
MS.1           	28.5           	8.244
MS.2           	29             	8.252
MS.3           	29             	8.218
MS.4           	29             	8.194
MS.5           	29             	8.194
MS.6           	29             	8.186
MS.7           	29             	8.204
MS.8           	29             	8.2
MS.9           	29             	8.182
MS.10          	29             	8.18
MS.11          	29             	8.206
MS.12          	29             	8.2
MS.13          	29             	8.208
MS.14          	29             	8.198
MS.15          	29             	8.208
MS.16          	29             	8.204
MS.17          	29             	8.2
MS.18          	29             	8.196
MS.19          	29             	8.22
MS.20          	29             	8.188
MS.21          	29             	8.177
MS.22          	29             	8.196
MS.23          	29             	8.192
MS.24          	28.885         	8.2
MS.25          	28.827         	8.218
MS.26          	28.77          	8.192
MS.27          	28.712         	8.194
MS.28          	28.655         	8.214
MS.29          	28.597         	8.196
MS.30          	28.54          	8.212
MS.31          	28.483         	8.196
MS.32          	28.425         	8.165
MS.33          	28.37          	8.19
MS.34          	28.312         	8.192
MS.35          	28.255         	8.19
MS.36          	28.2           	8.208
MS.37          	28.142         	8.192
MS.38          	28.087         	8.196
MS.39          	28.03          	8.198
MS.40          	27.975         	8.18
MS.41          	27.917         	8.208
MS.42          	27.862         	8.182
MS.43          	27.807         	8.184
MS.44          	27.752         	8.157
MS.45          	27.695         	8.161
MS.46          	27.64          	8.173
MS.47          	27.585         	8.159
MS.48          	27.53          	8.186
MS.49          	27.475         	8.169
MS.50          	27.42          	8.165
MS.51          	27.365         	8.151
MS.52          	27.31          	8.169
MS.53          	27.257         	8.155
MS.54          	27.202         	8.155
MS.55          	27.147         	8.19
MS.56          	27.092         	8.157
MS.57          	27.04          	8.151
MS.58          	26.985         	8.159
MS.59          	26.932         	8.188
MS.60          	26.877         	8.161
MS.61          	26.825         	8.169
MS.62          	26.77          	8.157
MS.63          	26.717         	8.157
MS.64          	26.662         	8.141
MS.65          	26.61          	8.159
MS.66          	26.557         	8.129
MS.67          	26.505         	8.149
MS.68          	26.45          	8.161
MS.69          	26.397         	8.161
MS.70          	26.345         	8.151
MS.71          	26.292         	8.157
MS.72          	26.24          	8.149
MS.73          	26.188         	8.157
MS.74          	26.135         	8.155
MS.75          	26.082         	8.147
MS.76          	26.03          	8.143
MS.77          	25.98          	8.149
MS.78          	25.927         	8.127
MS.79          	25.875         	8.161
MS.80          	25.823         	8.117
MS.81          	25.772         	8.131
MS.82          	25.72          	8.129
MS.83          	25.67          	8.115
MS.84          	25.618         	8.125
MS.85          	25.567         	8.139
MS.86          	25.515         	8.135
MS.87          	25.465         	8.135
MS.88          	25.415         	8.105
MS.89          	25.362         	8.123
MS.90          	25.312         	8.105
MS.91          	25.262         	8.099
MS.92          	25.212         	8.119
MS.93          	25.16          	8.117
MS.94          	25.11          	8.091
MS.95          	25.06          	8.107
MS.96          	25.01          	8.101
MS.97          	24.96          	8.129
MS.98          	24.91          	8.137
MS.99          	24.86          	8.117
MS.100         	24.81          	8.109
MS.101         	24.762         	8.115
MS.102         	24.712         	8.121
MS.103         	24.663         	8.137
MS.104         	24.612         	8.133
MS.105         	24.565         	8.147
MS.106         	24.515         	8.129
MS.107         	24.465         	8.107
MS.108         	24.417         	8.109
MS.109         	24.368         	8.109
MS.110         	24.32          	8.123
MS.111         	24.27          	8.103
MS.112         	24.222         	8.119
MS.113         	24.175         	8.123
MS.114         	24.125         	8.139
MS.115         	24.077         	8.101
MS.116         	24.03          	8.099
MS.117         	23.983         	8.125
MS.118         	23.935         	8.083
MS.119         	23.885         	8.109
MS.120         	23.837         	8.133
MS.121         	23.79          	8.125
MS.122         	23.743         	8.129
MS.123         	23.695         	8.111
MS.124         	23.647         	8.135
MS.125         	23.6           	8.117
MS.126         	23.555         	8.123
MS.127         	23.507         	8.095
MS.128         	23.46          	8.127
MS.129         	23.413         	8.095
MS.130         	23.365         	8.097
MS.131         	23.32          	8.129
MS.132         	23.272         	8.089
MS.133         	23.227         	8.091
MS.134         	23.18          	8.089
MS.135         	23.132         	8.103
MS.136         	23.087         	8.093
MS.137         	23.042         	8.081
MS.138         	22.995         	8.081
MS.139         	22.95          	8.097
MS.140         	22.903         	8.121
MS.141         	22.858         	8.085
MS.142         	22.812         	8.083
MS.143         	22.767         	8.075
MS.144         	22.72          	8.093
MS.145         	22.675         	8.085
MS.146         	22.63          	8.083
MS.147         	22.585         	8.087
MS.148         	22.54          	8.095
MS.149         	22.495         	8.093
MS.150         	22.45          	8.103
MS.151         	22.405         	8.093
MS.152         	22.36          	8.101
MS.153         	22.315         	8.113
MS.154         	22.27          	8.081
MS.155         	22.227         	8.113
MS.156         	22.182         	8.115
MS.157         	22.137         	8.121
MS.158         	22.092         	8.133
MS.159         	22.05          	8.125
MS.160         	22.005         	8.099
MS.161         	21.962         	8.125
MS.162         	21.917         	8.103
MS.163         	21.875         	8.055
MS.164         	21.83          	8.109
MS.165         	21.788         	8.075
MS.166         	21.743         	8.123
MS.167         	21.7           	8.077
MS.168         	21.655         	8.103
MS.169         	21.612         	8.123
MS.170         	21.57          	8.071
MS.171         	21.528         	8.091
MS.172         	21.483         	8.043
MS.173         	21.44          	8.119
MS.174         	21.397         	8.093
MS.175         	21.355         	8.059
MS.176         	21.312         	8.109
MS.177         	21.27          	8.053
MS.178         	21.227         	8.053
MS.179         	21.185         	8.051
MS.180         	21.142         	8.036
MS.181         	21.1           	8.073
MS.182         	21.057         	8.01
MS.183         	21.015         	8.133
MS.184         	20.975         	8.041
MS.185         	20.932         	8.002
MS.186         	20.89          	8.057
MS.187         	20.847         	8.026
MS.188         	20.807         	8.077
MS.189         	20.765         	8.067
MS.190         	20.725         	8.012
MS.191         	20.682         	8.055
MS.192         	20.642         	8.061
MS.193         	20.6           	8.049
MS.194         	20.56          	8.032
MS.195         	20.517         	8.059
MS.196         	20.477         	8.012
MS.197         	20.435         	8.043
MS.198         	20.395         	8.043
MS.199         	20.355         	8.01
MS.200         	20.312         	8.014
MS.201         	20.272         	8.024
MS.202         	20.233         	7.982
MS.203         	20.192         	8.028
MS.204         	20.153         	7.97
MS.205         	20.112         	8.02
MS.206         	20.073         	8.026
MS.207         	20.03          	7.95
MS.208         	19.99          	8.022
MS.209         	19.952         	7.99
MS.210         	19.913         	7.99
MS.211         	19.872         	7.97
MS.212         	19.833         	7.946
MS.213         	19.792         	7.952
MS.214         	19.752         	7.928
MS.215         	19.712         	7.964
MS.216         	19.675         	7.891
MS.217         	19.635         	7.908
MS.218         	19.595         	7.865
MS.219         	19.555         	7.958
MS.220         	19.517         	7.938
MS.221         	19.477         	7.934
MS.222         	19.44          	7.908
MS.223         	19.4           	7.815
MS.224         	19.362         	7.851
MS.225         	19.323         	7.855
MS.226         	19.285         	7.857
MS.227         	19.245         	7.869
MS.228         	19.208         	7.841
MS.229         	19.17          	7.877
MS.230         	19.13          	7.855
MS.231         	19.092         	7.861
MS.232         	19.055         	7.881
MS.233         	19.015         	7.855
MS.234         	18.977         	7.825
MS.235         	18.94          	7.837
MS.236         	18.903         	7.847
MS.237         	18.865         	7.813
MS.238         	18.827         	7.801
MS.239         	18.79          	7.871
MS.240         	18.753         	7.809
MS.241         	18.715         	7.845
MS.242         	18.677         	7.829
MS.243         	18.64          	7.789
MS.244         	18.602         	7.791
MS.245         	18.565         	7.803
MS.246         	18.528         	7.793
MS.247         	18.49          	7.865
MS.248         	18.455         	7.807
MS.249         	18.417         	7.867
MS.250         	18.38          	7.726
MS.251         	18.345         	7.748
MS.252         	18.307         	7.626
MS.253         	18.27          	7.734
MS.254         	18.235         	7.7
MS.255         	18.198         	7.607
MS.256         	18.163         	7.616
MS.257         	18.125         	7.718
MS.258         	18.09          	7.583
MS.259         	18.052         	7.581
MS.260         	18.017         	7.603
MS.261         	17.98          	7.716
MS.262         	17.945         	7.469
MS.263         	17.91          	7.624
MS.264         	17.872         	7.535
MS.265         	17.837         	7.503
MS.266         	17.802         	7.438
MS.267         	17.765         	7.624
MS.268         	17.73          	7.418
MS.269         	17.695         	7.402
MS.270         	17.66          	7.305
MS.271         	17.625         	7.4
MS.272         	17.59          	7.39
MS.273         	17.555         	7.328
MS.274         	17.52          	7.432
MS.275         	17.485         	7.33
MS.276         	17.45          	7.489
MS.277         	17.415         	7.358
MS.278         	17.38          	7.396
MS.279         	17.345         	7.235
MS.280         	17.31          	7.334
MS.281         	17.275         	7.422
MS.282         	17.24          	7.291
MS.283         	17.208         	7.326
MS.284         	17.172         	7.323
MS.285         	17.137         	7.279
MS.286         	17.102         	7.275
MS.287         	17.07          	7.273
MS.288         	17.035         	7.334
MS.289         	17.003         	7.283
MS.290         	16.967         	7.275
MS.291         	16.932         	7.317
MS.292         	16.9           	7.239
MS.293         	16.865         	7.33
MS.294         	16.833         	7.166
MS.295         	16.797         	7.197
MS.296         	16.765         	7.315
MS.297         	16.733         	7.201
MS.298         	16.698         	7.223
MS.299         	16.665         	7.237
MS.300         	16.632         	7.068
MS.301         	16.597         	7.18
MS.302         	16.565         	7.136
MS.303         	16.532         	7.217
MS.304         	16.5           	7.201
MS.305         	16.465         	7.213
MS.306         	16.432         	7.048
MS.307         	16.4           	6.937
MS.308         	16.368         	7.1
MS.309         	16.335         	6.911
MS.310         	16.302         	7.064
MS.311         	16.27          	7.078
MS.312         	16.237         	6.903
MS.313         	16.205         	6.901
MS.314         	16.172         	7.003
MS.315         	16.14          	7.074
MS.316         	16.108         	7.088
MS.317         	16.075         	6.858
MS.318         	16.042         	6.715
MS.319         	16.012         	6.911
MS.320         	15.98          	6.838
MS.321         	15.947         	6.707
MS.322         	15.915         	6.772
MS.323         	15.882         	6.882
MS.324         	15.852         	6.755
MS.325         	15.82          	6.802
MS.326         	15.787         	6.796
MS.327         	15.757         	6.713
MS.328         	15.725         	6.623
MS.329         	15.695         	6.544
MS.330         	15.662         	6.604
MS.331         	15.632         	6.586
MS.332         	15.6           	6.429
MS.333         	15.57          	6.492
MS.334         	15.537         	6.274
MS.335         	15.507         	6.133
MS.336         	15.475         	6.314
MS.337         	15.445         	6.413
MS.338         	15.415         	6.242
MS.339         	15.382         	6.044
MS.340         	15.352         	6.212
MS.341         	15.322         	6.014
MS.342         	15.292         	5.763
MS.343         	15.26          	5.795
MS.344         	15.23          	5.881
MS.345         	15.2           	5.918
MS.346         	15.17          	5.819
MS.347         	15.14          	5.708
MS.348         	15.11          	5.867
MS.349         	15.08          	5.398
MS.350         	15.047         	5.585
MS.351         	15.017         	5.36
MS.352         	14.987         	5.47
MS.353         	14.957         	5.414
MS.354         	14.93          	5.358
MS.355         	14.9           	5.331
MS.356         	14.87          	5.483
MS.357         	14.84          	5.331
MS.358         	14.81          	5.481
MS.359         	14.78          	5.342
MS.360         	14.75          	5.029
MS.361         	14.722         	5.132
MS.362         	14.693         	5.005
MS.363         	14.662         	5.201
MS.364         	14.632         	4.947
MS.365         	14.605         	5.072
MS.366         	14.575         	4.89
MS.367         	14.545         	4.832
MS.368         	14.517         	4.963
MS.369         	14.487         	4.844
MS.370         	14.457         	4.772
MS.371         	14.43          	4.699
MS.372         	14.4           	4.58
MS.373         	14.372         	4.528
MS.374         	14.342         	4.107
MS.375         	14.315         	4.212
MS.376         	14.285         	3.829
MS.377         	14.257         	3.752
MS.378         	14.23          	3.738
MS.379         	14.2           	3.928
MS.380         	14.172         	3.795
MS.381         	14.145         	3.599
MS.382         	14.115         	3.561
MS.383         	14.087         	3.583
MS.384         	14.06          	3.559
MS.385         	14.032         	3.356
MS.386         	14.002         	3.458
MS.387         	13.975         	3.611
MS.388         	13.947         	3.213
MS.389         	13.92          	3.229
MS.390         	13.892         	3.174
MS.391         	13.865         	3.11
MS.392         	13.837         	3.136
MS.393         	13.807         	3.08
MS.394         	13.78          	3.134
MS.395         	13.752         	2.731
MS.396         	13.725         	2.79
MS.397         	13.697         	2.614
MS.398         	13.67          	2.475
MS.399         	13.645         	2.804
MS.400         	13.617         	2.626
MS.401         	13.59          	2.628
MS.402         	13.562         	2.437
MS.403         	13.535         	2.369
MS.404         	13.507         	2.55
MS.405         	13.48          	2.399
MS.406         	13.455         	2.298
MS.407         	13.427         	2.381
MS.408         	13.4           	2.437
MS.409         	13.372         	2.226
MS.410         	13.347         	2.435
MS.411         	13.32          	2.167
MS.412         	13.292         	2.224
MS.413         	13.267         	2.06
MS.414         	13.24          	2.012
MS.415         	13.215         	2.099
MS.416         	13.188         	2.079
MS.417         	13.162         	2.113
MS.418         	13.135         	2.034
MS.419         	13.11          	1.966
MS.420         	13.082         	1.883
MS.421         	13.057         	1.861
MS.422         	13.03          	1.801
MS.423         	13.005         	1.787
MS.424         	12.977         	1.652
MS.425         	12.952         	1.617
MS.426         	12.927         	1.495
MS.427         	12.9           	1.519
MS.428         	12.875         	1.43
MS.429         	12.85          	1.4
MS.430         	12.822         	1.47
MS.431         	12.797         	1.499
MS.432         	12.773         	1.499
MS.433         	12.747         	1.194
MS.434         	12.722         	1.279
MS.435         	12.695         	1.2
MS.436         	12.67          	1.146
MS.437         	12.645         	1.263
MS.438         	12.62          	1.206
MS.439         	12.595         	1.335
MS.440         	12.57          	1.202
MS.441         	12.545         	1.134
MS.442         	12.52          	1.072
MS.443         	12.495         	1.011
MS.444         	12.47          	1.287
MS.445         	12.445         	1.152
MS.446         	12.42          	0.951
MS.447         	12.395         	0.973
MS.448         	12.37          	0.951
MS.449         	12.345         	1.098
MS.450         	12.32          	1.1
MS.451         	12.295         	0.924
MS.452         	12.273         	1.013
MS.453         	12.247         	0.89
MS.454         	12.222         	0.743
MS.455         	12.197         	0.689
MS.456         	12.175         	0.786
MS.457         	12.15          	0.781
MS.458         	12.125         	0.765
MS.459         	12.1           	0.53
MS.460         	12.077         	0.711
MS.461         	12.052         	0.731
MS.462         	12.028         	0.691
MS.463         	12.005         	0.56
MS.464         	11.98          	0.574
MS.465         	11.957         	0.651
MS.466         	11.932         	0.598
MS.467         	11.91          	0.497
MS.468         	11.885         	0.643
MS.469         	11.863         	0.596
MS.470         	11.837         	0.437
MS.471         	11.815         	0.481
MS.472         	11.79          	0.413
MS.473         	11.767         	0.465
MS.474         	11.742         	0.455
MS.475         	11.72          	0.397
MS.476         	11.697         	0.342
MS.477         	11.672         	0.485
MS.478         	11.65          	0.415
MS.479         	11.627         	0.419
MS.480         	11.602         	0.381
MS.481         	11.58          	0.367
MS.482         	11.557         	0.361
MS.483         	11.535         	0.314
MS.484         	11.51          	0.29
MS.485         	11.488         	0.338
MS.486         	11.465         	0.266
MS.487         	11.443         	0.28
MS.488         	11.42          	0.32
MS.489         	11.398         	0.27
MS.490         	11.372         	0.22
MS.491         	11.35          	0.246
MS.492         	11.327         	0.274
MS.493         	11.305         	0.22
MS.494         	11.282         	0.205
MS.495         	11.26          	0.25
MS.496         	11.238         	0.185
MS.497         	11.215         	0.238
MS.498         	11.193         	0.226
MS.499         	11.17          	0.157
MS.500         	11.148         	0.244
MS.501         	11.125         	0.209
