File:              	C:\Qtrac\Data\Daniel M Sørensen\MScan multicentre study\Data from centres\Bucharest\Processed data\TDLC00921A.QZD
Name:              	RO.BU.NC.6.2
Protocol:          	MSCAN-R2
Date:              	21/9/20
Start time:        	14:17:33
Age:               	48
Sex:               	F
Temperature:       	36.2
S/R sites:         	APB
NC/disease:        	NC
Operator:          	TL
Comments:          	RONC6.2.
M-SCAN DATA (5.6-1m)
Scanpts: 112, 118, 477, 499
Stim. (mA)     	Amp. (mV)
MS.1           	25.5           	8.234
MS.2           	25.5           	8.234
MS.3           	25.5           	8.226
MS.4           	25.5           	8.228
MS.5           	25.5           	8.224
MS.6           	25.5           	8.232
MS.7           	25.5           	8.226
MS.8           	25.5           	8.23
MS.9           	25.5           	8.24
MS.10          	25.5           	8.236
MS.11          	25.5           	8.24
MS.12          	25.5           	8.228
MS.13          	25.5           	8.234
MS.14          	25.5           	8.25
MS.15          	25.5           	8.256
MS.16          	25.5           	8.256
MS.17          	25.5           	8.26
MS.18          	25.5           	8.268
MS.19          	25.5           	8.282
MS.20          	25.5           	8.286
MS.21          	25.5           	8.274
MS.22          	25.5           	8.268
MS.23          	25.5           	8.28
MS.24          	25.397         	8.282
MS.25          	25.347         	8.294
MS.26          	25.297         	8.286
MS.27          	25.245         	8.272
MS.28          	25.195         	8.294
MS.29          	25.145         	8.272
MS.30          	25.095         	8.284
MS.31          	25.045         	8.302
MS.32          	24.995         	8.31
MS.33          	24.945         	8.288
MS.34          	24.895         	8.304
MS.35          	24.845         	8.304
MS.36          	24.795         	8.31
MS.37          	24.747         	8.316
MS.38          	24.698         	8.292
MS.39          	24.647         	8.284
MS.40          	24.597         	8.288
MS.41          	24.55          	8.294
MS.42          	24.5           	8.29
MS.43          	24.45          	8.282
MS.44          	24.403         	8.284
MS.45          	24.352         	8.294
MS.46          	24.305         	8.28
MS.47          	24.257         	8.282
MS.48          	24.207         	8.268
MS.49          	24.16          	8.284
MS.50          	24.11          	8.29
MS.51          	24.062         	8.292
MS.52          	24.015         	8.286
MS.53          	23.967         	8.3
MS.54          	23.92          	8.286
MS.55          	23.87          	8.29
MS.56          	23.823         	8.28
MS.57          	23.775         	8.28
MS.58          	23.727         	8.284
MS.59          	23.68          	8.282
MS.60          	23.632         	8.308
MS.61          	23.587         	8.272
MS.62          	23.54          	8.28
MS.63          	23.493         	8.288
MS.64          	23.445         	8.292
MS.65          	23.397         	8.288
MS.66          	23.352         	8.284
MS.67          	23.305         	8.276
MS.68          	23.257         	8.288
MS.69          	23.212         	8.294
MS.70          	23.165         	8.31
MS.71          	23.12          	8.288
MS.72          	23.073         	8.31
MS.73          	23.028         	8.306
MS.74          	22.98          	8.306
MS.75          	22.935         	8.294
MS.76          	22.89          	8.314
MS.77          	22.842         	8.212
MS.78          	22.797         	8.292
MS.79          	22.752         	8.32
MS.80          	22.707         	8.246
MS.81          	22.663         	8.314
MS.82          	22.618         	8.318
MS.83          	22.57          	8.242
MS.84          	22.525         	8.29
MS.85          	22.48          	8.238
MS.86          	22.435         	8.327
MS.87          	22.392         	8.327
MS.88          	22.347         	8.288
MS.89          	22.302         	8.2
MS.90          	22.257         	8.206
MS.91          	22.212         	8.24
MS.92          	22.167         	8.228
MS.93          	22.125         	8.198
MS.94          	22.08          	8.2
MS.95          	22.035         	8.29
MS.96          	21.993         	8.212
MS.97          	21.948         	8.218
MS.98          	21.905         	8.21
MS.99          	21.86          	8.212
MS.100         	21.817         	8.206
MS.101         	21.772         	8.246
MS.102         	21.73          	8.22
MS.103         	21.685         	8.224
MS.104         	21.642         	8.212
MS.105         	21.6           	8.216
MS.106         	21.557         	8.224
MS.107         	21.512         	8.23
MS.108         	21.47          	8.24
MS.109         	21.427         	8.24
MS.110         	21.385         	8.236
MS.111         	21.342         	8.232
MS.112         	21.3           	8.222
MS.113         	21.257         	8.238
MS.114         	21.215         	8.246
MS.115         	21.172         	8.242
MS.116         	21.13          	8.254
MS.117         	21.087         	8.238
MS.118         	21.045         	8.234
MS.119         	21.002         	8.252
MS.120         	20.96          	8.232
MS.121         	20.92          	8.21
MS.122         	20.877         	8.25
MS.123         	20.835         	8.244
MS.124         	20.795         	8.236
MS.125         	20.752         	8.216
MS.126         	20.71          	8.216
MS.127         	20.67          	8.194
MS.128         	20.627         	8.272
MS.129         	20.587         	8.258
MS.130         	20.545         	8.23
MS.131         	20.505         	8.246
MS.132         	20.465         	8.244
MS.133         	20.422         	8.21
MS.134         	20.382         	7.62
MS.135         	20.342         	7.573
MS.136         	20.3           	8.21
MS.137         	20.26          	8.216
MS.138         	20.22          	8.214
MS.139         	20.18          	8.212
MS.140         	20.14          	8.182
MS.141         	20.1           	8.256
MS.142         	20.06          	7.569
MS.143         	20.02          	7.579
MS.144         	19.98          	7.571
MS.145         	19.94          	7.575
MS.146         	19.9           	7.549
MS.147         	19.86          	7.579
MS.148         	19.82          	7.583
MS.149         	19.78          	7.583
MS.150         	19.74          	7.573
MS.151         	19.7           	7.577
MS.152         	19.663         	7.577
MS.153         	19.622         	7.585
MS.154         	19.583         	8.19
MS.155         	19.545         	7.577
MS.156         	19.505         	7.589
MS.157         	19.465         	7.569
MS.158         	19.427         	7.589
MS.159         	19.387         	7.599
MS.160         	19.35          	7.589
MS.161         	19.31          	7.575
MS.162         	19.272         	7.585
MS.163         	19.235         	7.587
MS.164         	19.195         	7.595
MS.165         	19.157         	7.595
MS.166         	19.12          	7.533
MS.167         	19.08          	7.609
MS.168         	19.042         	7.595
MS.169         	19.005         	7.529
MS.170         	18.967         	7.589
MS.171         	18.927         	7.521
MS.172         	18.89          	7.551
MS.173         	18.852         	7.581
MS.174         	18.815         	7.535
MS.175         	18.778         	7.446
MS.176         	18.74          	7.555
MS.177         	18.702         	7.555
MS.178         	18.665         	7.62
MS.179         	18.628         	7.491
MS.180         	18.59          	7.319
MS.181         	18.555         	7.541
MS.182         	18.517         	7.251
MS.183         	18.48          	7.521
MS.184         	18.442         	7.213
MS.185         	18.405         	7.211
MS.186         	18.37          	7.279
MS.187         	18.333         	6.953
MS.188         	18.295         	7.207
MS.189         	18.26          	7.213
MS.190         	18.222         	7.142
MS.191         	18.188         	6.981
MS.192         	18.15          	6.886
MS.193         	18.115         	7.035
MS.194         	18.077         	6.969
MS.195         	18.042         	7.13
MS.196         	18.005         	6.838
MS.197         	17.97          	6.882
MS.198         	17.932         	7.001
MS.199         	17.897         	6.578
MS.200         	17.862         	6.659
MS.201         	17.827         	6.866
MS.202         	17.79          	6.556
MS.203         	17.755         	6.673
MS.204         	17.72          	6.578
MS.205         	17.685         	6.556
MS.206         	17.65          	6.457
MS.207         	17.612         	6.409
MS.208         	17.577         	6.508
MS.209         	17.542         	6.56
MS.210         	17.507         	6.363
MS.211         	17.472         	6.54
MS.212         	17.438         	6.564
MS.213         	17.403         	6.002
MS.214         	17.37          	6.494
MS.215         	17.335         	6.552
MS.216         	17.3           	5.924
MS.217         	17.265         	5.904
MS.218         	17.23          	6.065
MS.219         	17.195         	6.153
MS.220         	17.163         	6.276
MS.221         	17.128         	5.875
MS.222         	17.092         	5.996
MS.223         	17.06          	5.91
MS.224         	17.025         	5.837
MS.225         	16.99          	5.936
MS.226         	16.958         	5.716
MS.227         	16.922         	5.581
MS.228         	16.89          	5.479
MS.229         	16.855         	5.841
MS.230         	16.823         	5.323
MS.231         	16.788         	5.746
MS.232         	16.755         	5.43
MS.233         	16.72          	5.033
MS.234         	16.688         	5.658
MS.235         	16.655         	5.358
MS.236         	16.62          	5.124
MS.237         	16.587         	5.144
MS.238         	16.555         	4.981
MS.239         	16.522         	5.313
MS.240         	16.487         	5.019
MS.241         	16.455         	4.904
MS.242         	16.422         	4.983
MS.243         	16.39          	4.933
MS.244         	16.358         	4.844
MS.245         	16.325         	4.898
MS.246         	16.292         	4.898
MS.247         	16.26          	4.9
MS.248         	16.227         	4.9
MS.249         	16.195         	4.89
MS.250         	16.163         	4.844
MS.251         	16.13          	4.784
MS.252         	16.097         	4.766
MS.253         	16.065         	4.683
MS.254         	16.032         	4.562
MS.255         	16.003         	4.745
MS.256         	15.97          	4.774
MS.257         	15.938         	4.564
MS.258         	15.905         	4.62
MS.259         	15.875         	4.435
MS.260         	15.842         	4.546
MS.261         	15.81          	4.31
MS.262         	15.78          	4.345
MS.263         	15.747         	4.403
MS.264         	15.715         	4.641
MS.265         	15.685         	4.294
MS.266         	15.652         	4.081
MS.267         	15.622         	4.494
MS.268         	15.59          	4.359
MS.269         	15.56          	4.059
MS.270         	15.527         	4.187
MS.271         	15.497         	4.073
MS.272         	15.467         	4.024
MS.273         	15.435         	3.968
MS.274         	15.405         	4.016
MS.275         	15.375         	3.66
MS.276         	15.342         	3.706
MS.277         	15.312         	3.887
MS.278         	15.282         	3.835
MS.279         	15.252         	3.319
MS.280         	15.22          	3.71
MS.281         	15.19          	3.789
MS.282         	15.16          	3.273
MS.283         	15.13          	3.319
MS.284         	15.1           	3.241
MS.285         	15.07          	3.615
MS.286         	15.04          	3.041
MS.287         	15.01          	3.549
MS.288         	14.98          	3.12
MS.289         	14.95          	3.098
MS.290         	14.92          	3.126
MS.291         	14.89          	2.995
MS.292         	14.86          	2.717
MS.293         	14.83          	2.967
MS.294         	14.8           	2.997
MS.295         	14.77          	2.914
MS.296         	14.742         	2.6
MS.297         	14.712         	2.719
MS.298         	14.682         	2.653
MS.299         	14.652         	2.757
MS.300         	14.625         	2.751
MS.301         	14.595         	2.594
MS.302         	14.565         	2.508
MS.303         	14.537         	2.53
MS.304         	14.507         	2.494
MS.305         	14.477         	2.163
MS.306         	14.45          	2.441
MS.307         	14.42          	2.616
MS.308         	14.392         	2.367
MS.309         	14.362         	2.143
MS.310         	14.335         	2.32
MS.311         	14.305         	2.361
MS.312         	14.278         	2.254
MS.313         	14.25          	1.986
MS.314         	14.22          	1.807
MS.315         	14.193         	1.99
MS.316         	14.162         	2.022
MS.317         	14.135         	2.141
MS.318         	14.108         	1.758
MS.319         	14.08          	1.867
MS.320         	14.05          	1.903
MS.321         	14.023         	1.674
MS.322         	13.995         	1.625
MS.323         	13.967         	1.521
MS.324         	13.94          	1.434
MS.325         	13.91          	1.658
MS.326         	13.882         	1.394
MS.327         	13.855         	1.48
MS.328         	13.827         	1.388
MS.329         	13.8           	1.392
MS.330         	13.773         	1.444
MS.331         	13.745         	1.259
MS.332         	13.717         	1.319
MS.333         	13.69          	1.315
MS.334         	13.662         	1.289
MS.335         	13.635         	1.273
MS.336         	13.608         	1.269
MS.337         	13.58          	1.172
MS.338         	13.555         	1.233
MS.339         	13.528         	1.204
MS.340         	13.5           	1.16
MS.341         	13.472         	1.17
MS.342         	13.445         	1.217
MS.343         	13.42          	1.108
MS.344         	13.392         	1.118
MS.345         	13.365         	1.196
MS.346         	13.34          	1.198
MS.347         	13.312         	1.146
MS.348         	13.285         	1.09
MS.349         	13.26          	1.088
MS.350         	13.233         	1.078
MS.351         	13.205         	1.065
MS.352         	13.18          	1.059
MS.353         	13.153         	1.009
MS.354         	13.127         	0.995
MS.355         	13.1           	0.931
MS.356         	13.075         	0.957
MS.357         	13.047         	1.019
MS.358         	13.023         	0.959
MS.359         	12.997         	0.959
MS.360         	12.97          	1.015
MS.361         	12.945         	0.949
MS.362         	12.917         	1.001
MS.363         	12.892         	0.912
MS.364         	12.867         	0.991
MS.365         	12.842         	0.931
MS.366         	12.815         	0.84
MS.367         	12.79          	0.924
MS.368         	12.765         	0.872
MS.369         	12.74          	0.856
MS.370         	12.712         	0.9
MS.371         	12.688         	0.814
MS.372         	12.662         	0.826
MS.373         	12.637         	0.882
MS.374         	12.613         	0.852
MS.375         	12.587         	0.83
MS.376         	12.562         	0.824
MS.377         	12.537         	0.753
MS.378         	12.512         	0.806
MS.379         	12.488         	0.812
MS.380         	12.462         	0.62
MS.381         	12.438         	0.695
MS.382         	12.412         	0.739
MS.383         	12.387         	0.765
MS.384         	12.363         	0.697
MS.385         	12.337         	0.773
MS.386         	12.312         	0.63
MS.387         	12.287         	0.761
MS.388         	12.265         	0.566
MS.389         	12.24          	0.669
MS.390         	12.215         	0.773
MS.391         	12.19          	0.628
MS.392         	12.167         	0.612
MS.393         	12.142         	0.614
MS.394         	12.117         	0.566
MS.395         	12.092         	0.596
MS.396         	12.07          	0.616
MS.397         	12.045         	0.087
MS.398         	12.02          	0.139
MS.399         	11.997         	0.564
MS.400         	11.972         	0.562
MS.401         	11.95          	0.101
MS.402         	11.925         	0.083
MS.403         	11.903         	0.099
MS.404         	11.877         	0.562
MS.405         	11.855         	0.55
MS.406         	11.83          	0.105
MS.407         	11.807         	0.087
MS.408         	11.782         	0.099
MS.409         	11.76          	0.554
MS.410         	11.735         	0.087
MS.411         	11.712         	0.091
MS.412         	11.69          	0.101
MS.413         	11.665         	0.087
MS.414         	11.642         	0.079
MS.415         	11.62          	0.087
MS.416         	11.595         	0.099
MS.417         	11.572         	0.087
MS.418         	11.55          	0.101
MS.419         	11.528         	0.081
MS.420         	11.505         	0.091
MS.421         	11.48          	0.081
MS.422         	11.457         	0.087
MS.423         	11.435         	0.07
MS.424         	11.412         	0.066
MS.425         	11.39          	0.056
MS.426         	11.367         	0.077
MS.427         	11.345         	0.085
MS.428         	11.32          	0.075
MS.429         	11.297         	0.07
MS.430         	11.275         	0.075
MS.431         	11.252         	0.058
MS.432         	11.23          	0.073
MS.433         	11.207         	0.062
MS.434         	11.185         	0.056
MS.435         	11.165         	0.068
MS.436         	11.142         	0.06
MS.437         	11.12          	0.07
MS.438         	11.097         	0.056
MS.439         	11.075         	0.068
MS.440         	11.052         	0.058
MS.441         	11.03          	0.058
MS.442         	11.007         	0.062
MS.443         	10.988         	0.058
MS.444         	10.965         	0.06
MS.445         	10.943         	0.058
MS.446         	10.92          	0.054
MS.447         	10.9           	0.056
MS.448         	10.877         	0.058
MS.449         	10.855         	0.056
MS.450         	10.835         	0.056
MS.451         	10.812         	0.054
MS.452         	10.79          	0.058
MS.453         	10.77          	0.058
MS.454         	10.747         	0.062
MS.455         	10.725         	0.06
MS.456         	10.705         	0.058
MS.457         	10.682         	0.014
MS.458         	10.662         	0.06
MS.459         	10.64          	0.014
MS.460         	10.62          	0.058
MS.461         	10.597         	0.012
MS.462         	10.577         	0.05
MS.463         	10.555         	0.006
MS.464         	10.535         	0.048
MS.465         	10.512         	0.014
MS.466         	10.492         	0.006
MS.467         	10.472         	0.012
MS.468         	10.45          	0.01
MS.469         	10.43          	0.008
MS.470         	10.41          	0.008
MS.471         	10.387         	0.01
MS.472         	10.367         	0.008
MS.473         	10.347         	0.008
MS.474         	10.325         	0.004
MS.475         	10.305         	0.01
MS.476         	10.285         	0.01
MS.477         	10.265         	0.000
MS.478         	10.245         	0.01
MS.479         	10.222         	0.006
MS.480         	10.202         	0.006
MS.481         	10.182         	0.012
MS.482         	10.162         	0.006
MS.483         	10.142         	0.006
MS.484         	10.122         	0.008
MS.485         	10.102         	0.008
MS.486         	10.08          	0.008
MS.487         	10.06          	0.02
MS.488         	10.04          	0.008
MS.489         	10.02          	0.006
MS.490         	10             	0.008
MS.491         	9.98           	0.01
MS.492         	9.96           	0.006
MS.493         	9.94           	0.004
MS.494         	9.92           	0.012
MS.495         	9.903          	0.008
MS.496         	9.882          	0.004
MS.497         	9.863          	0.002
MS.498         	9.842          	0.004
MS.499         	9.823          	0.004
DERIVED EXCITABILITY VARIABLES
Program = QTracP 3/4/2020
