File:              	C:\Qtrac\Data\Daniel M Sørensen\MScan multicentre study\Data from centres\Bucharest\Processed data\TDLC00302C.QZD
Name:              	RO.BU.NC.4.2
Protocol:          	MSCAN-R2
Date:              	2/3/20
Start time:        	14:35:51
Age:               	28
Sex:               	M
Temperature:       	36.6
S/R sites:         	TA
NC/disease:        	RONC4.2
Operator:          	TL
Comments:
M-SCAN DATA (9.1-2m)
Scanpts: 11, 18, 655, 664
Stim. (mA)     	Amp. (mV)
MS.1           	20             	4.796
MS.2           	20             	4.792
MS.3           	20             	4.796
MS.4           	20             	4.788
MS.5           	20             	4.768
MS.6           	20             	4.772
MS.7           	20             	4.77
MS.8           	20             	4.782
MS.9           	20             	4.774
MS.10          	20             	4.77
MS.11          	20             	4.766
MS.12          	20             	4.784
MS.13          	20             	4.778
MS.14          	20             	4.798
MS.15          	20             	4.78
MS.16          	20             	4.778
MS.17          	20             	4.796
MS.18          	20             	4.786
MS.19          	20             	4.78
MS.20          	20             	4.794
MS.21          	20             	4.784
MS.22          	20             	4.778
MS.23          	20             	4.788
MS.24          	19.92          	4.784
MS.25          	19.88          	4.782
MS.26          	19.84          	4.774
MS.27          	19.8           	4.768
MS.28          	19.762         	4.782
MS.29          	19.722         	4.776
MS.30          	19.682         	4.778
MS.31          	19.642         	4.786
MS.32          	19.605         	4.774
MS.33          	19.565         	4.792
MS.34          	19.525         	4.772
MS.35          	19.487         	4.78
MS.36          	19.448         	4.804
MS.37          	19.41          	4.778
MS.38          	19.37          	4.792
MS.39          	19.333         	4.768
MS.40          	19.292         	4.763
MS.41          	19.255         	4.763
MS.42          	19.215         	4.763
MS.43          	19.177         	4.776
MS.44          	19.14          	4.766
MS.45          	19.1           	4.761
MS.46          	19.062         	4.761
MS.47          	19.025         	4.757
MS.48          	18.987         	4.755
MS.49          	18.948         	4.761
MS.50          	18.91          	4.776
MS.51          	18.872         	4.757
MS.52          	18.835         	4.759
MS.53          	18.797         	4.772
MS.54          	18.76          	4.759
MS.55          	18.722         	4.743
MS.56          	18.685         	4.737
MS.57          	18.647         	4.751
MS.58          	18.61          	4.729
MS.59          	18.573         	4.739
MS.60          	18.535         	4.737
MS.61          	18.5           	4.751
MS.62          	18.462         	4.78
MS.63          	18.425         	4.77
MS.64          	18.387         	4.755
MS.65          	18.352         	4.772
MS.66          	18.315         	4.751
MS.67          	18.278         	4.77
MS.68          	18.243         	4.747
MS.69          	18.205         	4.757
MS.70          	18.17          	4.751
MS.71          	18.132         	4.759
MS.72          	18.097         	4.747
MS.73          	18.06          	4.749
MS.74          	18.025         	4.751
MS.75          	17.987         	4.749
MS.76          	17.952         	4.751
MS.77          	17.917         	4.739
MS.78          	17.88          	4.741
MS.79          	17.845         	4.731
MS.80          	17.81          	4.749
MS.81          	17.775         	4.739
MS.82          	17.737         	4.737
MS.83          	17.702         	4.745
MS.84          	17.667         	4.741
MS.85          	17.632         	4.735
MS.86          	17.597         	4.733
MS.87          	17.562         	4.755
MS.88          	17.528         	4.725
MS.89          	17.493         	4.731
MS.90          	17.458         	4.729
MS.91          	17.422         	4.739
MS.92          	17.387         	4.731
MS.93          	17.352         	4.715
MS.94          	17.317         	4.725
MS.95          	17.282         	4.733
MS.96          	17.247         	4.729
MS.97          	17.215         	4.719
MS.98          	17.18          	4.717
MS.99          	17.145         	4.729
MS.100         	17.11          	4.725
MS.101         	17.077         	4.723
MS.102         	17.042         	4.707
MS.103         	17.01          	4.727
MS.104         	16.975         	4.721
MS.105         	16.94          	4.705
MS.106         	16.907         	4.709
MS.107         	16.872         	4.721
MS.108         	16.84          	4.715
MS.109         	16.805         	4.709
MS.110         	16.772         	4.713
MS.111         	16.74          	4.719
MS.112         	16.705         	4.701
MS.113         	16.672         	4.711
MS.114         	16.637         	4.699
MS.115         	16.605         	4.709
MS.116         	16.573         	4.709
MS.117         	16.54          	4.697
MS.118         	16.505         	4.695
MS.119         	16.472         	4.713
MS.120         	16.44          	4.689
MS.121         	16.407         	4.695
MS.122         	16.375         	4.695
MS.123         	16.342         	4.693
MS.124         	16.31          	4.693
MS.125         	16.278         	4.697
MS.126         	16.245         	4.687
MS.127         	16.212         	4.695
MS.128         	16.18          	4.695
MS.129         	16.147         	4.689
MS.130         	16.115         	4.681
MS.131         	16.083         	4.695
MS.132         	16.05          	4.685
MS.133         	16.017         	4.669
MS.134         	15.985         	4.669
MS.135         	15.955         	4.691
MS.136         	15.922         	4.685
MS.137         	15.89          	4.675
MS.138         	15.86          	4.683
MS.139         	15.827         	4.685
MS.140         	15.795         	4.683
MS.141         	15.765         	4.669
MS.142         	15.733         	4.665
MS.143         	15.7           	4.669
MS.144         	15.67          	4.677
MS.145         	15.637         	4.685
MS.146         	15.608         	4.663
MS.147         	15.575         	4.659
MS.148         	15.545         	4.667
MS.149         	15.515         	4.665
MS.150         	15.483         	4.657
MS.151         	15.452         	4.669
MS.152         	15.42          	4.612
MS.153         	15.39          	4.665
MS.154         	15.36          	4.653
MS.155         	15.327         	4.592
MS.156         	15.297         	4.667
MS.157         	15.267         	4.661
MS.158         	15.237         	4.641
MS.159         	15.207         	4.647
MS.160         	15.175         	4.655
MS.161         	15.145         	4.598
MS.162         	15.115         	4.588
MS.163         	15.085         	4.643
MS.164         	15.055         	4.645
MS.165         	15.025         	4.647
MS.166         	14.995         	4.637
MS.167         	14.965         	4.592
MS.168         	14.935         	4.651
MS.169         	14.905         	4.572
MS.170         	14.875         	4.578
MS.171         	14.845         	4.584
MS.172         	14.818         	4.572
MS.173         	14.787         	4.554
MS.174         	14.757         	4.55
MS.175         	14.727         	4.574
MS.176         	14.697         	4.56
MS.177         	14.67          	4.574
MS.178         	14.64          	4.566
MS.179         	14.61          	4.508
MS.180         	14.58          	4.552
MS.181         	14.552         	4.528
MS.182         	14.523         	4.558
MS.183         	14.495         	4.558
MS.184         	14.465         	4.486
MS.185         	14.435         	4.504
MS.186         	14.407         	4.506
MS.187         	14.377         	4.482
MS.188         	14.35          	4.482
MS.189         	14.32          	4.473
MS.190         	14.292         	4.502
MS.191         	14.265         	4.463
MS.192         	14.235         	4.494
MS.193         	14.207         	4.471
MS.194         	14.177         	4.473
MS.195         	14.15          	4.471
MS.196         	14.122         	4.49
MS.197         	14.092         	4.496
MS.198         	14.065         	4.465
MS.199         	14.037         	4.469
MS.200         	14.01          	4.453
MS.201         	13.983         	4.494
MS.202         	13.952         	4.399
MS.203         	13.925         	4.479
MS.204         	13.898         	4.471
MS.205         	13.87          	4.477
MS.206         	13.842         	4.441
MS.207         	13.815         	4.469
MS.208         	13.787         	4.459
MS.209         	13.76          	4.407
MS.210         	13.733         	4.421
MS.211         	13.705         	4.441
MS.212         	13.677         	4.399
MS.213         	13.65          	4.379
MS.214         	13.622         	4.389
MS.215         	13.595         	4.379
MS.216         	13.568         	4.415
MS.217         	13.54          	4.409
MS.218         	13.515         	4.427
MS.219         	13.487         	4.429
MS.220         	13.46          	4.361
MS.221         	13.432         	4.381
MS.222         	13.407         	4.381
MS.223         	13.38          	4.391
MS.224         	13.352         	4.383
MS.225         	13.325         	4.369
MS.226         	13.3           	4.375
MS.227         	13.273         	4.369
MS.228         	13.247         	4.415
MS.229         	13.22          	4.369
MS.230         	13.193         	4.365
MS.231         	13.167         	4.373
MS.232         	13.14          	4.367
MS.233         	13.115         	4.361
MS.234         	13.087         	4.367
MS.235         	13.062         	4.336
MS.236         	13.035         	4.359
MS.237         	13.01          	4.334
MS.238         	12.985         	4.351
MS.239         	12.957         	4.343
MS.240         	12.932         	4.363
MS.241         	12.907         	4.32
MS.242         	12.88          	4.326
MS.243         	12.855         	4.32
MS.244         	12.83          	4.322
MS.245         	12.802         	4.288
MS.246         	12.778         	4.28
MS.247         	12.752         	4.349
MS.248         	12.727         	4.306
MS.249         	12.702         	4.298
MS.250         	12.675         	4.302
MS.251         	12.65          	4.336
MS.252         	12.625         	4.288
MS.253         	12.6           	4.282
MS.254         	12.575         	4.252
MS.255         	12.55          	4.304
MS.256         	12.525         	4.294
MS.257         	12.5           	4.258
MS.258         	12.475         	4.242
MS.259         	12.45          	4.276
MS.260         	12.425         	4.232
MS.261         	12.4           	4.27
MS.262         	12.375         	4.248
MS.263         	12.35          	4.234
MS.264         	12.325         	4.244
MS.265         	12.302         	4.234
MS.266         	12.278         	4.26
MS.267         	12.252         	4.224
MS.268         	12.227         	4.258
MS.269         	12.202         	4.198
MS.270         	12.18          	4.23
MS.271         	12.155         	4.236
MS.272         	12.13          	4.173
MS.273         	12.108         	4.21
MS.274         	12.082         	4.129
MS.275         	12.057         	4.169
MS.276         	12.035         	4.163
MS.277         	12.01          	4.185
MS.278         	11.985         	4.195
MS.279         	11.962         	4.181
MS.280         	11.938         	4.155
MS.281         	11.915         	4.115
MS.282         	11.89          	4.189
MS.283         	11.867         	4.157
MS.284         	11.842         	4.195
MS.285         	11.82          	4.099
MS.286         	11.795         	4.117
MS.287         	11.773         	4.109
MS.288         	11.747         	4.103
MS.289         	11.725         	4.101
MS.290         	11.702         	4.101
MS.291         	11.677         	4.105
MS.292         	11.655         	4.059
MS.293         	11.632         	4.083
MS.294         	11.608         	4.105
MS.295         	11.585         	4.099
MS.296         	11.562         	4.071
MS.297         	11.54          	4.048
MS.298         	11.515         	4.085
MS.299         	11.492         	4.067
MS.300         	11.47          	4.089
MS.301         	11.447         	4.057
MS.302         	11.425         	4.014
MS.303         	11.403         	4.052
MS.304         	11.377         	4.081
MS.305         	11.355         	3.958
MS.306         	11.332         	3.976
MS.307         	11.31          	4.004
MS.308         	11.287         	4.014
MS.309         	11.265         	3.964
MS.310         	11.242         	4.038
MS.311         	11.22          	3.903
MS.312         	11.197         	3.855
MS.313         	11.175         	3.978
MS.314         	11.153         	3.99
MS.315         	11.13          	3.964
MS.316         	11.108         	3.833
MS.317         	11.087         	3.873
MS.318         	11.065         	3.849
MS.319         	11.042         	3.779
MS.320         	11.02          	3.827
MS.321         	10.997         	3.799
MS.322         	10.975         	3.773
MS.323         	10.955         	3.726
MS.324         	10.932         	3.69
MS.325         	10.91          	3.636
MS.326         	10.887         	3.722
MS.327         	10.867         	3.69
MS.328         	10.845         	3.607
MS.329         	10.823         	3.48
MS.330         	10.802         	3.589
MS.331         	10.78          	3.579
MS.332         	10.76          	3.523
MS.333         	10.738         	3.628
MS.334         	10.715         	3.511
MS.335         	10.695         	3.507
MS.336         	10.672         	3.495
MS.337         	10.653         	3.41
MS.338         	10.63          	3.487
MS.339         	10.61          	3.46
MS.340         	10.587         	3.444
MS.341         	10.568         	3.474
MS.342         	10.545         	3.38
MS.343         	10.525         	3.39
MS.344         	10.502         	3.392
MS.345         	10.483         	3.388
MS.346         	10.462         	3.416
MS.347         	10.44          	3.335
MS.348         	10.42          	3.317
MS.349         	10.4           	3.337
MS.350         	10.377         	3.295
MS.351         	10.358         	3.271
MS.352         	10.337         	3.184
MS.353         	10.318         	3.329
MS.354         	10.295         	3.289
MS.355         	10.275         	3.13
MS.356         	10.255         	3.213
MS.357         	10.235         	3.126
MS.358         	10.212         	3.114
MS.359         	10.193         	3.021
MS.360         	10.172         	3.122
MS.361         	10.153         	3.049
MS.362         	10.132         	3.072
MS.363         	10.113         	3.043
MS.364         	10.092         	3.047
MS.365         	10.073         	3.08
MS.366         	10.052         	2.985
MS.367         	10.032         	3.047
MS.368         	10.012         	3.11
MS.369         	9.992          	2.943
MS.370         	9.972          	3.039
MS.371         	9.952          	2.919
MS.372         	9.932          	2.969
MS.373         	9.912          	2.914
MS.374         	9.892          	2.937
MS.375         	9.872          	2.957
MS.376         	9.852          	2.912
MS.377         	9.832          	2.769
MS.378         	9.812          	2.848
MS.379         	9.792          	2.933
MS.380         	9.775          	2.85
MS.381         	9.755          	2.743
MS.382         	9.735          	2.848
MS.383         	9.715          	2.751
MS.384         	9.695          	2.679
MS.385         	9.677          	2.715
MS.386         	9.657          	2.707
MS.387         	9.637          	2.624
MS.388         	9.62           	2.594
MS.389         	9.6            	2.649
MS.390         	9.58           	2.574
MS.391         	9.562          	2.639
MS.392         	9.542          	2.61
MS.393         	9.523          	2.608
MS.394         	9.505          	2.606
MS.395         	9.485          	2.447
MS.396         	9.465          	2.33
MS.397         	9.448          	2.357
MS.398         	9.427          	2.498
MS.399         	9.41           	2.431
MS.400         	9.39           	2.268
MS.401         	9.372          	2.371
MS.402         	9.352          	2.451
MS.403         	9.335          	2.208
MS.404         	9.315          	2.302
MS.405         	9.297          	2.427
MS.406         	9.28           	2.23
MS.407         	9.26           	2.373
MS.408         	9.242          	2.292
MS.409         	9.222          	2.113
MS.410         	9.205          	2.026
MS.411         	9.188          	2.099
MS.412         	9.167          	2.065
MS.413         	9.15           	1.998
MS.414         	9.132          	2.103
MS.415         	9.113          	2.008
MS.416         	9.095          	2.067
MS.417         	9.077          	1.978
MS.418         	9.057          	1.942
MS.419         	9.04           	1.93
MS.420         	9.023          	1.948
MS.421         	9.005          	1.996
MS.422         	8.988          	1.946
MS.423         	8.967          	1.958
MS.424         	8.95           	1.95
MS.425         	8.932          	1.942
MS.426         	8.915          	1.932
MS.427         	8.898          	1.919
MS.428         	8.88           	1.779
MS.429         	8.863          	1.903
MS.430         	8.845          	1.783
MS.431         	8.825          	1.871
MS.432         	8.807          	1.797
MS.433         	8.79           	1.817
MS.434         	8.773          	1.766
MS.435         	8.755          	1.787
MS.436         	8.738          	1.742
MS.437         	8.72           	1.734
MS.438         	8.702          	1.789
MS.439         	8.685          	1.766
MS.440         	8.67           	1.746
MS.441         	8.653          	1.595
MS.442         	8.635          	1.67
MS.443         	8.617          	1.571
MS.444         	8.6            	1.623
MS.445         	8.582          	1.575
MS.446         	8.565          	1.543
MS.447         	8.547          	1.509
MS.448         	8.53           	1.591
MS.449         	8.515          	1.599
MS.450         	8.497          	1.553
MS.451         	8.48           	1.605
MS.452         	8.462          	1.476
MS.453         	8.448          	1.507
MS.454         	8.43           	1.472
MS.455         	8.412          	1.595
MS.456         	8.395          	1.426
MS.457         	8.38           	1.503
MS.458         	8.363          	1.555
MS.459         	8.345          	1.474
MS.460         	8.33           	1.492
MS.461         	8.312          	1.368
MS.462         	8.295          	1.376
MS.463         	8.28           	1.45
MS.464         	8.262          	1.426
MS.465         	8.245          	1.434
MS.466         	8.23           	1.478
MS.467         	8.212          	1.323
MS.468         	8.198          	1.406
MS.469         	8.18           	1.287
MS.470         	8.165          	1.394
MS.471         	8.148          	1.335
MS.472         	8.132          	1.305
MS.473         	8.115          	1.339
MS.474         	8.1            	1.251
MS.475         	8.082          	1.281
MS.476         	8.068          	1.329
MS.477         	8.05           	1.158
MS.478         	8.035          	1.196
MS.479         	8.017          	1.186
MS.480         	8.002          	1.134
MS.481         	7.987          	1.311
MS.482         	7.97           	1.196
MS.483         	7.955          	1.219
MS.484         	7.938          	1.158
MS.485         	7.922          	1.206
MS.486         	7.907          	1.09
MS.487         	7.89           	0.961
MS.488         	7.875          	1.047
MS.489         	7.86           	1.098
MS.490         	7.845          	0.888
MS.491         	7.827          	0.888
MS.492         	7.812          	0.929
MS.493         	7.797          	0.908
MS.494         	7.782          	0.876
MS.495         	7.765          	0.929
MS.496         	7.75           	0.844
MS.497         	7.735          	0.838
MS.498         	7.72           	0.796
MS.499         	7.705          	0.725
MS.500         	7.688          	0.814
MS.501         	7.672          	0.872
