File:              	C:\Qtrac\Data\Daniel M Sørensen\MScan multicentre study\Data from centres\Bucharest\Processed data\TDLC00210B.QZD
Name:              	RO.BU.NC.3.2
Protocol:          	MSCAN-R2
Date:              	10/2/20
Start time:        	13:59:42
Age:               	31
Sex:               	M
Temperature:       	36.9
S/R sites:         	ADM
NC/disease:        	RONC3.2
Operator:          	TL
Comments:
M-SCAN DATA (8.3-1.7m)
Scanpts: 72, 77, 681, 694
Stim. (mA)     	Amp. (mV)
MS.1           	20             	9.448
MS.2           	20             	9.505
MS.3           	20             	9.471
MS.4           	20             	9.483
MS.5           	20             	9.481
MS.6           	20             	9.491
MS.7           	20             	9.529
MS.8           	20             	9.561
MS.9           	20             	9.501
MS.10          	20             	9.501
MS.11          	20             	9.535
MS.12          	20             	9.541
MS.13          	20             	9.461
MS.14          	20             	9.485
MS.15          	20             	9.473
MS.16          	20             	9.454
MS.17          	20             	9.525
MS.18          	20             	9.471
MS.19          	20             	9.465
MS.20          	20             	9.503
MS.21          	20             	9.473
MS.22          	20             	9.475
MS.23          	20             	9.44
MS.24          	19.92          	9.487
MS.25          	19.88          	9.479
MS.26          	19.84          	9.487
MS.27          	19.8           	9.452
MS.28          	19.762         	9.533
MS.29          	19.722         	9.467
MS.30          	19.682         	9.493
MS.31          	19.642         	9.43
MS.32          	19.605         	9.499
MS.33          	19.565         	9.509
MS.34          	19.525         	9.454
MS.35          	19.487         	9.505
MS.36          	19.448         	9.467
MS.37          	19.41          	9.559
MS.38          	19.37          	9.489
MS.39          	19.333         	9.553
MS.40          	19.292         	9.477
MS.41          	19.255         	9.448
MS.42          	19.215         	9.475
MS.43          	19.177         	9.521
MS.44          	19.14          	9.567
MS.45          	19.1           	9.487
MS.46          	19.062         	9.511
MS.47          	19.025         	9.529
MS.48          	18.987         	9.591
MS.49          	18.948         	9.559
MS.50          	18.91          	9.585
MS.51          	18.872         	9.585
MS.52          	18.835         	9.652
MS.53          	18.797         	9.616
MS.54          	18.76          	9.608
MS.55          	18.722         	9.616
MS.56          	18.685         	9.559
MS.57          	18.647         	9.61
MS.58          	18.61          	9.585
MS.59          	18.573         	9.579
MS.60          	18.535         	9.678
MS.61          	18.5           	9.686
MS.62          	18.462         	9.668
MS.63          	18.425         	9.662
MS.64          	18.387         	9.686
MS.65          	18.352         	9.608
MS.66          	18.315         	9.68
MS.67          	18.278         	9.678
MS.68          	18.243         	9.688
MS.69          	18.205         	9.664
MS.70          	18.17          	9.69
MS.71          	18.132         	9.67
MS.72          	18.097         	9.676
MS.73          	18.06          	9.69
MS.74          	18.025         	9.632
MS.75          	17.987         	9.67
MS.76          	17.952         	9.63
MS.77          	17.917         	9.652
MS.78          	17.88          	9.71
MS.79          	17.845         	9.68
MS.80          	17.81          	9.65
MS.81          	17.775         	9.69
MS.82          	17.737         	9.722
MS.83          	17.702         	9.638
MS.84          	17.667         	9.644
MS.85          	17.632         	9.674
MS.86          	17.597         	9.634
MS.87          	17.562         	9.674
MS.88          	17.528         	9.654
MS.89          	17.493         	9.678
MS.90          	17.458         	9.678
MS.91          	17.422         	9.696
MS.92          	17.387         	9.682
MS.93          	17.352         	9.666
MS.94          	17.317         	9.694
MS.95          	17.282         	9.698
MS.96          	17.247         	9.66
MS.97          	17.215         	9.614
MS.98          	17.18          	9.706
MS.99          	17.145         	9.692
MS.100         	17.11          	9.71
MS.101         	17.077         	9.654
MS.102         	17.042         	9.64
MS.103         	17.01          	9.676
MS.104         	16.975         	9.652
MS.105         	16.94          	9.71
MS.106         	16.907         	9.694
MS.107         	16.872         	9.7
MS.108         	16.84          	9.698
MS.109         	16.805         	9.62
MS.110         	16.772         	9.668
MS.111         	16.74          	9.65
MS.112         	16.705         	9.686
MS.113         	16.672         	9.589
MS.114         	16.637         	9.654
MS.115         	16.605         	9.64
MS.116         	16.573         	9.706
MS.117         	16.54          	9.636
MS.118         	16.505         	9.606
MS.119         	16.472         	9.587
MS.120         	16.44          	9.626
MS.121         	16.407         	9.622
MS.122         	16.375         	9.628
MS.123         	16.342         	9.616
MS.124         	16.31          	9.585
MS.125         	16.278         	9.599
MS.126         	16.245         	9.674
MS.127         	16.212         	9.537
MS.128         	16.18          	9.652
MS.129         	16.147         	9.638
MS.130         	16.115         	9.559
MS.131         	16.083         	9.593
MS.132         	16.05          	9.676
MS.133         	16.017         	9.539
MS.134         	15.985         	9.688
MS.135         	15.955         	9.593
MS.136         	15.922         	9.571
MS.137         	15.89          	9.662
MS.138         	15.86          	9.61
MS.139         	15.827         	9.662
MS.140         	15.795         	9.63
MS.141         	15.765         	9.622
MS.142         	15.733         	9.549
MS.143         	15.7           	9.563
MS.144         	15.67          	9.539
MS.145         	15.637         	9.694
MS.146         	15.608         	9.652
MS.147         	15.575         	9.638
MS.148         	15.545         	9.555
MS.149         	15.515         	9.567
MS.150         	15.483         	9.521
MS.151         	15.452         	9.531
MS.152         	15.42          	9.565
MS.153         	15.39          	9.618
MS.154         	15.36          	9.559
MS.155         	15.327         	9.523
MS.156         	15.297         	9.573
MS.157         	15.267         	9.549
MS.158         	15.237         	9.549
MS.159         	15.207         	9.581
MS.160         	15.175         	9.557
MS.161         	15.145         	9.557
MS.162         	15.115         	9.632
MS.163         	15.085         	9.597
MS.164         	15.055         	9.577
MS.165         	15.025         	9.573
MS.166         	14.995         	9.485
MS.167         	14.965         	9.525
MS.168         	14.935         	9.543
MS.169         	14.905         	9.608
MS.170         	14.875         	9.479
MS.171         	14.845         	9.618
MS.172         	14.818         	9.511
MS.173         	14.787         	9.515
MS.174         	14.757         	9.553
MS.175         	14.727         	9.489
MS.176         	14.697         	9.539
MS.177         	14.67          	9.515
MS.178         	14.64          	9.664
MS.179         	14.61          	9.557
MS.180         	14.58          	9.553
MS.181         	14.552         	9.612
MS.182         	14.523         	9.527
MS.183         	14.495         	9.529
MS.184         	14.465         	9.481
MS.185         	14.435         	9.505
MS.186         	14.407         	9.43
MS.187         	14.377         	9.487
MS.188         	14.35          	9.507
MS.189         	14.32          	9.469
MS.190         	14.292         	9.452
MS.191         	14.265         	9.549
MS.192         	14.235         	9.4
MS.193         	14.207         	9.467
MS.194         	14.177         	9.485
MS.195         	14.15          	9.543
MS.196         	14.122         	9.386
MS.197         	14.092         	9.483
MS.198         	14.065         	9.477
MS.199         	14.037         	9.434
MS.200         	14.01          	9.509
MS.201         	13.983         	9.432
MS.202         	13.952         	9.497
MS.203         	13.925         	9.396
MS.204         	13.898         	9.372
MS.205         	13.87          	9.313
MS.206         	13.842         	9.245
MS.207         	13.815         	9.376
MS.208         	13.787         	9.205
MS.209         	13.76          	9.301
MS.210         	13.733         	9.239
MS.211         	13.705         	9.201
MS.212         	13.677         	9.154
MS.213         	13.65          	9.15
MS.214         	13.622         	9.223
MS.215         	13.595         	9.177
MS.216         	13.568         	9.215
MS.217         	13.54          	9.185
MS.218         	13.515         	9.138
MS.219         	13.487         	9.193
MS.220         	13.46          	9.082
MS.221         	13.432         	9.14
MS.222         	13.407         	9.005
MS.223         	13.38          	9.128
MS.224         	13.352         	8.967
MS.225         	13.325         	9.072
MS.226         	13.3           	8.88
MS.227         	13.273         	8.86
MS.228         	13.247         	8.824
MS.229         	13.22          	8.997
MS.230         	13.193         	8.836
MS.231         	13.167         	8.989
MS.232         	13.14          	9.048
MS.233         	13.115         	8.886
MS.234         	13.087         	8.995
MS.235         	13.062         	9.138
MS.236         	13.035         	8.999
MS.237         	13.01          	8.812
MS.238         	12.985         	8.816
MS.239         	12.957         	8.886
MS.240         	12.932         	8.848
MS.241         	12.907         	8.81
MS.242         	12.88          	8.812
MS.243         	12.855         	8.826
MS.244         	12.83          	8.876
MS.245         	12.802         	8.705
MS.246         	12.778         	8.657
MS.247         	12.752         	8.725
MS.248         	12.727         	8.677
MS.249         	12.702         	8.653
MS.250         	12.675         	8.687
MS.251         	12.65          	8.453
MS.252         	12.625         	8.693
MS.253         	12.6           	8.625
MS.254         	12.575         	8.619
MS.255         	12.55          	8.594
MS.256         	12.525         	8.425
MS.257         	12.5           	8.222
MS.258         	12.475         	8.602
MS.259         	12.45          	8.163
MS.260         	12.425         	8.401
MS.261         	12.4           	8.417
MS.262         	12.375         	8.165
MS.263         	12.35          	8.218
MS.264         	12.325         	8.355
MS.265         	12.302         	8.325
MS.266         	12.278         	8.246
MS.267         	12.252         	8.218
MS.268         	12.227         	7.869
MS.269         	12.202         	7.789
MS.270         	12.18          	7.781
MS.271         	12.155         	8.01
MS.272         	12.13          	8.049
MS.273         	12.108         	7.817
MS.274         	12.082         	7.714
MS.275         	12.057         	7.736
MS.276         	12.035         	7.374
MS.277         	12.01          	7.559
MS.278         	11.985         	7.348
MS.279         	11.962         	7.473
MS.280         	11.938         	7.287
MS.281         	11.915         	7.257
MS.282         	11.89          	7.309
MS.283         	11.867         	6.612
MS.284         	11.842         	7.14
MS.285         	11.82          	6.937
MS.286         	11.795         	7.033
MS.287         	11.773         	6.854
MS.288         	11.747         	6.995
MS.289         	11.725         	6.872
MS.290         	11.702         	6.643
MS.291         	11.677         	6.679
MS.292         	11.655         	6.647
MS.293         	11.632         	6.244
MS.294         	11.608         	6.514
MS.295         	11.585         	6.278
MS.296         	11.562         	6.232
MS.297         	11.54          	6.202
MS.298         	11.515         	6.19
MS.299         	11.492         	6.488
MS.300         	11.47          	6.141
MS.301         	11.447         	6.169
MS.302         	11.425         	6.099
MS.303         	11.403         	5.906
MS.304         	11.377         	5.863
MS.305         	11.355         	5.916
MS.306         	11.332         	5.438
MS.307         	11.31          	5.41
MS.308         	11.287         	5.452
MS.309         	11.265         	5.39
MS.310         	11.242         	5.531
MS.311         	11.22          	5.178
MS.312         	11.197         	5.142
MS.313         	11.175         	5.392
MS.314         	11.153         	5.074
MS.315         	11.13          	5.037
MS.316         	11.108         	5.027
MS.317         	11.087         	4.878
MS.318         	11.065         	4.81
MS.319         	11.042         	4.766
MS.320         	11.02          	4.526
MS.321         	10.997         	4.786
MS.322         	10.975         	4.725
MS.323         	10.955         	4.629
MS.324         	10.932         	4.443
MS.325         	10.91          	4.25
MS.326         	10.887         	4.349
MS.327         	10.867         	4.387
MS.328         	10.845         	4.143
MS.329         	10.823         	4.055
MS.330         	10.802         	4.195
MS.331         	10.78          	4.067
MS.332         	10.76          	3.911
MS.333         	10.738         	3.742
MS.334         	10.715         	3.706
MS.335         	10.695         	3.744
MS.336         	10.672         	3.563
MS.337         	10.653         	3.47
MS.338         	10.63          	3.638
MS.339         	10.61          	3.666
MS.340         	10.587         	3.136
MS.341         	10.568         	3.201
MS.342         	10.545         	3.19
MS.343         	10.525         	3.235
MS.344         	10.502         	3.025
MS.345         	10.483         	3.225
MS.346         	10.462         	3.112
MS.347         	10.44          	2.908
MS.348         	10.42          	3.031
MS.349         	10.4           	2.957
MS.350         	10.377         	2.699
MS.351         	10.358         	2.566
MS.352         	10.337         	2.651
MS.353         	10.318         	2.554
MS.354         	10.295         	2.671
MS.355         	10.275         	2.475
MS.356         	10.255         	2.208
MS.357         	10.235         	2.802
MS.358         	10.212         	2.518
MS.359         	10.193         	2.433
MS.360         	10.172         	2.292
MS.361         	10.153         	2.298
MS.362         	10.132         	2.373
MS.363         	10.113         	2.274
MS.364         	10.092         	2.22
MS.365         	10.073         	2.336
MS.366         	10.052         	2.195
MS.367         	10.032         	2.115
MS.368         	10.012         	2.334
MS.369         	9.992          	2.367
MS.370         	9.972          	2.091
MS.371         	9.952          	2.226
MS.372         	9.932          	2.077
MS.373         	9.912          	2.201
MS.374         	9.892          	1.863
MS.375         	9.872          	1.917
MS.376         	9.852          	2.018
MS.377         	9.832          	1.885
MS.378         	9.812          	1.958
MS.379         	9.792          	1.883
MS.380         	9.775          	1.783
MS.381         	9.755          	1.863
MS.382         	9.735          	1.905
MS.383         	9.715          	1.793
MS.384         	9.695          	1.891
MS.385         	9.677          	1.756
MS.386         	9.657          	1.774
MS.387         	9.637          	1.783
MS.388         	9.62           	1.716
MS.389         	9.6            	1.909
MS.390         	9.58           	1.807
MS.391         	9.562          	1.7
MS.392         	9.542          	1.772
MS.393         	9.523          	1.579
MS.394         	9.505          	1.797
MS.395         	9.485          	1.67
MS.396         	9.465          	1.742
MS.397         	9.448          	1.748
MS.398         	9.427          	1.613
MS.399         	9.41           	1.668
MS.400         	9.39           	1.698
MS.401         	9.372          	1.694
MS.402         	9.352          	1.625
MS.403         	9.335          	1.603
MS.404         	9.315          	1.688
MS.405         	9.297          	1.569
MS.406         	9.28           	1.644
MS.407         	9.26           	1.666
MS.408         	9.242          	1.674
MS.409         	9.222          	1.66
MS.410         	9.205          	1.537
MS.411         	9.188          	1.601
MS.412         	9.167          	1.499
MS.413         	9.15           	1.551
MS.414         	9.132          	1.476
MS.415         	9.113          	1.335
MS.416         	9.095          	1.454
MS.417         	9.077          	1.464
MS.418         	9.057          	1.521
MS.419         	9.04           	1.382
MS.420         	9.023          	1.41
MS.421         	9.005          	1.428
MS.422         	8.988          	1.394
MS.423         	8.967          	1.301
MS.424         	8.95           	1.356
MS.425         	8.932          	1.233
MS.426         	8.915          	1.285
MS.427         	8.898          	1.36
MS.428         	8.88           	1.192
MS.429         	8.863          	1.241
MS.430         	8.845          	1.323
MS.431         	8.825          	0.953
MS.432         	8.807          	1.118
MS.433         	8.79           	0.987
MS.434         	8.773          	0.906
MS.435         	8.755          	1.084
MS.436         	8.738          	1.001
MS.437         	8.72           	0.643
MS.438         	8.702          	0.86
MS.439         	8.685          	0.655
MS.440         	8.67           	0.896
MS.441         	8.653          	0.808
MS.442         	8.635          	0.735
MS.443         	8.617          	0.59
MS.444         	8.6            	0.661
MS.445         	8.582          	0.743
MS.446         	8.565          	0.695
MS.447         	8.547          	0.647
MS.448         	8.53           	0.618
MS.449         	8.515          	0.689
MS.450         	8.497          	0.51
MS.451         	8.48           	0.544
MS.452         	8.462          	0.574
MS.453         	8.448          	0.483
MS.454         	8.43           	0.477
MS.455         	8.412          	0.506
MS.456         	8.395          	0.495
MS.457         	8.38           	0.568
MS.458         	8.363          	0.365
MS.459         	8.345          	0.383
MS.460         	8.33           	0.314
MS.461         	8.312          	0.431
MS.462         	8.295          	0.455
MS.463         	8.28           	0.387
MS.464         	8.262          	0.256
MS.465         	8.245          	0.276
MS.466         	8.23           	0.338
MS.467         	8.212          	0.272
MS.468         	8.198          	0.254
MS.469         	8.18           	0.28
MS.470         	8.165          	0.306
MS.471         	8.148          	0.244
MS.472         	8.132          	0.22
MS.473         	8.115          	0.209
MS.474         	8.1            	0.27
MS.475         	8.082          	0.226
MS.476         	8.068          	0.139
MS.477         	8.05           	0.284
MS.478         	8.035          	0.25
MS.479         	8.017          	0.197
MS.480         	8.002          	0.199
MS.481         	7.987          	0.244
MS.482         	7.97           	0.197
MS.483         	7.955          	0.145
MS.484         	7.938          	0.268
MS.485         	7.922          	0.222
MS.486         	7.907          	0.203
MS.487         	7.89           	0.147
MS.488         	7.875          	0.236
MS.489         	7.86           	0.163
MS.490         	7.845          	0.179
MS.491         	7.827          	0.161
MS.492         	7.812          	0.189
MS.493         	7.797          	0.171
MS.494         	7.782          	0.203
MS.495         	7.765          	0.197
MS.496         	7.75           	0.165
MS.497         	7.735          	0.167
MS.498         	7.72           	0.155
MS.499         	7.705          	0.153
MS.500         	7.688          	0.147
MS.501         	7.672          	0.157
