File:              	C:\Qtrac\Data\Daniel M Sørensen\MScan multicentre study\Data from centres\Roskilde\Folders with NC-examinations\ROS_N6a\MBC00420A.QZD
Name:              	DK.ROS.NC.6.1
Protocol:          	MSCAN-R2
Date:              	20/4/20
Start time:        	13:15:07
Age:               	72
Sex:               	f
Temperature:       	34.5
S/R sites:         	Median Wr-APB
NC/disease:        	NC
Operator:          	MB
Comments:
M-SCAN DATA (6.7-1m)
Scanpts: 21, 27, 608, 612
Stim. (mA)     	Amp. (mV)
MS.1           	18.5           	5.372
MS.2           	18.5           	5.382
MS.3           	18.5           	5.37
MS.4           	18.5           	5.37
MS.5           	18.5           	5.37
MS.6           	18.5           	5.362
MS.7           	18.5           	5.384
MS.8           	18.5           	5.378
MS.9           	18.5           	5.374
MS.10          	18.5           	5.386
MS.11          	18.5           	5.378
MS.12          	18.5           	5.394
MS.13          	18.5           	5.396
MS.14          	18.5           	5.404
MS.15          	18.5           	5.402
MS.16          	18.5           	5.382
MS.17          	18.5           	5.388
MS.18          	18.5           	5.398
MS.19          	18.5           	5.396
MS.20          	18.5           	5.402
MS.21          	18.5           	5.408
MS.22          	18.5           	5.412
MS.23          	18.5           	5.402
MS.24          	18.425         	5.412
MS.25          	18.39          	5.414
MS.26          	18.352         	5.41
MS.27          	18.315         	5.412
MS.28          	18.28          	5.424
MS.29          	18.243         	5.422
MS.30          	18.208         	5.432
MS.31          	18.17          	5.414
MS.32          	18.132         	5.43
MS.33          	18.097         	5.442
MS.34          	18.06          	5.432
MS.35          	18.025         	5.44
MS.36          	17.99          	5.436
MS.37          	17.952         	5.454
MS.38          	17.917         	5.446
MS.39          	17.882         	5.458
MS.40          	17.845         	5.41
MS.41          	17.81          	5.354
MS.42          	17.775         	5.418
MS.43          	17.74          	5.408
MS.44          	17.702         	5.396
MS.45          	17.667         	5.432
MS.46          	17.632         	5.402
MS.47          	17.597         	5.418
MS.48          	17.562         	5.356
MS.49          	17.528         	5.38
MS.50          	17.493         	5.354
MS.51          	17.458         	5.42
MS.52          	17.422         	5.404
MS.53          	17.387         	5.408
MS.54          	17.352         	5.432
MS.55          	17.317         	5.346
MS.56          	17.285         	5.404
MS.57          	17.25          	5.368
MS.58          	17.215         	5.348
MS.59          	17.18          	5.4
MS.60          	17.145         	5.35
MS.61          	17.112         	5.364
MS.62          	17.077         	5.35
MS.63          	17.042         	5.4
MS.64          	17.01          	5.356
MS.65          	16.975         	5.352
MS.66          	16.942         	5.362
MS.67          	16.907         	5.358
MS.68          	16.875         	5.364
MS.69          	16.84          	5.336
MS.70          	16.807         	5.333
MS.71          	16.772         	5.362
MS.72          	16.74          	5.346
MS.73          	16.705         	5.358
MS.74          	16.672         	5.338
MS.75          	16.64          	5.333
MS.76          	16.605         	5.352
MS.77          	16.573         	5.364
MS.78          	16.54          	5.366
MS.79          	16.507         	5.333
MS.80          	16.472         	5.348
MS.81          	16.44          	5.319
MS.82          	16.407         	5.38
MS.83          	16.375         	5.362
MS.84          	16.342         	5.285
MS.85          	16.31          	5.374
MS.86          	16.278         	5.297
MS.87          	16.245         	5.396
MS.88          	16.212         	5.319
MS.89          	16.18          	5.39
MS.90          	16.147         	5.307
MS.91          	16.115         	5.394
MS.92          	16.083         	5.301
MS.93          	16.05          	5.309
MS.94          	16.02          	5.305
MS.95          	15.987         	5.293
MS.96          	15.955         	5.362
MS.97          	15.922         	5.311
MS.98          	15.89          	5.303
MS.99          	15.86          	5.305
MS.100         	15.827         	5.303
MS.101         	15.795         	5.307
MS.102         	15.765         	5.303
MS.103         	15.733         	5.299
MS.104         	15.702         	5.297
MS.105         	15.67          	5.311
MS.106         	15.64          	5.313
MS.107         	15.608         	5.303
MS.108         	15.577         	5.301
MS.109         	15.545         	5.303
MS.110         	15.515         	5.303
MS.111         	15.483         	5.301
MS.112         	15.452         	5.311
MS.113         	15.422         	5.299
MS.114         	15.39          	5.301
MS.115         	15.36          	5.295
MS.116         	15.33          	5.313
MS.117         	15.297         	5.299
MS.118         	15.267         	5.307
MS.119         	15.237         	5.299
MS.120         	15.207         	5.297
MS.121         	15.177         	5.305
MS.122         	15.148         	5.299
MS.123         	15.115         	5.251
MS.124         	15.085         	5.257
MS.125         	15.055         	5.303
MS.126         	15.025         	5.245
MS.127         	14.995         	5.297
MS.128         	14.965         	5.241
MS.129         	14.935         	5.265
MS.130         	14.905         	5.317
MS.131         	14.877         	5.241
MS.132         	14.847         	5.241
MS.133         	14.818         	5.237
MS.134         	14.787         	5.263
MS.135         	14.757         	5.166
MS.136         	14.727         	5.233
MS.137         	14.7           	5.265
MS.138         	14.67          	5.255
MS.139         	14.64          	5.174
MS.140         	14.61          	5.243
MS.141         	14.582         	5.162
MS.142         	14.552         	5.271
MS.143         	14.523         	5.156
MS.144         	14.495         	5.255
MS.145         	14.465         	5.249
MS.146         	14.438         	5.271
MS.147         	14.407         	5.148
MS.148         	14.38          	5.223
MS.149         	14.35          	5.154
MS.150         	14.322         	5.233
MS.151         	14.292         	5.118
MS.152         	14.265         	5.217
MS.153         	14.235         	5.144
MS.154         	14.207         	5.162
MS.155         	14.18          	5.152
MS.156         	14.15          	5.16
MS.157         	14.122         	5.14
MS.158         	14.095         	5.14
MS.159         	14.065         	5.13
MS.160         	14.037         	5.128
MS.161         	14.01          	5.138
MS.162         	13.983         	5.142
MS.163         	13.955         	5.12
MS.164         	13.925         	5.14
MS.165         	13.898         	5.128
MS.166         	13.87          	5.13
MS.167         	13.842         	5.114
MS.168         	13.815         	5.136
MS.169         	13.787         	5.106
MS.170         	13.76          	5.12
MS.171         	13.733         	5.1
MS.172         	13.705         	5.039
MS.173         	13.677         	5.104
MS.174         	13.65          	5.047
MS.175         	13.622         	5.12
MS.176         	13.595         	5.072
MS.177         	13.568         	5.118
MS.178         	13.542         	5.064
MS.179         	13.515         	5.054
MS.180         	13.487         	5.09
MS.181         	13.46          	5.041
MS.182         	13.432         	5.104
MS.183         	13.407         	5.062
MS.184         	13.38          	5.043
MS.185         	13.352         	5.013
MS.186         	13.327         	5.045
MS.187         	13.3           	5.019
MS.188         	13.273         	4.995
MS.189         	13.247         	5.011
MS.190         	13.22          	5.015
MS.191         	13.195         	5.013
MS.192         	13.167         	5.013
MS.193         	13.142         	4.985
MS.194         	13.115         	5.033
MS.195         	13.09          	5.001
MS.196         	13.062         	4.995
MS.197         	13.037         	4.989
MS.198         	13.01          	5.001
MS.199         	12.985         	4.995
MS.200         	12.957         	4.999
MS.201         	12.932         	4.995
MS.202         	12.907         	4.989
MS.203         	12.88          	4.991
MS.204         	12.855         	5.003
MS.205         	12.83          	5.003
MS.206         	12.805         	4.995
MS.207         	12.778         	4.969
MS.208         	12.752         	5.003
MS.209         	12.727         	4.961
MS.210         	12.702         	4.977
MS.211         	12.677         	4.975
MS.212         	12.653         	4.977
MS.213         	12.625         	4.979
MS.214         	12.6           	4.959
MS.215         	12.575         	4.959
MS.216         	12.55          	4.963
MS.217         	12.525         	4.951
MS.218         	12.5           	4.969
MS.219         	12.475         	4.947
MS.220         	12.45          	4.961
MS.221         	12.425         	4.955
MS.222         	12.4           	4.971
MS.223         	12.375         	4.951
MS.224         	12.352         	4.949
MS.225         	12.327         	4.947
MS.226         	12.302         	4.941
MS.227         	12.278         	4.961
MS.228         	12.252         	4.953
MS.229         	12.227         	4.941
MS.230         	12.205         	4.941
MS.231         	12.18          	4.949
MS.232         	12.155         	4.937
MS.233         	12.13          	4.937
MS.234         	12.108         	4.923
MS.235         	12.082         	4.927
MS.236         	12.057         	4.919
MS.237         	12.035         	4.919
MS.238         	12.01          	4.927
MS.239         	11.988         	4.923
MS.240         	11.962         	4.935
MS.241         	11.938         	4.935
MS.242         	11.915         	4.925
MS.243         	11.89          	4.915
MS.244         	11.867         	4.917
MS.245         	11.842         	4.935
MS.246         	11.82          	4.923
MS.247         	11.795         	4.923
MS.248         	11.773         	4.919
MS.249         	11.75          	4.87
MS.250         	11.725         	4.923
MS.251         	11.702         	4.848
MS.252         	11.677         	4.878
MS.253         	11.655         	4.836
MS.254         	11.632         	4.884
MS.255         	11.61          	4.884
MS.256         	11.585         	4.842
MS.257         	11.562         	4.828
MS.258         	11.54          	4.81
MS.259         	11.517         	4.832
MS.260         	11.492         	4.82
MS.261         	11.47          	4.868
MS.262         	11.447         	4.766
MS.263         	11.425         	4.766
MS.264         	11.403         	4.763
MS.265         	11.38          	4.766
MS.266         	11.355         	4.782
MS.267         	11.332         	4.763
MS.268         	11.31          	4.776
MS.269         	11.287         	4.723
MS.270         	11.265         	4.721
MS.271         	11.242         	4.526
MS.272         	11.22          	4.735
MS.273         	11.197         	4.695
MS.274         	11.175         	4.54
MS.275         	11.153         	4.566
MS.276         	11.132         	4.564
MS.277         	11.11          	4.566
MS.278         	11.087         	4.711
MS.279         	11.065         	4.598
MS.280         	11.042         	4.562
MS.281         	11.02          	4.556
MS.282         	10.997         	4.568
MS.283         	10.977         	4.703
MS.284         	10.955         	4.528
MS.285         	10.932         	4.538
MS.286         	10.91          	4.306
MS.287         	10.89          	4.304
MS.288         	10.867         	4.536
MS.289         	10.845         	4.534
MS.290         	10.825         	4.26
MS.291         	10.802         	4.522
MS.292         	10.78          	4.28
MS.293         	10.76          	4.292
MS.294         	10.738         	4.496
MS.295         	10.717         	4.498
MS.296         	10.695         	4.496
MS.297         	10.672         	4.123
MS.298         	10.653         	4.24
MS.299         	10.63          	4.286
MS.300         	10.61          	4.268
MS.301         	10.587         	4.369
MS.302         	10.568         	4.282
MS.303         	10.545         	4.171
MS.304         	10.525         	4.244
MS.305         	10.505         	4.119
MS.306         	10.483         	4.2
MS.307         	10.462         	4.202
MS.308         	10.443         	4.125
MS.309         	10.42          	4.214
MS.310         	10.4           	4.157
MS.311         	10.38          	4.119
MS.312         	10.358         	4.111
MS.313         	10.337         	4.083
MS.314         	10.318         	4.089
MS.315         	10.295         	4.111
MS.316         	10.275         	4.026
MS.317         	10.255         	4.103
MS.318         	10.235         	4.095
MS.319         	10.215         	4.01
MS.320         	10.193         	4.067
MS.321         	10.172         	4.081
MS.322         	10.153         	4.048
MS.323         	10.132         	4.105
MS.324         	10.113         	4.016
MS.325         	10.092         	3.976
MS.326         	10.073         	3.92
MS.327         	10.052         	3.994
MS.328         	10.032         	4.032
MS.329         	10.012         	3.766
MS.330         	9.992          	3.696
MS.331         	9.972          	3.607
MS.332         	9.952          	3.68
MS.333         	9.932          	3.656
MS.334         	9.912          	3.652
MS.335         	9.892          	3.668
MS.336         	9.872          	3.752
MS.337         	9.852          	3.513
MS.338         	9.832          	3.63
MS.339         	9.812          	3.569
MS.340         	9.795          	3.535
MS.341         	9.775          	3.501
MS.342         	9.755          	3.233
MS.343         	9.735          	3.571
MS.344         	9.715          	3.569
MS.345         	9.698          	3.225
MS.346         	9.677          	3.243
MS.347         	9.657          	3.297
MS.348         	9.637          	3.207
MS.349         	9.62           	3.203
MS.350         	9.6            	3.084
MS.351         	9.58           	3.378
MS.352         	9.562          	3.227
MS.353         	9.542          	3.408
MS.354         	9.523          	2.808
MS.355         	9.505          	2.685
MS.356         	9.485          	3.178
MS.357         	9.467          	2.616
MS.358         	9.448          	3.136
MS.359         	9.43           	3.005
MS.360         	9.41           	2.542
MS.361         	9.39           	3.17
MS.362         	9.372          	2.929
MS.363         	9.352          	2.6
MS.364         	9.335          	2.516
MS.365         	9.318          	2.532
MS.366         	9.297          	2.447
MS.367         	9.28           	2.284
MS.368         	9.26           	2.349
MS.369         	9.242          	2.548
MS.370         	9.222          	2.538
MS.371         	9.205          	2.391
MS.372         	9.188          	2.222
MS.373         	9.167          	2.29
MS.374         	9.15           	2.403
MS.375         	9.132          	2.471
MS.376         	9.113          	2.101
MS.377         	9.095          	2.077
MS.378         	9.077          	2.292
MS.379         	9.06           	2.109
MS.380         	9.04           	2.181
MS.381         	9.023          	1.984
MS.382         	9.005          	2.195
MS.383         	8.988          	2.075
MS.384         	8.97           	2.048
MS.385         	8.95           	2.109
MS.386         	8.932          	1.966
MS.387         	8.915          	2.02
MS.388         	8.898          	2.177
MS.389         	8.88           	1.968
MS.390         	8.863          	2
MS.391         	8.845          	2.06
MS.392         	8.827          	1.907
MS.393         	8.81           	2.036
MS.394         	8.792          	1.907
MS.395         	8.775          	1.954
MS.396         	8.755          	1.865
MS.397         	8.74           	1.893
MS.398         	8.722          	1.909
MS.399         	8.705          	1.954
MS.400         	8.688          	1.873
MS.401         	8.67           	1.907
MS.402         	8.653          	1.839
MS.403         	8.635          	1.68
MS.404         	8.617          	1.65
MS.405         	8.6            	1.825
MS.406         	8.582          	1.607
MS.407         	8.565          	1.569
MS.408         	8.547          	1.567
MS.409         	8.533          	1.726
MS.410         	8.515          	1.65
MS.411         	8.497          	1.734
MS.412         	8.48           	1.72
MS.413         	8.462          	1.686
MS.414         	8.448          	1.488
MS.415         	8.43           	1.682
MS.416         	8.412          	1.39
MS.417         	8.395          	1.72
MS.418         	8.38           	1.48
MS.419         	8.363          	1.561
MS.420         	8.345          	1.452
MS.421         	8.33           	1.404
MS.422         	8.312          	1.229
MS.423         	8.295          	1.297
MS.424         	8.28           	1.486
MS.425         	8.262          	1.422
MS.426         	8.247          	1.243
MS.427         	8.23           	1.168
MS.428         	8.212          	1.156
MS.429         	8.198          	1.315
MS.430         	8.18           	1.184
MS.431         	8.165          	1.154
MS.432         	8.148          	1.301
MS.433         	8.132          	1.303
MS.434         	8.115          	1.154
MS.435         	8.1            	1.102
MS.436         	8.082          	1.144
MS.437         	8.068          	1.039
MS.438         	8.05           	1.235
MS.439         	8.035          	1.072
MS.440         	8.017          	1.168
MS.441         	8.002          	1.096
MS.442         	7.987          	1.092
MS.443         	7.97           	0.876
MS.444         	7.955          	1.07
MS.445         	7.94           	1.019
MS.446         	7.922          	0.882
MS.447         	7.907          	0.975
MS.448         	7.892          	0.862
MS.449         	7.875          	1.053
MS.450         	7.86           	0.886
MS.451         	7.845          	0.856
MS.452         	7.827          	0.824
MS.453         	7.812          	0.81
MS.454         	7.797          	0.79
MS.455         	7.782          	0.773
MS.456         	7.765          	0.832
MS.457         	7.735          	0.786
MS.458         	7.72           	0.798
MS.459         	7.705          	0.834
MS.460         	7.69           	0.792
MS.461         	7.672          	0.745
MS.462         	7.657          	0.794
MS.463         	7.642          	0.808
MS.464         	7.628          	0.707
MS.465         	7.612          	0.781
MS.466         	7.597          	0.733
MS.467         	7.582          	0.755
MS.468         	7.567          	0.655
MS.469         	7.552          	0.709
MS.470         	7.537          	0.727
MS.471         	7.523          	0.596
MS.472         	7.507          	0.705
MS.473         	7.492          	0.566
MS.474         	7.477          	0.566
MS.475         	7.462          	0.548
MS.476         	7.447          	0.538
MS.477         	7.432          	0.586
MS.478         	7.418          	0.441
MS.479         	7.402          	0.548
MS.480         	7.387          	0.761
MS.481         	7.372          	0.572
MS.482         	7.357          	0.522
MS.483         	7.342          	0.514
MS.484         	7.327          	0.518
MS.485         	7.315          	0.564
MS.486         	7.3            	0.437
MS.487         	7.285          	0.54
MS.488         	7.27           	0.534
MS.489         	7.255          	0.52
MS.490         	7.24           	0.415
MS.491         	7.227          	0.405
MS.492         	7.212          	0.411
MS.493         	7.197          	0.405
MS.494         	7.182          	0.469
MS.495         	7.17           	0.52
MS.496         	7.155          	0.395
MS.497         	7.14           	0.381
MS.498         	7.125          	0.322
MS.499         	7.112          	0.363
MS.500         	7.097          	0.429
MS.501         	7.082          	0.316
