File:              	C:\Qtrac\Data\Daniel M Sørensen\MScan multicentre study\Data from centres\Roskilde\Folders with NC-examinations\ROS_N9b\MBC00603B.QZD
Name:              	DK.ROS.NC.9.2
Protocol:          	MSCAN-R2
Date:              	3/6/20
Start time:        	09:37:28
Age:               	60
Sex:               	f
Temperature:       	36.4
S/R sites:         	Ulnar Wr-ADM
NC/disease:        	NC
Operator:          	MB
Comments:
M-SCAN DATA (Repeat 2/2, 14.6-8.3m)
Scanpts: 5, 12, 603, 625
Stim. (mA)     	Amp. (mV)
MS.1           	13.5           	7.402
MS.2           	13.5           	7.424
MS.3           	13.5           	7.44
MS.4           	13.5           	7.416
MS.5           	13.5           	7.412
MS.6           	13.5           	7.392
MS.7           	13.5           	7.386
MS.8           	13.5           	7.4
MS.9           	13.5           	7.39
MS.10          	13.5           	7.37
MS.11          	13.5           	7.376
MS.12          	13.5           	7.37
MS.13          	13.5           	7.344
MS.14          	13.5           	7.356
MS.15          	13.5           	7.34
MS.16          	13.5           	7.34
MS.17          	13.5           	7.36
MS.18          	13.5           	7.321
MS.19          	13.5           	7.273
MS.20          	13.5           	7.263
MS.21          	13.5           	7.223
MS.22          	13.5           	7.209
MS.23          	13.5           	7.219
MS.24          	13.472         	7.182
MS.25          	13.445         	7.225
MS.26          	13.42          	7.195
MS.27          	13.392         	7.205
MS.28          	13.365         	7.223
MS.29          	13.34          	7.231
MS.30          	13.312         	7.201
MS.31          	13.285         	7.221
MS.32          	13.26          	7.225
MS.33          	13.233         	7.211
MS.34          	13.205         	7.245
MS.35          	13.18          	7.253
MS.36          	13.153         	7.197
MS.37          	13.127         	7.18
MS.38          	13.1           	7.17
MS.39          	13.075         	7.195
MS.40          	13.047         	7.191
MS.41          	13.023         	7.203
MS.42          	12.997         	7.18
MS.43          	12.97          	7.199
MS.44          	12.945         	7.205
MS.45          	12.92          	7.172
MS.46          	12.892         	7.191
MS.47          	12.867         	7.178
MS.48          	12.842         	7.158
MS.49          	12.815         	7.152
MS.50          	12.79          	7.154
MS.51          	12.765         	7.166
MS.52          	12.74          	7.176
MS.53          	12.715         	7.166
MS.54          	12.688         	7.168
MS.55          	12.662         	7.182
MS.56          	12.637         	7.174
MS.57          	12.613         	7.201
MS.58          	12.587         	7.205
MS.59          	12.562         	7.154
MS.60          	12.537         	7.168
MS.61          	12.512         	7.18
MS.62          	12.488         	7.176
MS.63          	12.462         	7.182
MS.64          	12.438         	7.164
MS.65          	12.412         	7.164
MS.66          	12.387         	7.158
MS.67          	12.363         	7.17
MS.68          	12.337         	7.207
MS.69          	12.312         	7.172
MS.70          	12.29          	7.187
MS.71          	12.265         	7.142
MS.72          	12.24          	7.13
MS.73          	12.215         	7.138
MS.74          	12.19          	7.164
MS.75          	12.167         	7.154
MS.76          	12.142         	7.18
MS.77          	12.117         	7.124
MS.78          	12.095         	7.12
MS.79          	12.07          	7.136
MS.80          	12.045         	7.118
MS.81          	12.023         	7.122
MS.82          	11.997         	7.164
MS.83          	11.972         	7.146
MS.84          	11.95          	7.146
MS.85          	11.925         	7.14
MS.86          	11.903         	7.138
MS.87          	11.877         	7.132
MS.88          	11.855         	7.144
MS.89          	11.83          	7.154
MS.90          	11.807         	7.144
MS.91          	11.782         	7.152
MS.92          	11.76          	7.15
MS.93          	11.738         	7.136
MS.94          	11.712         	7.164
MS.95          	11.69          	7.156
MS.96          	11.665         	7.144
MS.97          	11.642         	7.146
MS.98          	11.62          	7.14
MS.99          	11.597         	7.176
MS.100         	11.572         	7.138
MS.101         	11.55          	7.142
MS.102         	11.528         	7.144
MS.103         	11.505         	7.152
MS.104         	11.48          	7.138
MS.105         	11.457         	7.138
MS.106         	11.435         	7.138
MS.107         	11.412         	7.13
MS.108         	11.39          	7.118
MS.109         	11.367         	7.11
MS.110         	11.345         	7.124
MS.111         	11.322         	7.128
MS.112         	11.297         	7.126
MS.113         	11.275         	7.12
MS.114         	11.252         	7.138
MS.115         	11.23          	7.116
MS.116         	11.207         	7.094
MS.117         	11.188         	7.088
MS.118         	11.165         	7.152
MS.119         	11.142         	7.124
MS.120         	11.12          	7.138
MS.121         	11.097         	7.138
MS.122         	11.075         	7.086
MS.123         	11.052         	7.084
MS.124         	11.03          	7.152
MS.125         	11.007         	7.118
MS.126         	10.988         	6.933
MS.127         	10.965         	6.953
MS.128         	10.943         	6.868
MS.129         	10.92          	6.814
MS.130         	10.9           	6.741
MS.131         	10.877         	6.794
MS.132         	10.855         	6.76
MS.133         	10.835         	6.709
MS.134         	10.812         	6.758
MS.135         	10.79          	6.733
MS.136         	10.77          	6.675
MS.137         	10.747         	6.721
MS.138         	10.725         	6.709
MS.139         	10.705         	6.713
MS.140         	10.682         	6.687
MS.141         	10.662         	6.709
MS.142         	10.64          	6.608
MS.143         	10.62          	6.663
MS.144         	10.597         	6.649
MS.145         	10.577         	6.643
MS.146         	10.555         	6.741
MS.147         	10.535         	6.733
MS.148         	10.515         	6.653
MS.149         	10.492         	6.713
MS.150         	10.472         	6.659
MS.151         	10.45          	6.737
MS.152         	10.43          	6.625
MS.153         	10.41          	6.619
MS.154         	10.387         	6.631
MS.155         	10.367         	6.564
MS.156         	10.347         	6.629
MS.157         	10.327         	6.612
MS.158         	10.305         	6.463
MS.159         	10.285         	6.518
MS.160         	10.265         	6.568
MS.161         	10.245         	6.459
MS.162         	10.222         	6.562
MS.163         	10.202         	6.582
MS.164         	10.182         	6.482
MS.165         	10.162         	6.474
MS.166         	10.142         	6.451
MS.167         	10.122         	6.572
MS.168         	10.102         	6.437
MS.169         	10.082         	6.524
MS.170         	10.06          	6.564
MS.171         	10.04          	6.425
MS.172         	10.02          	6.403
MS.173         	10             	6.379
MS.174         	9.98           	6.228
MS.175         	9.96           	6.419
MS.176         	9.94           	6.296
MS.177         	9.922          	6.355
MS.178         	9.903          	6.373
MS.179         	9.882          	6.345
MS.180         	9.863          	6.183
MS.181         	9.842          	6.171
MS.182         	9.823          	6.27
MS.183         	9.802          	6.298
MS.184         	9.782          	6.218
MS.185         	9.765          	6.149
MS.186         	9.745          	6.101
MS.187         	9.725          	6.117
MS.188         	9.705          	6.22
MS.189         	9.685          	6.067
MS.190         	9.667          	6.107
MS.191         	9.648          	6.119
MS.192         	9.627          	5.978
MS.193         	9.61           	6.194
MS.194         	9.59           	6.238
MS.195         	9.57           	6.129
MS.196         	9.552          	6.014
MS.197         	9.532          	6.107
MS.198         	9.512          	6
MS.199         	9.495          	6.022
MS.200         	9.475          	5.819
MS.201         	9.457          	6.006
MS.202         	9.438          	5.918
MS.203         	9.417          	5.936
MS.204         	9.4            	5.988
MS.205         	9.38           	5.887
MS.206         	9.363          	5.724
MS.207         	9.342          	5.706
MS.208         	9.325          	5.622
MS.209         	9.307          	5.924
MS.210         	9.287          	5.859
MS.211         	9.27           	5.879
MS.212         	9.25           	5.807
MS.213         	9.233          	5.867
MS.214         	9.212          	5.537
MS.215         	9.195          	5.831
MS.216         	9.177          	5.835
MS.217         	9.158          	5.706
MS.218         	9.14           	5.734
MS.219         	9.122          	5.493
MS.220         	9.105          	5.501
MS.221         	9.085          	5.599
MS.222         	9.068          	5.543
MS.223         	9.05           	5.406
MS.224         	9.03           	5.654
MS.225         	9.012          	5.454
MS.226         	8.995          	5.4
MS.227         	8.977          	5.493
MS.228         	8.96           	5.422
MS.229         	8.943          	5.287
MS.230         	8.922          	5.303
MS.231         	8.905          	5.275
MS.232         	8.887          	5.416
MS.233         	8.87           	5.239
MS.234         	8.852          	5.392
MS.235         	8.835          	5.277
MS.236         	8.818          	5.229
MS.237         	8.8            	5.333
MS.238         	8.783          	5.076
MS.239         	8.765          	5.323
MS.240         	8.747          	5.307
MS.241         	8.73           	5.166
MS.242         	8.712          	5.086
MS.243         	8.695          	5.164
MS.244         	8.677          	5.076
MS.245         	8.66           	4.921
MS.246         	8.642          	4.945
MS.247         	8.625          	5.1
MS.248         	8.608          	4.987
MS.249         	8.59           	4.888
MS.250         	8.573          	4.832
MS.251         	8.557          	4.772
MS.252         	8.54           	4.983
MS.253         	8.523          	4.856
MS.254         	8.505          	4.737
MS.255         	8.488          	4.77
MS.256         	8.472          	4.85
MS.257         	8.455          	4.651
MS.258         	8.438          	4.852
MS.259         	8.42           	4.653
MS.260         	8.405          	4.757
MS.261         	8.387          	4.598
MS.262         	8.37           	4.492
MS.263         	8.352          	4.572
MS.264         	8.337          	4.554
MS.265         	8.32           	4.618
MS.266         	8.302          	4.524
MS.267         	8.287          	4.469
MS.268         	8.27           	4.385
MS.269         	8.255          	4.393
MS.270         	8.238          	4.397
MS.271         	8.22           	4.526
MS.272         	8.205          	4.218
MS.273         	8.188          	4.226
MS.274         	8.172          	4.334
MS.275         	8.155          	4.298
MS.276         	8.14           	4.306
MS.277         	8.122          	4.177
MS.278         	8.108          	4.113
MS.279         	8.09           	3.833
MS.280         	8.075          	4.159
MS.281         	8.057          	4.187
MS.282         	8.042          	4.222
MS.283         	8.025          	4.008
MS.284         	8.01           	3.845
MS.285         	7.995          	3.787
MS.286         	7.977          	3.835
MS.287         	7.962          	3.811
MS.288         	7.945          	3.815
MS.289         	7.93           	3.76
MS.290         	7.915          	3.648
MS.291         	7.898          	3.535
MS.292         	7.882          	3.672
MS.293         	7.867          	3.65
MS.294         	7.852          	3.553
MS.295         	7.835          	3.65
MS.296         	7.82           	3.692
MS.297         	7.805          	3.474
MS.298         	7.79           	3.313
MS.299         	7.773          	3.364
MS.300         	7.757          	3.144
MS.301         	7.742          	3.259
MS.302         	7.727          	3.225
MS.303         	7.712          	3.493
MS.304         	7.695          	3.194
MS.305         	7.68           	3.319
MS.306         	7.665          	3.051
MS.307         	7.65           	3.094
MS.308         	7.635          	2.977
MS.309         	7.62           	2.854
MS.310         	7.605          	2.767
MS.311         	7.59           	3.033
MS.312         	7.575          	3.06
MS.313         	7.557          	2.88
MS.314         	7.543          	2.983
MS.315         	7.527          	2.751
MS.316         	7.512          	2.836
MS.317         	7.497          	2.995
MS.318         	7.482          	2.818
MS.319         	7.467          	2.683
MS.320         	7.452          	2.655
MS.321         	7.438          	2.778
MS.322         	7.425          	2.685
MS.323         	7.41           	2.737
MS.324         	7.395          	2.598
MS.325         	7.38           	2.739
MS.326         	7.365          	2.743
MS.327         	7.35           	2.757
MS.328         	7.335          	2.693
MS.329         	7.32           	2.57
MS.330         	7.305          	2.637
MS.331         	7.293          	2.624
MS.332         	7.277          	2.651
MS.333         	7.262          	2.663
MS.334         	7.247          	2.586
MS.335         	7.233          	2.526
MS.336         	7.22           	2.612
MS.337         	7.205          	2.604
MS.338         	7.19           	2.647
MS.339         	7.175          	2.554
MS.340         	7.162          	2.552
MS.341         	7.148          	2.562
MS.342         	7.132          	2.479
MS.343         	7.117          	2.518
MS.344         	7.105          	2.568
MS.345         	7.09           	2.574
MS.346         	7.075          	2.528
MS.347         	7.062          	2.455
MS.348         	7.047          	2.447
MS.349         	7.032          	2.469
MS.350         	7.02           	2.449
MS.351         	7.005          	2.419
MS.352         	6.992          	2.473
MS.353         	6.977          	2.526
MS.354         	6.962          	2.455
MS.355         	6.95           	2.433
MS.356         	6.935          	2.443
MS.357         	6.922          	2.401
MS.358         	6.907          	2.308
MS.359         	6.895          	2.403
MS.360         	6.88           	2.379
MS.361         	6.867          	2.401
MS.362         	6.852          	2.494
MS.363         	6.84           	2.318
MS.364         	6.825          	2.369
MS.365         	6.812          	2.332
MS.366         	6.797          	2.397
MS.367         	6.785          	2.306
MS.368         	6.773          	2.344
MS.369         	6.757          	2.334
MS.370         	6.745          	2.27
MS.371         	6.73           	2.349
MS.372         	6.717          	2.294
MS.373         	6.705          	2.332
MS.374         	6.69           	2.298
MS.375         	6.677          	2.189
MS.376         	6.665          	2.234
MS.377         	6.65           	2.26
MS.378         	6.637          	2.244
MS.379         	6.625          	2.254
MS.380         	6.61           	2.286
MS.381         	6.597          	2.228
MS.382         	6.585          	2.222
MS.383         	6.57           	2.248
MS.384         	6.557          	2.173
MS.385         	6.545          	2.183
MS.386         	6.532          	2.244
MS.387         	6.52           	2.208
MS.388         	6.505          	2.248
MS.389         	6.492          	2.161
MS.390         	6.48           	2.109
MS.391         	6.467          	2.181
MS.392         	6.455          	2.095
MS.393         	6.44           	2.109
MS.394         	6.427          	2.165
MS.395         	6.415          	2.197
MS.396         	6.402          	2.004
MS.397         	6.39           	2.038
MS.398         	6.378          	2.133
MS.399         	6.365          	2.091
MS.400         	6.352          	1.905
MS.401         	6.34           	2.042
MS.402         	6.325          	2.058
MS.403         	6.312          	2.113
MS.404         	6.3            	1.885
MS.405         	6.287          	1.974
MS.406         	6.275          	1.966
MS.407         	6.262          	1.859
MS.408         	6.25           	1.845
MS.409         	6.237          	2.008
MS.410         	6.225          	1.932
MS.411         	6.213          	1.849
MS.412         	6.2            	2.048
MS.413         	6.188          	1.847
MS.414         	6.175          	1.813
MS.415         	6.165          	2.101
MS.416         	6.152          	1.946
MS.417         	6.14           	1.897
MS.418         	6.128          	1.998
MS.419         	6.115          	1.783
MS.420         	6.102          	1.73
MS.421         	6.09           	1.897
MS.422         	6.077          	1.627
MS.423         	6.065          	1.772
MS.424         	6.055          	1.696
MS.425         	6.043          	1.875
MS.426         	6.03           	1.698
MS.427         	6.017          	1.595
MS.428         	6.005          	1.623
MS.429         	5.992          	1.652
MS.430         	5.983          	1.587
MS.431         	5.97           	1.519
MS.432         	5.957          	1.746
MS.433         	5.945          	1.474
MS.434         	5.935          	1.474
MS.435         	5.922          	1.541
MS.436         	5.91           	1.565
MS.437         	5.898          	1.527
MS.438         	5.887          	1.561
MS.439         	5.875          	1.529
MS.440         	5.862          	1.511
MS.441         	5.852          	1.279
MS.442         	5.84           	1.354
MS.443         	5.827          	1.424
MS.444         	5.817          	1.484
MS.445         	5.805          	1.231
MS.446         	5.793          	1.259
MS.447         	5.782          	1.053
MS.448         	5.77           	1.213
MS.449         	5.757          	1.315
MS.450         	5.747          	1.267
MS.451         	5.735          	1.152
MS.452         	5.725          	1.237
MS.453         	5.713          	1.128
MS.454         	5.702          	1.14
MS.455         	5.69           	1.104
MS.456         	5.677          	1.138
MS.457         	5.668          	0.973
MS.458         	5.655          	1.009
MS.459         	5.645          	0.884
MS.460         	5.632          	0.951
MS.461         	5.622          	0.989
MS.462         	5.61           	1.045
MS.463         	5.6            	0.943
MS.464         	5.588          	0.959
MS.465         	5.577          	1.076
MS.466         	5.565          	0.882
MS.467         	5.555          	0.912
MS.468         	5.545          	0.864
MS.469         	5.532          	0.931
MS.470         	5.523          	0.86
MS.471         	5.51           	0.798
MS.472         	5.5            	0.872
MS.473         	5.487          	0.647
MS.474         	5.477          	0.846
MS.475         	5.467          	0.802
MS.476         	5.455          	0.798
MS.477         	5.445          	0.755
MS.478         	5.435          	0.781
MS.479         	5.422          	0.838
MS.480         	5.412          	0.751
MS.481         	5.402          	0.719
MS.482         	5.39           	0.624
MS.483         	5.38           	0.62
MS.484         	5.37           	0.727
MS.485         	5.358          	0.572
MS.486         	5.347          	0.703
MS.487         	5.338          	0.725
MS.488         	5.327          	0.773
MS.489         	5.315          	0.761
MS.490         	5.305          	0.554
MS.491         	5.295          	0.58
MS.492         	5.285          	0.459
MS.493         	5.273          	0.443
MS.494         	5.262          	0.574
MS.495         	5.253          	0.443
MS.496         	5.242          	0.429
MS.497         	5.233          	0.399
MS.498         	5.22           	0.393
MS.499         	5.21           	0.363
MS.500         	5.2            	0.457
