File:              	C:\Qtrac\Data\Daniel M Sørensen\MScan multicentre study\Data from centres\Roskilde\Folders with NC-examinations\ROS_N9a\MBC00527A.QZD
Name:              	DK.ROS.NC.9.1
Protocol:          	MSCAN-R2
Date:              	27/5/20
Start time:        	13:38:02
Age:               	60
Sex:               	F
Temperature:       	34.5
S/R sites:         	Median Wr-APB
NC/disease:        	NC
Operator:          	MB
Comments:
M-SCAN DATA (6.9-1.4m)
Scanpts: 221, 230, 584, 587
Stim. (mA)     	Amp. (mV)
MS.1           	10.5           	5.906
MS.2           	10.5           	5.91
MS.3           	10.5           	5.924
MS.4           	10.5           	5.887
MS.5           	10.5           	5.906
MS.6           	10.5           	5.906
MS.7           	10.5           	5.904
MS.8           	10.5           	5.893
MS.9           	10.5           	5.904
MS.10          	10.5           	5.891
MS.11          	10.5           	5.881
MS.12          	10.5           	5.879
MS.13          	10.5           	5.897
MS.14          	10.5           	5.885
MS.15          	10.5           	5.865
MS.16          	10.5           	5.901
MS.17          	10.5           	5.906
MS.18          	10.5           	5.934
MS.19          	10.5           	5.942
MS.20          	10.5           	5.942
MS.21          	10.5           	5.938
MS.22          	10.5           	5.952
MS.23          	10.5           	5.944
MS.24          	10.457         	5.95
MS.25          	10.438         	5.944
MS.26          	10.417         	5.946
MS.27          	10.395         	5.954
MS.28          	10.375         	5.97
MS.29          	10.355         	5.972
MS.30          	10.332         	5.976
MS.31          	10.312         	5.984
MS.32          	10.292         	5.99
MS.33          	10.273         	6
MS.34          	10.25          	6.004
MS.35          	10.23          	6.002
MS.36          	10.21          	5.998
MS.37          	10.19          	5.982
MS.38          	10.17          	5.968
MS.39          	10.15          	5.978
MS.40          	10.127         	5.98
MS.41          	10.108         	5.996
MS.42          	10.087         	5.998
MS.43          	10.068         	5.986
MS.44          	10.047         	5.978
MS.45          	10.028         	5.988
MS.46          	10.007         	5.992
MS.47          	9.988          	5.996
MS.48          	9.967          	5.988
MS.49          	9.948          	5.982
MS.50          	9.927          	5.984
MS.51          	9.907          	5.99
MS.52          	9.887          	5.978
MS.53          	9.867          	5.982
MS.54          	9.85           	5.982
MS.55          	9.83           	5.98
MS.56          	9.81           	5.976
MS.57          	9.79           	5.984
MS.58          	9.77           	5.986
MS.59          	9.75           	5.992
MS.60          	9.733          	5.994
MS.61          	9.712          	6
MS.62          	9.693          	6
MS.63          	9.672          	6.006
MS.64          	9.655          	6.016
MS.65          	9.635          	6.006
MS.66          	9.615          	6.016
MS.67          	9.595          	6.03
MS.68          	9.577          	6.01
MS.69          	9.557          	6.016
MS.70          	9.54           	6.016
MS.71          	9.52           	6.01
MS.72          	9.5            	6.018
MS.73          	9.483          	6.012
MS.74          	9.462          	6.016
MS.75          	9.445          	6.012
MS.76          	9.425          	6.004
MS.77          	9.405          	6.01
MS.78          	9.387          	6.006
MS.79          	9.367          	6.012
MS.80          	9.35           	6
MS.81          	9.332          	6.012
MS.82          	9.312          	6.012
MS.83          	9.295          	6.006
MS.84          	9.275          	6.01
MS.85          	9.257          	5.988
MS.86          	9.238          	5.998
MS.87          	9.22           	5.998
MS.88          	9.202          	5.986
MS.89          	9.182          	5.996
MS.90          	9.165          	5.996
MS.91          	9.148          	6.004
MS.92          	9.127          	6.016
MS.93          	9.11           	6.002
MS.94          	9.092          	5.988
MS.95          	9.073          	5.992
MS.96          	9.055          	5.986
MS.97          	9.037          	5.992
MS.98          	9.02           	6.002
MS.99          	9.002          	5.992
MS.100         	8.983          	5.996
MS.101         	8.965          	5.99
MS.102         	8.948          	6.004
MS.103         	8.93           	6.002
MS.104         	8.912          	6.016
MS.105         	8.895          	5.998
MS.106         	8.875          	6.012
MS.107         	8.858          	6.014
MS.108         	8.84           	6.024
MS.109         	8.823          	6.012
MS.110         	8.805          	6.016
MS.111         	8.787          	6.016
MS.112         	8.77           	6.026
MS.113         	8.752          	6.02
MS.114         	8.735          	6.012
MS.115         	8.717          	6.02
MS.116         	8.7            	6.012
MS.117         	8.682          	6.006
MS.118         	8.665          	6.002
MS.119         	8.648          	6.032
MS.120         	8.63           	6.032
MS.121         	8.615          	6.026
MS.122         	8.597          	6.02
MS.123         	8.58           	6.01
MS.124         	8.562          	6.026
MS.125         	8.545          	6.022
MS.126         	8.528          	6.024
MS.127         	8.51           	6.008
MS.128         	8.495          	6.002
MS.129         	8.477          	5.994
MS.130         	8.46           	5.952
MS.131         	8.443          	5.964
MS.132         	8.427          	5.976
MS.133         	8.41           	5.998
MS.134         	8.392          	5.992
MS.135         	8.375          	5.97
MS.136         	8.36           	5.974
MS.137         	8.342          	5.974
MS.138         	8.325          	5.966
MS.139         	8.31           	5.966
MS.140         	8.292          	5.974
MS.141         	8.275          	5.978
MS.142         	8.26           	5.976
MS.143         	8.242          	5.97
MS.144         	8.227          	5.986
MS.145         	8.21           	5.974
MS.146         	8.193          	5.968
MS.147         	8.177          	5.982
MS.148         	8.16           	5.972
MS.149         	8.145          	5.974
MS.150         	8.127          	5.964
MS.151         	8.113          	5.954
MS.152         	8.095          	5.95
MS.153         	8.08           	5.944
MS.154         	8.062          	5.984
MS.155         	8.047          	5.96
MS.156         	8.033          	5.96
MS.157         	8.015          	5.968
MS.158         	8              	5.978
MS.159         	7.982          	5.954
MS.160         	7.967          	5.986
MS.161         	7.952          	5.958
MS.162         	7.935          	5.948
MS.163         	7.92           	5.998
MS.164         	7.905          	6.014
MS.165         	7.887          	6.03
MS.166         	7.872          	6.022
MS.167         	7.857          	6.053
MS.168         	7.84           	6.03
MS.169         	7.825          	6.006
MS.170         	7.81           	6.044
MS.171         	7.795          	6.03
MS.172         	7.777          	6.044
MS.173         	7.762          	6.034
MS.174         	7.747          	6.047
MS.175         	7.732          	6.053
MS.176         	7.717          	6.063
MS.177         	7.7            	6.063
MS.178         	7.685          	6.071
MS.179         	7.67           	6.065
MS.180         	7.655          	6.067
MS.181         	7.64           	6.065
MS.182         	7.625          	6.059
MS.183         	7.61           	6.061
MS.184         	7.595          	6.077
MS.185         	7.58           	6.069
MS.186         	7.565          	6.057
MS.187         	7.547          	6.093
MS.188         	7.532          	6.057
MS.189         	7.517          	6.059
MS.190         	7.503          	6.057
MS.191         	7.487          	6.063
MS.192         	7.472          	6.053
MS.193         	7.457          	6.051
MS.194         	7.442          	6.077
MS.195         	7.43           	6.067
MS.196         	7.415          	6.091
MS.197         	7.4            	6.093
MS.198         	7.385          	6.077
MS.199         	7.37           	6.081
MS.200         	7.355          	6.111
MS.201         	7.34           	6.075
MS.202         	7.325          	6.095
MS.203         	7.31           	6.095
MS.204         	7.297          	6.067
MS.205         	7.282          	6.067
MS.206         	7.267          	6.069
MS.207         	7.253          	6.071
MS.208         	7.237          	6.105
MS.209         	7.222          	6.123
MS.210         	7.21           	6.091
MS.211         	7.195          	6.091
MS.212         	7.18           	6.115
MS.213         	7.165          	6.119
MS.214         	7.152          	6.111
MS.215         	7.137          	6.133
MS.216         	7.122          	6.117
MS.217         	7.11           	6.109
MS.218         	7.095          	6.121
MS.219         	7.08           	6.135
MS.220         	7.067          	6.129
MS.221         	7.052          	6.133
MS.222         	7.037          	6.121
MS.223         	7.025          	6.145
MS.224         	7.01           	6.145
MS.225         	6.995          	6.153
MS.226         	6.983          	6.111
MS.227         	6.967          	6.157
MS.228         	6.955          	6.141
MS.229         	6.94           	6.139
MS.230         	6.927          	6.141
MS.231         	6.912          	6.153
MS.232         	6.9            	6.137
MS.233         	6.885          	6.153
MS.234         	6.872          	6.151
MS.235         	6.858          	6.145
MS.236         	6.845          	6.151
MS.237         	6.83           	6.141
MS.238         	6.817          	6.149
MS.239         	6.802          	6.081
MS.240         	6.79           	6.139
MS.241         	6.775          	6.145
MS.242         	6.762          	6.137
MS.243         	6.75           	6.065
MS.244         	6.735          	6.131
MS.245         	6.722          	6.151
MS.246         	6.707          	6.057
MS.247         	6.695          	6.137
MS.248         	6.682          	6.145
MS.249         	6.668          	6.067
MS.250         	6.655          	6.137
MS.251         	6.642          	6.053
MS.252         	6.628          	6.063
MS.253         	6.615          	6.063
MS.254         	6.602          	6.044
MS.255         	6.59           	6.04
MS.256         	6.575          	6.069
MS.257         	6.562          	6.063
MS.258         	6.55           	5.897
MS.259         	6.537          	6.137
MS.260         	6.523          	6.063
MS.261         	6.51           	5.994
MS.262         	6.497          	6.069
MS.263         	6.485          	5.899
MS.264         	6.472          	5.994
MS.265         	6.457          	6.047
MS.266         	6.445          	5.952
MS.267         	6.432          	5.95
MS.268         	6.42           	5.897
MS.269         	6.407          	5.998
MS.270         	6.395          	5.833
MS.271         	6.382          	5.986
MS.272         	6.367          	6.008
MS.273         	6.355          	5.958
MS.274         	6.342          	5.99
MS.275         	6.33           	5.891
MS.276         	6.317          	6.008
MS.277         	6.305          	5.891
MS.278         	6.293          	5.904
MS.279         	6.28           	5.847
MS.280         	6.267          	5.922
MS.281         	6.255          	5.817
MS.282         	6.242          	5.531
MS.283         	6.23           	5.799
MS.284         	6.217          	5.509
MS.285         	6.205          	5.563
MS.286         	6.192          	5.793
MS.287         	6.18           	5.666
MS.288         	6.168          	5.509
MS.289         	6.155          	5.817
MS.290         	6.142          	5.511
MS.291         	6.13           	5.253
MS.292         	6.12           	5.642
MS.293         	6.108          	5.243
MS.294         	6.095          	5.239
MS.295         	6.082          	5.084
MS.296         	6.07           	5.231
MS.297         	6.057          	4.997
MS.298         	6.045          	5.237
MS.299         	6.035          	5.201
MS.300         	6.023          	5.052
MS.301         	6.01           	4.967
MS.302         	5.997          	5.011
MS.303         	5.985          	4.981
MS.304         	5.972          	5.003
MS.305         	5.963          	5.172
MS.306         	5.95           	5.172
MS.307         	5.938          	4.979
MS.308         	5.925          	4.967
MS.309         	5.915          	4.949
MS.310         	5.902          	4.965
MS.311         	5.89           	4.818
MS.312         	5.88           	4.975
MS.313         	5.867          	4.836
MS.314         	5.855          	4.812
MS.315         	5.842          	4.792
MS.316         	5.832          	4.784
MS.317         	5.82           	4.79
MS.318         	5.81           	4.814
MS.319         	5.797          	4.816
MS.320         	5.785          	4.794
MS.321         	5.775          	4.802
MS.322         	5.762          	4.782
MS.323         	5.75           	4.745
MS.324         	5.74           	4.735
MS.325         	5.727          	4.794
MS.326         	5.717          	4.695
MS.327         	5.705          	4.707
MS.328         	5.695          	4.8
MS.329         	5.682          	4.715
MS.330         	5.67           	4.697
MS.331         	5.66           	4.598
MS.332         	5.648          	4.574
MS.333         	5.637          	4.701
MS.334         	5.625          	4.612
MS.335         	5.615          	4.635
MS.336         	5.602          	4.528
MS.337         	5.592          	4.477
MS.338         	5.58           	4.494
MS.339         	5.57           	4.463
MS.340         	5.557          	4.443
MS.341         	5.547          	4.336
MS.342         	5.537          	4.304
MS.343         	5.525          	4.345
MS.344         	5.515          	4.373
MS.345         	5.503          	4.244
MS.346         	5.492          	4.242
MS.347         	5.483          	4.171
MS.348         	5.47           	4.185
MS.349         	5.46           	4.355
MS.350         	5.447          	4.161
MS.351         	5.438          	4.095
MS.352         	5.427          	4.163
MS.353         	5.415          	4.077
MS.354         	5.405          	4.046
MS.355         	5.395          	3.976
MS.356         	5.382          	4.113
MS.357         	5.372          	4.183
MS.358         	5.362          	3.992
MS.359         	5.352          	3.978
MS.360         	5.34           	4.006
MS.361         	5.33           	3.948
MS.362         	5.32           	3.988
MS.363         	5.31           	3.656
MS.364         	5.297          	3.883
MS.365         	5.287          	3.889
MS.366         	5.277          	3.787
MS.367         	5.267          	3.764
MS.368         	5.255          	3.595
MS.369         	5.245          	3.688
MS.370         	5.225          	3.603
MS.371         	5.215          	3.766
MS.372         	5.202          	3.593
MS.373         	5.193          	3.466
MS.374         	5.182          	3.682
MS.375         	5.172          	3.75
MS.376         	5.162          	3.424
MS.377         	5.152          	3.263
MS.378         	5.142          	3.372
MS.379         	5.132          	3.718
MS.380         	5.12           	3.257
MS.381         	5.11           	3.108
MS.382         	5.1            	3.337
MS.383         	5.09           	3.297
MS.384         	5.08           	3.166
MS.385         	5.07           	3.412
MS.386         	5.06           	3.106
MS.387         	5.05           	2.939
MS.388         	5.04           	2.963
MS.389         	5.03           	3.192
MS.390         	5.02           	2.898
MS.391         	5.01           	2.816
MS.392         	5              	2.814
MS.393         	4.99           	2.675
MS.394         	4.98           	2.947
MS.395         	4.97           	2.91
MS.396         	4.96           	2.876
MS.397         	4.95           	2.848
MS.398         	4.94           	2.8
MS.399         	4.93           	2.53
MS.400         	4.92           	2.761
MS.401         	4.91           	2.485
MS.402         	4.9            	2.459
MS.403         	4.89           	2.778
MS.404         	4.88           	2.457
MS.405         	4.872          	2.59
MS.406         	4.862          	2.415
MS.407         	4.852          	2.355
MS.408         	4.842          	2.467
MS.409         	4.832          	2.355
MS.410         	4.822          	2.234
MS.411         	4.812          	2.401
MS.412         	4.802          	2.385
MS.413         	4.795          	2.248
MS.414         	4.785          	2.264
MS.415         	4.775          	2.089
MS.416         	4.765          	2.266
MS.417         	4.755          	2.044
MS.418         	4.747          	2.109
MS.419         	4.737          	2.113
MS.420         	4.727          	2.002
MS.421         	4.717          	1.845
MS.422         	4.707          	2.058
MS.423         	4.7            	1.799
MS.424         	4.69           	1.785
MS.425         	4.68           	1.98
MS.426         	4.67           	1.97
MS.427         	4.662          	1.815
MS.428         	4.652          	1.676
MS.429         	4.642          	1.783
MS.430         	4.635          	1.827
MS.431         	4.625          	1.495
MS.432         	4.615          	1.476
MS.433         	4.605          	1.426
MS.434         	4.597          	1.579
MS.435         	4.588          	1.48
MS.436         	4.577          	1.43
MS.437         	4.57           	1.452
MS.438         	4.56           	1.378
MS.439         	4.55           	1.48
MS.440         	4.543          	1.259
MS.441         	4.532          	1.335
MS.442         	4.525          	1.245
MS.443         	4.515          	1.275
MS.444         	4.505          	1.331
MS.445         	4.497          	1.317
MS.446         	4.487          	1.255
MS.447         	4.48           	1.14
MS.448         	4.47           	1.017
MS.449         	4.46           	1.136
MS.450         	4.452          	1.088
MS.451         	4.443          	1.194
MS.452         	4.435          	1.227
MS.453         	4.425          	1.221
MS.454         	4.418          	1.229
MS.455         	4.407          	1.094
MS.456         	4.4            	0.963
MS.457         	4.39           	1.142
MS.458         	4.382          	1.168
MS.459         	4.372          	0.842
MS.460         	4.365          	1.055
MS.461         	4.355          	1.072
MS.462         	4.347          	0.792
MS.463         	4.338          	0.975
MS.464         	4.33           	1.116
MS.465         	4.32           	1.055
MS.466         	4.312          	1.09
MS.467         	4.302          	0.695
MS.468         	4.295          	0.961
MS.469         	4.285          	0.896
MS.470         	4.277          	0.759
MS.471         	4.27           	0.806
MS.472         	4.26           	0.993
MS.473         	4.253          	0.612
MS.474         	4.242          	0.723
MS.475         	4.235          	0.636
MS.476         	4.227          	0.691
MS.477         	4.217          	0.608
MS.478         	4.21           	0.612
MS.479         	4.2            	0.608
MS.480         	4.193          	0.667
MS.481         	4.185          	0.562
MS.482         	4.175          	0.568
MS.483         	4.168          	0.588
MS.484         	4.16           	0.614
MS.485         	4.15           	0.546
MS.486         	4.142          	0.415
MS.487         	4.135          	0.479
MS.488         	4.128          	0.649
MS.489         	4.117          	0.473
MS.490         	4.11           	0.53
MS.491         	4.102          	0.425
MS.492         	4.092          	0.485
MS.493         	4.085          	0.411
MS.494         	4.077          	0.471
MS.495         	4.07           	0.435
MS.496         	4.06           	0.395
MS.497         	4.052          	0.417
MS.498         	4.045          	0.403
MS.499         	4.037          	0.433
MS.500         	4.027          	0.465
