File:              	C:\Qtrac\Data\Daniel M Sørensen\MScan multicentre study\Data from centres\Roskilde\Folders with NC-examinations\ROS_N9b\MBC00603A.QZD
Name:              	DK.ROS.NC.9.2
Protocol:          	MSCAN-R2
Date:              	3/6/20
Start time:        	09:25:56
Age:               	60
Sex:               	f
Temperature:       	36.5
S/R sites:         	Median Wr-APB
NC/disease:        	NC
Operator:          	MB
Comments:
M-SCAN DATA (5.8-1.3m)
Scanpts: 13, 19, 478, 500
Stim. (mA)     	Amp. (mV)
MS.1           	13.5           	6.252
MS.2           	13.5           	6.246
MS.3           	13.5           	6.266
MS.4           	13.5           	6.246
MS.5           	13.5           	6.25
MS.6           	13.5           	6.232
MS.7           	13.5           	6.212
MS.8           	13.5           	6.252
MS.9           	13.5           	6.216
MS.10          	13.5           	6.262
MS.11          	13.5           	6.308
MS.12          	13.5           	6.266
MS.13          	13.5           	6.264
MS.14          	13.5           	6.284
MS.15          	13.5           	6.3
MS.16          	13.5           	6.282
MS.17          	13.5           	6.306
MS.18          	13.5           	6.312
MS.19          	13.5           	6.322
MS.20          	13.5           	6.31
MS.21          	13.5           	6.3
MS.22          	13.5           	6.284
MS.23          	13.5           	6.282
MS.24          	13.445         	6.276
MS.25          	13.42          	6.298
MS.26          	13.392         	6.27
MS.27          	13.365         	6.292
MS.28          	13.34          	6.264
MS.29          	13.312         	6.3
MS.30          	13.285         	6.304
MS.31          	13.26          	6.256
MS.32          	13.233         	6.252
MS.33          	13.205         	6.252
MS.34          	13.18          	6.272
MS.35          	13.153         	6.272
MS.36          	13.127         	6.262
MS.37          	13.1           	6.282
MS.38          	13.075         	6.252
MS.39          	13.047         	6.248
MS.40          	13.023         	6.242
MS.41          	12.997         	6.24
MS.42          	12.97          	6.21
MS.43          	12.945         	6.125
MS.44          	12.92          	6.125
MS.45          	12.892         	6.123
MS.46          	12.867         	6.087
MS.47          	12.842         	6.073
MS.48          	12.815         	6.077
MS.49          	12.79          	6.083
MS.50          	12.765         	6.036
MS.51          	12.74          	6.129
MS.52          	12.715         	6.103
MS.53          	12.688         	6.135
MS.54          	12.662         	6.167
MS.55          	12.637         	6.173
MS.56          	12.613         	6.137
MS.57          	12.587         	6.202
MS.58          	12.562         	6.163
MS.59          	12.537         	6.147
MS.60          	12.512         	6.093
MS.61          	12.488         	6.125
MS.62          	12.462         	6.139
MS.63          	12.438         	6.101
MS.64          	12.412         	6.139
MS.65          	12.387         	6.107
MS.66          	12.363         	6.139
MS.67          	12.337         	6.135
MS.68          	12.312         	6.099
MS.69          	12.29          	6.087
MS.70          	12.265         	6.083
MS.71          	12.24          	6.063
MS.72          	12.215         	6.063
MS.73          	12.19          	6.069
MS.74          	12.167         	6.065
MS.75          	12.142         	6.059
MS.76          	12.117         	6.02
MS.77          	12.092         	6.038
MS.78          	12.07          	6.012
MS.79          	12.045         	6.004
MS.80          	12.023         	6.042
MS.81          	11.997         	6.02
MS.82          	11.972         	6.008
MS.83          	11.95          	6.053
MS.84          	11.925         	6.047
MS.85          	11.903         	6
MS.86          	11.877         	6.028
MS.87          	11.855         	6.014
MS.88          	11.83          	6.063
MS.89          	11.807         	6.01
MS.90          	11.782         	5.906
MS.91          	11.76          	6.01
MS.92          	11.738         	6.01
MS.93          	11.712         	6.032
MS.94          	11.69          	6.038
MS.95          	11.665         	5.899
MS.96          	11.642         	5.982
MS.97          	11.62          	6.018
MS.98          	11.597         	6.002
MS.99          	11.572         	6.012
MS.100         	11.55          	5.831
MS.101         	11.528         	5.863
MS.102         	11.505         	5.972
MS.103         	11.48          	5.807
MS.104         	11.457         	5.827
MS.105         	11.435         	5.801
MS.106         	11.412         	5.843
MS.107         	11.39          	5.779
MS.108         	11.367         	5.678
MS.109         	11.345         	5.793
MS.110         	11.322         	5.775
MS.111         	11.297         	5.92
MS.112         	11.275         	5.652
MS.113         	11.252         	5.769
MS.114         	11.23          	5.771
MS.115         	11.207         	5.662
MS.116         	11.188         	5.664
MS.117         	11.165         	5.682
MS.118         	11.142         	5.664
MS.119         	11.12          	5.666
MS.120         	11.097         	5.642
MS.121         	11.075         	5.694
MS.122         	11.052         	5.664
MS.123         	11.03          	5.763
MS.124         	11.007         	5.654
MS.125         	10.988         	5.642
MS.126         	10.965         	5.601
MS.127         	10.943         	5.587
MS.128         	10.92          	5.593
MS.129         	10.9           	5.557
MS.130         	10.877         	5.603
MS.131         	10.855         	5.579
MS.132         	10.835         	5.521
MS.133         	10.812         	5.613
MS.134         	10.79          	5.599
MS.135         	10.77          	5.587
MS.136         	10.747         	5.575
MS.137         	10.725         	5.569
MS.138         	10.705         	5.587
MS.139         	10.682         	5.579
MS.140         	10.662         	5.615
MS.141         	10.64          	5.561
MS.142         	10.62          	5.611
MS.143         	10.597         	5.583
MS.144         	10.577         	5.587
MS.145         	10.555         	5.603
MS.146         	10.535         	5.581
MS.147         	10.515         	5.555
MS.148         	10.492         	5.591
MS.149         	10.472         	5.583
MS.150         	10.45          	5.565
MS.151         	10.43          	5.579
MS.152         	10.41          	5.581
MS.153         	10.387         	5.555
MS.154         	10.367         	5.551
MS.155         	10.347         	5.583
MS.156         	10.325         	5.557
MS.157         	10.305         	5.539
MS.158         	10.285         	5.577
MS.159         	10.265         	5.559
MS.160         	10.245         	5.539
MS.161         	10.222         	5.549
MS.162         	10.202         	5.483
MS.163         	10.182         	5.394
MS.164         	10.162         	5.456
MS.165         	10.142         	5.481
MS.166         	10.122         	5.396
MS.167         	10.102         	5.215
MS.168         	10.082         	5.219
MS.169         	10.06          	5.342
MS.170         	10.04          	5.245
MS.171         	10.02          	5.253
MS.172         	10             	5.315
MS.173         	9.98           	5.158
MS.174         	9.96           	5.291
MS.175         	9.94           	5.281
MS.176         	9.922          	5.257
MS.177         	9.903          	5.217
MS.178         	9.882          	5.193
MS.179         	9.863          	5.16
MS.180         	9.842          	5.241
MS.181         	9.823          	5.096
MS.182         	9.802          	4.699
MS.183         	9.782          	5.134
MS.184         	9.765          	5.094
MS.185         	9.745          	4.945
MS.186         	9.725          	5.08
MS.187         	9.705          	4.816
MS.188         	9.685          	4.824
MS.189         	9.667          	4.83
MS.190         	9.648          	5.106
MS.191         	9.627          	4.902
MS.192         	9.61           	4.868
MS.193         	9.59           	4.647
MS.194         	9.57           	4.512
MS.195         	9.552          	4.494
MS.196         	9.532          	4.675
MS.197         	9.512          	4.556
MS.198         	9.495          	4.776
MS.199         	9.475          	4.381
MS.200         	9.457          	4.469
MS.201         	9.438          	4.54
MS.202         	9.417          	4.735
MS.203         	9.4            	4.574
MS.204         	9.38           	4.526
MS.205         	9.363          	4.391
MS.206         	9.342          	4.554
MS.207         	9.325          	4.556
MS.208         	9.305          	4.318
MS.209         	9.287          	4.441
MS.210         	9.27           	4.272
MS.211         	9.25           	4.044
MS.212         	9.233          	4.097
MS.213         	9.212          	4.206
MS.214         	9.195          	4.264
MS.215         	9.177          	4.183
MS.216         	9.158          	4.228
MS.217         	9.14           	3.809
MS.218         	9.122          	3.865
MS.219         	9.102          	3.97
MS.220         	9.085          	3.94
MS.221         	9.068          	3.994
MS.222         	9.05           	4.006
MS.223         	9.03           	3.74
MS.224         	9.012          	3.73
MS.225         	8.995          	4.091
MS.226         	8.977          	3.899
MS.227         	8.96           	3.841
MS.228         	8.943          	3.813
MS.229         	8.922          	3.732
MS.230         	8.905          	3.678
MS.231         	8.887          	3.547
MS.232         	8.87           	3.662
MS.233         	8.852          	3.392
MS.234         	8.835          	3.551
MS.235         	8.818          	3.509
MS.236         	8.8            	3.464
MS.237         	8.783          	3.434
MS.238         	8.765          	3.426
MS.239         	8.747          	3.398
MS.240         	8.73           	3.313
MS.241         	8.712          	3.37
MS.242         	8.695          	3.088
MS.243         	8.677          	3.317
MS.244         	8.66           	3.223
MS.245         	8.642          	3.047
MS.246         	8.625          	3.235
MS.247         	8.608          	3.201
MS.248         	8.59           	3.194
MS.249         	8.573          	3.112
MS.250         	8.557          	2.761
MS.251         	8.54           	3.029
MS.252         	8.523          	2.91
MS.253         	8.505          	3.116
MS.254         	8.488          	3.172
MS.255         	8.472          	2.993
MS.256         	8.455          	2.904
MS.257         	8.438          	2.717
MS.258         	8.42           	3.041
MS.259         	8.405          	2.776
MS.260         	8.387          	2.731
MS.261         	8.37           	2.983
MS.262         	8.352          	2.487
MS.263         	8.337          	2.475
MS.264         	8.32           	2.552
MS.265         	8.302          	2.741
MS.266         	8.287          	2.745
MS.267         	8.27           	2.697
MS.268         	8.255          	2.485
MS.269         	8.238          	2.395
MS.270         	8.22           	2.282
MS.271         	8.205          	2.411
MS.272         	8.188          	2.189
MS.273         	8.172          	2.314
MS.274         	8.155          	2.383
MS.275         	8.14           	2.262
MS.276         	8.122          	2.012
MS.277         	8.108          	2.087
MS.278         	8.09           	2.016
MS.279         	8.075          	2.03
MS.280         	8.057          	1.776
MS.281         	8.042          	1.821
MS.282         	8.025          	1.944
MS.283         	8.01           	1.704
MS.284         	7.995          	1.996
MS.285         	7.977          	1.934
MS.286         	7.962          	1.656
MS.287         	7.945          	1.903
MS.288         	7.93           	1.851
MS.289         	7.915          	1.724
MS.290         	7.898          	1.867
MS.291         	7.882          	1.625
MS.292         	7.867          	1.557
MS.293         	7.852          	1.519
MS.294         	7.835          	1.452
MS.295         	7.82           	1.374
MS.296         	7.805          	1.698
MS.297         	7.79           	1.416
MS.298         	7.773          	1.503
MS.299         	7.757          	1.313
MS.300         	7.742          	1.213
MS.301         	7.727          	1.19
MS.302         	7.712          	1.412
MS.303         	7.695          	1.124
MS.304         	7.68           	1.488
MS.305         	7.665          	1.297
MS.306         	7.65           	1.162
MS.307         	7.635          	1.354
MS.308         	7.62           	1.285
MS.309         	7.605          	1.325
MS.310         	7.59           	1.16
MS.311         	7.572          	1.267
MS.312         	7.557          	1.162
MS.313         	7.543          	1.305
MS.314         	7.527          	1.005
MS.315         	7.512          	1.331
MS.316         	7.497          	1.134
MS.317         	7.482          	1.138
MS.318         	7.467          	0.882
MS.319         	7.452          	1.011
MS.320         	7.438          	1.116
MS.321         	7.425          	1.09
MS.322         	7.41           	1.106
MS.323         	7.395          	0.941
MS.324         	7.38           	1.088
MS.325         	7.365          	0.951
MS.326         	7.35           	0.971
MS.327         	7.335          	1.015
MS.328         	7.32           	0.761
MS.329         	7.305          	0.957
MS.330         	7.293          	0.874
MS.331         	7.277          	0.884
MS.332         	7.262          	0.81
MS.333         	7.247          	0.751
MS.334         	7.233          	0.896
MS.335         	7.22           	0.854
MS.336         	7.205          	0.784
MS.337         	7.19           	0.703
MS.338         	7.175          	0.725
MS.339         	7.162          	0.781
MS.340         	7.148          	0.777
MS.341         	7.132          	0.842
MS.342         	7.117          	0.649
MS.343         	7.105          	0.725
MS.344         	7.09           	0.773
MS.345         	7.075          	0.717
MS.346         	7.062          	0.612
MS.347         	7.047          	0.653
MS.348         	7.032          	0.578
MS.349         	7.02           	0.645
MS.350         	7.005          	0.612
MS.351         	6.992          	0.584
MS.352         	6.977          	0.643
MS.353         	6.962          	0.59
MS.354         	6.95           	0.52
MS.355         	6.935          	0.512
MS.356         	6.922          	0.58
MS.357         	6.907          	0.55
MS.358         	6.895          	0.493
MS.359         	6.88           	0.461
MS.360         	6.867          	0.485
MS.361         	6.852          	0.481
MS.362         	6.84           	0.469
MS.363         	6.825          	0.381
MS.364         	6.812          	0.475
MS.365         	6.797          	0.475
MS.366         	6.785          	0.516
MS.367         	6.773          	0.423
MS.368         	6.757          	0.437
MS.369         	6.745          	0.433
MS.370         	6.73           	0.332
MS.371         	6.717          	0.369
MS.372         	6.705          	0.344
MS.373         	6.69           	0.288
MS.374         	6.677          	0.296
MS.375         	6.665          	0.357
MS.376         	6.65           	0.33
MS.377         	6.637          	0.286
MS.378         	6.625          	0.284
MS.379         	6.61           	0.296
MS.380         	6.597          	0.278
MS.381         	6.585          	0.232
MS.382         	6.57           	0.242
MS.383         	6.557          	0.268
MS.384         	6.545          	0.234
MS.385         	6.532          	0.298
MS.386         	6.52           	0.228
MS.387         	6.505          	0.216
MS.388         	6.492          	0.22
MS.389         	6.48           	0.22
MS.390         	6.467          	0.207
MS.391         	6.455          	0.248
MS.392         	6.44           	0.197
MS.393         	6.427          	0.187
MS.394         	6.415          	0.175
MS.395         	6.402          	0.103
MS.396         	6.39           	0.159
MS.397         	6.378          	0.147
MS.398         	6.365          	0.159
MS.399         	6.352          	0.157
MS.400         	6.34           	0.155
MS.401         	6.325          	0.147
MS.402         	6.312          	0.163
MS.403         	6.3            	0.081
MS.404         	6.287          	0.151
MS.405         	6.275          	0.173
MS.406         	6.262          	0.137
MS.407         	6.25           	0.129
MS.408         	6.237          	0.153
MS.409         	6.225          	0.139
MS.410         	6.213          	0.121
MS.411         	6.2            	0.125
MS.412         	6.188          	0.141
MS.413         	6.175          	0.03
MS.414         	6.165          	0.119
MS.415         	6.152          	0.125
MS.416         	6.14           	0.101
MS.417         	6.128          	0.113
MS.418         	6.115          	0.133
MS.419         	6.102          	0.042
MS.420         	6.09           	0.111
MS.421         	6.077          	0.119
MS.422         	6.065          	0.107
MS.423         	6.055          	0.05
MS.424         	6.043          	0.147
MS.425         	6.03           	0.028
MS.426         	6.017          	0.022
MS.427         	6.005          	0.101
MS.428         	5.992          	0.117
MS.429         	5.983          	0.101
MS.430         	5.97           	0.04
MS.431         	5.957          	0.121
MS.432         	5.945          	0.109
MS.433         	5.935          	0.103
MS.434         	5.922          	0.036
MS.435         	5.91           	0.111
MS.436         	5.898          	0.024
MS.437         	5.887          	0.022
MS.438         	5.875          	0.099
MS.439         	5.862          	0.022
MS.440         	5.852          	0.024
MS.441         	5.84           	0.097
MS.442         	5.827          	0.022
MS.443         	5.817          	0.103
MS.444         	5.805          	0.02
MS.445         	5.793          	0.028
MS.446         	5.782          	0.024
MS.447         	5.77           	0.02
MS.448         	5.757          	0.022
MS.449         	5.747          	0.022
MS.450         	5.735          	0.012
MS.451         	5.725          	0.008
MS.452         	5.713          	0.01
MS.453         	5.702          	0.02
MS.454         	5.69           	0.008
MS.455         	5.677          	0.014
MS.456         	5.668          	0.01
MS.457         	5.655          	0.022
MS.458         	5.645          	0.008
MS.459         	5.632          	0.006
MS.460         	5.622          	0.006
MS.461         	5.61           	0.01
MS.462         	5.6            	0.004
MS.463         	5.588          	0.004
MS.464         	5.577          	0.006
MS.465         	5.565          	0.006
MS.466         	5.555          	0.008
MS.467         	5.545          	0.006
MS.468         	5.532          	0.004
MS.469         	5.523          	0.016
MS.470         	5.51           	0.006
MS.471         	5.5            	0.006
MS.472         	5.487          	0.006
MS.473         	5.477          	0.01
MS.474         	5.467          	0.01
MS.475         	5.455          	0.01
MS.476         	5.445          	0.008
MS.477         	5.435          	0.01
MS.478         	5.422          	0.004
MS.479         	5.412          	0.006
MS.480         	5.402          	0.01
MS.481         	5.39           	0.008
MS.482         	5.38           	0.006
MS.483         	5.37           	0.006
MS.484         	5.358          	0.008
MS.485         	5.347          	0.012
MS.486         	5.338          	0.006
MS.487         	5.327          	0.006
MS.488         	5.315          	0.008
MS.489         	5.305          	0.006
MS.490         	5.295          	0.008
MS.491         	5.285          	0.01
MS.492         	5.273          	0.008
MS.493         	5.262          	0.008
MS.494         	5.253          	0.006
MS.495         	5.242          	0.006
MS.496         	5.233          	0.008
MS.497         	5.22           	0.01
MS.498         	5.21           	0.008
MS.499         	5.2            	0.008
MS.500         	5.19           	0.006
DERIVED EXCITABILITY VARIABLES
