File:              	C:\Qtrac\Data\Daniel M Sørensen\MScan multicentre study\Data from centres\Roskilde\Folders with NC-examinations\ROS_N1a\MBC00226E.QZD
Name:              	DK.ROS.NC.1.1
Protocol:          	MSCAN-R2
Date:              	26/2/20
Start time:        	15:38:12
Age:               	62
Sex:               	f
Temperature:       	37.6
S/R sites:         	Perone-TA
NC/disease:        	NC
Operator:          	MB
Comments:
M-SCAN DATA (11.7-3.3m)
Scanpts: 76, 83, 799, 814
Stim. (mA)     	Amp. (mV)
MS.1           	33             	5.106
MS.2           	33             	5.104
MS.3           	33             	5.12
MS.4           	33             	5.08
MS.5           	33             	5.072
MS.6           	33             	5.082
MS.7           	33             	5.082
MS.8           	33             	5.058
MS.9           	33             	5.062
MS.10          	33             	5.041
MS.11          	33             	5.019
MS.12          	33             	5.037
MS.13          	33             	5.045
MS.14          	33             	5.045
MS.15          	33             	5.029
MS.16          	33             	5.045
MS.17          	33             	5.013
MS.18          	33             	5.015
MS.19          	33             	5.039
MS.20          	33             	5.015
MS.21          	33             	4.999
MS.22          	33             	5.015
MS.23          	33             	5.052
MS.24          	32.868         	5.005
MS.25          	32.802         	5.033
MS.26          	32.737         	5.039
MS.27          	32.673         	5.043
MS.28          	32.605         	5.029
MS.29          	32.54          	5.033
MS.30          	32.475         	5.039
MS.31          	32.41          	5.045
MS.32          	32.347         	5.027
MS.33          	32.282         	5.021
MS.34          	32.217         	5.043
MS.35          	32.153         	5.025
MS.36          	32.087         	5.052
MS.37          	32.025         	5.052
MS.38          	31.96          	5.049
MS.39          	31.897         	5.041
MS.40          	31.832         	5.037
MS.41          	31.77          	5.031
MS.42          	31.705         	5.031
MS.43          	31.642         	5.023
MS.44          	31.58          	5.021
MS.45          	31.517         	5.007
MS.46          	31.452         	5.015
MS.47          	31.39          	5.023
MS.48          	31.327         	5.041
MS.49          	31.265         	5.027
MS.50          	31.202         	5.009
MS.51          	31.14          	5.052
MS.52          	31.077         	5.035
MS.53          	31.015         	5.003
MS.54          	30.955         	5.025
MS.55          	30.892         	5.031
MS.56          	30.83          	4.995
MS.57          	30.77          	4.987
MS.58          	30.707         	5.015
MS.59          	30.645         	5.033
MS.60          	30.585         	5.021
MS.61          	30.522         	5.021
MS.62          	30.462         	5.066
MS.63          	30.403         	4.999
MS.64          	30.34          	4.987
MS.65          	30.28          	4.983
MS.66          	30.22          	5.039
MS.67          	30.16          	5.003
MS.68          	30.1           	5.017
MS.69          	30.04          	5.041
MS.70          	29.98          	5.011
MS.71          	29.92          	5.019
MS.72          	29.86          	5.019
MS.73          	29.8           	5.013
MS.74          	29.74          	5.005
MS.75          	29.68          	5.019
MS.76          	29.622         	4.999
MS.77          	29.562         	5.023
MS.78          	29.502         	5.009
MS.79          	29.445         	5.015
MS.80          	29.385         	5.003
MS.81          	29.327         	5.019
MS.82          	29.267         	5.025
MS.83          	29.21          	4.989
MS.84          	29.153         	5.011
MS.85          	29.092         	5.003
MS.86          	29.035         	5.005
MS.87          	28.977         	4.981
MS.88          	28.92          	5.019
MS.89          	28.862         	5.001
MS.90          	28.802         	5.009
MS.91          	28.745         	5.003
MS.92          	28.688         	5.021
MS.93          	28.632         	5.019
MS.94          	28.575         	5.017
MS.95          	28.517         	5.035
MS.96          	28.46          	5.001
MS.97          	28.403         	4.999
MS.98          	28.347         	5.007
MS.99          	28.29          	5.015
MS.100         	28.233         	5.009
MS.101         	28.177         	5.039
MS.102         	28.12          	5.025
MS.103         	28.065         	5.009
MS.104         	28.007         	4.991
MS.105         	27.952         	4.993
MS.106         	27.897         	5.001
MS.107         	27.84          	4.997
MS.108         	27.785         	5.015
MS.109         	27.73          	5.001
MS.110         	27.675         	4.987
MS.111         	27.62          	5.001
MS.112         	27.565         	4.995
MS.113         	27.507         	4.991
MS.114         	27.455         	4.983
MS.115         	27.4           	4.989
MS.116         	27.345         	4.969
MS.117         	27.29          	4.979
MS.118         	27.235         	4.999
MS.119         	27.18          	4.985
MS.120         	27.127         	4.999
MS.121         	27.073         	5.007
MS.122         	27.017         	5.025
MS.123         	26.965         	4.997
MS.124         	26.91          	5.037
MS.125         	26.858         	5.025
MS.126         	26.802         	5.037
MS.127         	26.75          	5.037
MS.128         	26.695         	5.027
MS.129         	26.642         	5.041
MS.130         	26.59          	5.1
MS.131         	26.535         	5.045
MS.132         	26.483         	5.045
MS.133         	26.43          	5.027
MS.134         	26.377         	5.031
MS.135         	26.325         	5.037
MS.136         	26.272         	5.043
MS.137         	26.22          	5.013
MS.138         	26.167         	5.025
MS.139         	26.115         	5.045
MS.140         	26.062         	4.999
MS.141         	26.01          	4.981
MS.142         	25.957         	4.995
MS.143         	25.907         	4.961
MS.144         	25.855         	5.013
MS.145         	25.802         	4.999
MS.146         	25.752         	4.957
MS.147         	25.7           	4.977
MS.148         	25.65          	4.967
MS.149         	25.597         	4.959
MS.150         	25.547         	4.969
MS.151         	25.495         	4.949
MS.152         	25.445         	4.975
MS.153         	25.395         	4.957
MS.154         	25.342         	4.931
MS.155         	25.292         	4.957
MS.156         	25.243         	4.951
MS.157         	25.192         	4.937
MS.158         	25.14          	4.975
MS.159         	25.09          	4.953
MS.160         	25.04          	4.991
MS.161         	24.99          	4.947
MS.162         	24.94          	4.935
MS.163         	24.89          	4.913
MS.164         	24.84          	4.939
MS.165         	24.792         	4.975
MS.166         	24.743         	4.933
MS.167         	24.692         	4.923
MS.168         	24.642         	4.933
MS.169         	24.595         	4.945
MS.170         	24.545         	4.959
MS.171         	24.495         	4.941
MS.172         	24.448         	4.933
MS.173         	24.397         	4.919
MS.174         	24.35          	4.945
MS.175         	24.3           	4.925
MS.176         	24.252         	4.915
MS.177         	24.202         	4.933
MS.178         	24.155         	4.919
MS.179         	24.108         	4.919
MS.180         	24.06          	4.921
MS.181         	24.01          	4.906
MS.182         	23.962         	4.957
MS.183         	23.915         	4.931
MS.184         	23.868         	4.919
MS.185         	23.82          	4.937
MS.186         	23.772         	4.915
MS.187         	23.725         	4.906
MS.188         	23.677         	4.913
MS.189         	23.63          	4.894
MS.190         	23.582         	4.919
MS.191         	23.535         	4.906
MS.192         	23.487         	4.896
MS.193         	23.442         	4.906
MS.194         	23.395         	4.894
MS.195         	23.347         	4.892
MS.196         	23.3           	4.902
MS.197         	23.255         	4.874
MS.198         	23.207         	4.911
MS.199         	23.163         	4.886
MS.200         	23.115         	4.88
MS.201         	23.07          	4.878
MS.202         	23.022         	4.886
MS.203         	22.977         	4.88
MS.204         	22.932         	4.888
MS.205         	22.885         	4.87
MS.206         	22.84          	4.882
MS.207         	22.795         	4.88
MS.208         	22.747         	4.88
MS.209         	22.702         	4.89
MS.210         	22.657         	4.856
MS.211         	22.612         	4.84
MS.212         	22.567         	4.866
MS.213         	22.522         	4.848
MS.214         	22.477         	4.876
MS.215         	22.432         	4.854
MS.216         	22.387         	4.856
MS.217         	22.342         	4.84
MS.218         	22.297         	4.844
MS.219         	22.252         	4.852
MS.220         	22.21          	4.83
MS.221         	22.165         	4.856
MS.222         	22.12          	4.86
MS.223         	22.077         	4.828
MS.224         	22.032         	4.85
MS.225         	21.987         	4.836
MS.226         	21.945         	4.826
MS.227         	21.9           	4.826
MS.228         	21.858         	4.852
MS.229         	21.812         	4.85
MS.230         	21.77          	4.852
MS.231         	21.725         	4.8
MS.232         	21.682         	4.83
MS.233         	21.64          	4.788
MS.234         	21.595         	4.798
MS.235         	21.552         	4.85
MS.236         	21.51          	4.796
MS.237         	21.467         	4.794
MS.238         	21.425         	4.8
MS.239         	21.38          	4.774
MS.240         	21.337         	4.788
MS.241         	21.295         	4.77
MS.242         	21.252         	4.786
MS.243         	21.21          	4.78
MS.244         	21.167         	4.757
MS.245         	21.125         	4.786
MS.246         	21.085         	4.755
MS.247         	21.042         	4.78
MS.248         	21             	4.763
MS.249         	20.958         	4.715
MS.250         	20.915         	4.753
MS.251         	20.875         	4.703
MS.252         	20.833         	4.709
MS.253         	20.79          	4.655
MS.254         	20.75          	4.691
MS.255         	20.708         	4.739
MS.256         	20.667         	4.677
MS.257         	20.625         	4.683
MS.258         	20.585         	4.647
MS.259         	20.542         	4.622
MS.260         	20.502         	4.616
MS.261         	20.46          	4.55
MS.262         	20.42          	4.586
MS.263         	20.38          	4.62
MS.264         	20.337         	4.614
MS.265         	20.297         	4.604
MS.266         	20.257         	4.631
MS.267         	20.217         	4.568
MS.268         	20.175         	4.588
MS.269         	20.135         	4.622
MS.270         	20.095         	4.592
MS.271         	20.055         	4.588
MS.272         	20.015         	4.62
MS.273         	19.975         	4.6
MS.274         	19.935         	4.6
MS.275         	19.895         	4.582
MS.276         	19.855         	4.53
MS.277         	19.817         	4.56
MS.278         	19.778         	4.522
MS.279         	19.737         	4.536
MS.280         	19.698         	4.536
MS.281         	19.657         	4.518
MS.282         	19.62          	4.528
MS.283         	19.58          	4.526
MS.284         	19.54          	4.554
MS.285         	19.502         	4.484
MS.286         	19.462         	4.492
MS.287         	19.425         	4.498
MS.288         	19.385         	4.49
MS.289         	19.347         	4.443
MS.290         	19.307         	4.504
MS.291         	19.27          	4.401
MS.292         	19.23          	4.467
MS.293         	19.192         	4.381
MS.294         	19.155         	4.433
MS.295         	19.115         	4.463
MS.296         	19.077         	4.435
MS.297         	19.04          	4.437
MS.298         	19             	4.441
MS.299         	18.962         	4.437
MS.300         	18.925         	4.373
MS.301         	18.887         	4.443
MS.302         	18.85          	4.367
MS.303         	18.812         	4.383
MS.304         	18.775         	4.417
MS.305         	18.737         	4.393
MS.306         	18.7           	4.367
MS.307         	18.663         	4.29
MS.308         	18.625         	4.421
MS.309         	18.587         	4.355
MS.310         	18.55          	4.32
MS.311         	18.512         	4.234
MS.312         	18.477         	4.334
MS.313         	18.44          	4.246
MS.314         	18.403         	4.254
MS.315         	18.365         	4.29
MS.316         	18.33          	4.183
MS.317         	18.292         	4.282
MS.318         	18.255         	4.212
MS.319         	18.22          	4.218
MS.320         	18.182         	4.21
MS.321         	18.147         	4.185
MS.322         	18.11          	4.187
MS.323         	18.075         	4.175
MS.324         	18.038         	4.173
MS.325         	18.003         	4.187
MS.326         	17.967         	4.155
MS.327         	17.93          	4.147
MS.328         	17.895         	4.195
MS.329         	17.86          	4.125
MS.330         	17.823         	4.151
MS.331         	17.788         	4.161
MS.332         	17.753         	4.143
MS.333         	17.717         	4.129
MS.334         	17.68          	4.133
MS.335         	17.645         	4.125
MS.336         	17.61          	4.087
MS.337         	17.575         	4.083
MS.338         	17.54          	4.077
MS.339         	17.505         	4.073
MS.340         	17.47          	4.032
MS.341         	17.435         	4.089
MS.342         	17.4           	4.002
MS.343         	17.365         	4.014
MS.344         	17.33          	4.085
MS.345         	17.297         	3.954
MS.346         	17.262         	3.869
MS.347         	17.227         	3.946
MS.348         	17.192         	3.897
MS.349         	17.157         	3.861
MS.350         	17.125         	3.901
MS.351         	17.09          	3.837
MS.352         	17.055         	3.934
MS.353         	17.022         	3.853
MS.354         	16.987         	3.849
MS.355         	16.955         	3.877
MS.356         	16.92          	3.841
MS.357         	16.887         	3.891
MS.358         	16.852         	3.845
MS.359         	16.82          	3.781
MS.360         	16.785         	3.785
MS.361         	16.753         	3.714
MS.362         	16.717         	3.742
MS.363         	16.685         	3.74
MS.364         	16.653         	3.728
MS.365         	16.618         	3.69
MS.366         	16.585         	3.712
MS.367         	16.552         	3.718
MS.368         	16.52          	3.702
MS.369         	16.485         	3.702
MS.370         	16.452         	3.634
MS.371         	16.42          	3.656
MS.372         	16.387         	3.603
MS.373         	16.355         	3.625
MS.374         	16.323         	3.597
MS.375         	16.29          	3.595
MS.376         	16.257         	3.557
MS.377         	16.225         	3.597
MS.378         	16.192         	3.634
MS.379         	16.16          	3.563
MS.380         	16.128         	3.625
MS.381         	16.095         	3.517
MS.382         	16.062         	3.529
MS.383         	16.03          	3.595
MS.384         	15.997         	3.507
MS.385         	15.967         	3.521
MS.386         	15.935         	3.446
MS.387         	15.902         	3.517
MS.388         	15.87          	3.472
MS.389         	15.84          	3.424
MS.390         	15.807         	3.517
MS.391         	15.775         	3.426
MS.392         	15.745         	3.452
MS.393         	15.712         	3.422
MS.394         	15.682         	3.428
MS.395         	15.65          	3.372
MS.396         	15.62          	3.354
MS.397         	15.587         	3.339
MS.398         	15.557         	3.335
MS.399         	15.525         	3.396
MS.400         	15.495         	3.358
MS.401         	15.465         	3.348
MS.402         	15.432         	3.279
MS.403         	15.402         	3.285
MS.404         	15.372         	3.283
MS.405         	15.34          	3.188
MS.406         	15.31          	3.18
MS.407         	15.28          	3.17
MS.408         	15.25          	3.194
MS.409         	15.217         	3.152
MS.410         	15.188         	3.13
MS.411         	15.157         	3.209
MS.412         	15.127         	3.098
MS.413         	15.097         	3.094
MS.414         	15.068         	3.064
MS.415         	15.037         	3.09
MS.416         	15.007         	3.122
MS.417         	14.977         	3.132
MS.418         	14.947         	3.15
MS.419         	14.917         	3.074
MS.420         	14.887         	2.973
MS.421         	14.858         	3.114
MS.422         	14.827         	2.997
MS.423         	14.797         	2.973
MS.424         	14.767         	2.991
MS.425         	14.74          	2.933
MS.426         	14.71          	3.007
MS.427         	14.68          	2.931
MS.428         	14.65          	2.957
MS.429         	14.622         	2.953
MS.430         	14.592         	2.868
MS.431         	14.562         	2.788
MS.432         	14.535         	2.806
MS.433         	14.505         	2.824
MS.434         	14.475         	2.888
MS.435         	14.447         	2.808
MS.436         	14.417         	2.834
MS.437         	14.39          	2.784
MS.438         	14.36          	2.755
MS.439         	14.332         	2.725
MS.440         	14.302         	2.759
MS.441         	14.275         	2.717
MS.442         	14.247         	2.737
MS.443         	14.217         	2.755
MS.444         	14.19          	2.751
MS.445         	14.16          	2.671
MS.446         	14.132         	2.665
MS.447         	14.105         	2.649
MS.448         	14.077         	2.622
MS.449         	14.047         	2.586
MS.450         	14.02          	2.602
MS.451         	13.992         	2.655
MS.452         	13.965         	2.637
MS.453         	13.938         	2.57
MS.454         	13.907         	2.604
MS.455         	13.88          	2.598
MS.456         	13.852         	2.522
MS.457         	13.825         	2.53
MS.458         	13.797         	2.586
MS.459         	13.77          	2.562
MS.460         	13.742         	2.487
MS.461         	13.715         	2.481
MS.462         	13.688         	2.455
MS.463         	13.66          	2.429
MS.464         	13.632         	2.453
MS.465         	13.605         	2.5
MS.466         	13.577         	2.437
MS.467         	13.552         	2.427
MS.468         	13.525         	2.355
MS.469         	13.497         	2.367
MS.470         	13.47          	2.29
MS.471         	13.443         	2.276
MS.472         	13.417         	2.308
MS.473         	13.39          	2.28
MS.474         	13.362         	2.214
MS.475         	13.337         	2.191
MS.476         	13.31          	2.141
MS.477         	13.282         	2.145
MS.478         	13.257         	2.093
MS.479         	13.23          	2.052
MS.480         	13.205         	2.105
MS.481         	13.177         	2.048
MS.482         	13.15          	2.085
MS.483         	13.125         	2.093
MS.484         	13.097         	2.038
MS.485         	13.072         	2.065
MS.486         	13.047         	2.067
MS.487         	13.02          	1.958
MS.488         	12.995         	1.952
MS.489         	12.967         	1.992
MS.490         	12.943         	1.936
MS.491         	12.917         	1.889
MS.492         	12.89          	1.934
MS.493         	12.865         	1.885
MS.494         	12.84          	1.837
MS.495         	12.812         	1.847
MS.496         	12.787         	1.833
MS.497         	12.762         	1.766
MS.498         	12.738         	1.875
MS.499         	12.712         	1.793
MS.500         	12.685         	1.801
