File:              	C:\Qtrac\Data\Daniel M Sørensen\MScan multicentre study\Data from centres\Roskilde\Folders with NC-examinations\ROS_N8b\MBC00605B.QZD
Name:              	DK.ROS.NC.8.2
Protocol:          	MSCAN-R2
Date:              	5/6/20
Start time:        	10:50:28
Age:               	52
Sex:               	F
Temperature:       	35,8
S/R sites:         	ulnaris Wr-ADQ
NC/disease:        	NC
Operator:          	tr
Comments:
M-SCAN DATA (9.9-1.5m)
Scanpts: 263, 272, 862, 884
Stim. (mA)     	Amp. (mV)
MS.1           	15             	7.889
MS.2           	15             	7.885
MS.3           	15             	7.885
MS.4           	15             	7.887
MS.5           	15             	7.889
MS.6           	15             	7.916
MS.7           	15             	7.912
MS.8           	15             	7.916
MS.9           	15             	7.918
MS.10          	15             	7.912
MS.11          	15             	7.922
MS.12          	15             	7.914
MS.13          	15             	7.924
MS.14          	15             	7.93
MS.15          	15             	7.928
MS.16          	15             	7.942
MS.17          	15             	7.944
MS.18          	15             	7.944
MS.19          	15             	7.946
MS.20          	15             	7.932
MS.21          	15             	7.944
MS.22          	15             	7.956
MS.23          	15             	7.95
MS.24          	14.94          	7.946
MS.25          	14.91          	7.928
MS.26          	14.88          	7.954
MS.27          	14.85          	7.94
MS.28          	14.82          	7.952
MS.29          	14.792         	7.968
MS.30          	14.762         	7.954
MS.31          	14.733         	7.964
MS.32          	14.702         	7.952
MS.33          	14.672         	7.952
MS.34          	14.645         	7.96
MS.35          	14.615         	7.958
MS.36          	14.585         	7.964
MS.37          	14.557         	7.96
MS.38          	14.527         	7.95
MS.39          	14.497         	7.966
MS.40          	14.47          	7.962
MS.41          	14.44          	7.96
MS.42          	14.412         	7.954
MS.43          	14.382         	7.958
MS.44          	14.355         	7.962
MS.45          	14.325         	7.952
MS.46          	14.297         	7.948
MS.47          	14.267         	7.946
MS.48          	14.24          	7.938
MS.49          	14.212         	7.952
MS.50          	14.182         	7.946
MS.51          	14.155         	7.952
MS.52          	14.127         	7.948
MS.53          	14.097         	7.962
MS.54          	14.07          	7.966
MS.55          	14.042         	7.968
MS.56          	14.015         	7.914
MS.57          	13.985         	7.968
MS.58          	13.957         	7.966
MS.59          	13.93          	7.968
MS.60          	13.903         	7.946
MS.61          	13.875         	7.946
MS.62          	13.847         	7.936
MS.63          	13.82          	7.948
MS.64          	13.792         	7.938
MS.65          	13.765         	7.948
MS.66          	13.737         	7.948
MS.67          	13.71          	7.966
MS.68          	13.682         	7.968
MS.69          	13.655         	7.962
MS.70          	13.627         	7.97
MS.71          	13.6           	7.954
MS.72          	13.572         	7.936
MS.73          	13.545         	7.948
MS.74          	13.517         	7.94
MS.75          	13.492         	7.958
MS.76          	13.465         	7.97
MS.77          	13.438         	7.972
MS.78          	13.41          	7.992
MS.79          	13.385         	7.972
MS.80          	13.358         	7.982
MS.81          	13.33          	7.992
MS.82          	13.305         	7.986
MS.83          	13.278         	7.984
MS.84          	13.25          	7.986
MS.85          	13.225         	7.988
MS.86          	13.197         	7.982
MS.87          	13.172         	7.95
MS.88          	13.145         	7.972
MS.89          	13.12          	7.968
MS.90          	13.092         	7.958
MS.91          	13.068         	7.974
MS.92          	13.04          	7.96
MS.93          	13.015         	7.962
MS.94          	12.987         	7.972
MS.95          	12.962         	7.974
MS.96          	12.938         	7.992
MS.97          	12.91          	7.982
MS.98          	12.885         	7.98
MS.99          	12.86          	7.984
MS.100         	12.832         	7.986
MS.101         	12.807         	7.978
MS.102         	12.782         	7.97
MS.103         	12.757         	7.976
MS.104         	12.73          	7.99
MS.105         	12.705         	7.978
MS.106         	12.68          	7.992
MS.107         	12.655         	7.998
MS.108         	12.63          	8.004
MS.109         	12.605         	8.006
MS.110         	12.58          	7.998
MS.111         	12.555         	8.008
MS.112         	12.53          	7.996
MS.113         	12.505         	7.996
MS.114         	12.48          	7.994
MS.115         	12.455         	7.998
MS.116         	12.43          	8.002
MS.117         	12.405         	8.016
MS.118         	12.38          	8.018
MS.119         	12.355         	8.004
MS.120         	12.33          	8.008
MS.121         	12.305         	8.012
MS.122         	12.28          	7.998
MS.123         	12.257         	7.992
MS.124         	12.233         	7.982
MS.125         	12.207         	7.972
MS.126         	12.182         	8.006
MS.127         	12.157         	7.996
MS.128         	12.135         	8.006
MS.129         	12.11          	7.998
MS.130         	12.085         	7.996
MS.131         	12.062         	8.008
MS.132         	12.037         	8.002
MS.133         	12.012         	8.004
MS.134         	11.99          	8
MS.135         	11.965         	7.996
MS.136         	11.943         	7.986
MS.137         	11.917         	7.98
MS.138         	11.895         	8.002
MS.139         	11.87          	7.974
MS.140         	11.847         	7.998
MS.141         	11.822         	8.012
MS.142         	11.8           	7.99
MS.143         	11.775         	8.006
MS.144         	11.752         	7.998
MS.145         	11.73          	7.988
MS.146         	11.705         	7.998
MS.147         	11.682         	7.976
MS.148         	11.657         	8.02
MS.149         	11.635         	7.986
MS.150         	11.613         	8.008
MS.151         	11.59          	8.008
MS.152         	11.565         	8.036
MS.153         	11.542         	7.98
MS.154         	11.52          	8.026
MS.155         	11.497         	8.008
MS.156         	11.472         	8.012
MS.157         	11.45          	8.032
MS.158         	11.427         	8.018
MS.159         	11.405         	8.002
MS.160         	11.382         	8.026
MS.161         	11.36          	7.992
MS.162         	11.337         	7.992
MS.163         	11.315         	7.986
MS.164         	11.292         	7.996
MS.165         	11.27          	8
MS.166         	11.247         	8.004
MS.167         	11.225         	8.008
MS.168         	11.202         	8.026
MS.169         	11.18          	8.004
MS.170         	11.157         	7.992
MS.171         	11.135         	8.004
MS.172         	11.113         	7.998
MS.173         	11.09          	8.004
MS.174         	11.068         	7.988
MS.175         	11.045         	7.976
MS.176         	11.023         	7.988
MS.177         	11.002         	8.004
MS.178         	10.98          	8.014
MS.179         	10.957         	8.014
MS.180         	10.935         	8.018
MS.181         	10.915         	8
MS.182         	10.892         	8.02
MS.183         	10.87          	8.002
MS.184         	10.847         	7.998
MS.185         	10.827         	8
MS.186         	10.805         	7.992
MS.187         	10.785         	8
MS.188         	10.762         	7.996
MS.189         	10.74          	8.006
MS.190         	10.72          	8.018
MS.191         	10.698         	8.006
MS.192         	10.677         	7.998
MS.193         	10.655         	8.004
MS.194         	10.635         	7.996
MS.195         	10.613         	8.02
MS.196         	10.592         	8.008
MS.197         	10.57          	7.994
MS.198         	10.55          	8.014
MS.199         	10.528         	7.99
MS.200         	10.507         	8.004
MS.201         	10.485         	7.992
MS.202         	10.465         	7.992
MS.203         	10.445         	7.98
MS.204         	10.422         	7.982
MS.205         	10.403         	8
MS.206         	10.382         	8.006
MS.207         	10.36          	7.996
MS.208         	10.34          	8.002
MS.209         	10.32          	8.002
MS.210         	10.3           	8.01
MS.211         	10.278         	8.008
MS.212         	10.257         	8.008
MS.213         	10.238         	7.998
MS.214         	10.217         	7.992
MS.215         	10.198         	8.006
MS.216         	10.175         	8.01
MS.217         	10.155         	7.996
MS.218         	10.135         	8.01
MS.219         	10.115         	8.016
MS.220         	10.095         	8.002
MS.221         	10.075         	8.016
MS.222         	10.055         	8.022
MS.223         	10.035         	8.008
MS.224         	10.015         	8.02
MS.225         	9.995          	8.006
MS.226         	9.975          	8.002
MS.227         	9.955          	8.02
MS.228         	9.935          	8.026
MS.229         	9.915          	8.02
MS.230         	9.895          	8
MS.231         	9.875          	8.014
MS.232         	9.855          	8.016
MS.233         	9.835          	8.02
MS.234         	9.818          	8.014
MS.235         	9.797          	8.022
MS.236         	9.778          	8.026
MS.237         	9.757          	8.032
MS.238         	9.738          	8.039
MS.239         	9.717          	8.028
MS.240         	9.7            	8.028
MS.241         	9.68           	8.012
MS.242         	9.66           	7.998
MS.243         	9.64           	8.016
MS.244         	9.622          	7.998
MS.245         	9.602          	8.012
MS.246         	9.582          	8.01
MS.247         	9.565          	8.014
MS.248         	9.545          	8.034
MS.249         	9.525          	8.024
MS.250         	9.507          	8.026
MS.251         	9.488          	8.022
MS.252         	9.47           	8.01
MS.253         	9.45           	8.016
MS.254         	9.432          	8.028
MS.255         	9.412          	8.02
MS.256         	9.395          	8.051
MS.257         	9.375          	8.008
MS.258         	9.358          	8.041
MS.259         	9.337          	8.016
MS.260         	9.32           	8.028
MS.261         	9.3            	8.028
MS.262         	9.283          	8.039
MS.263         	9.262          	8.053
MS.264         	9.245          	8.036
MS.265         	9.225          	8.034
MS.266         	9.207          	8.043
MS.267         	9.19           	8.043
MS.268         	9.17           	8.055
MS.269         	9.153          	8.047
MS.270         	9.135          	8.018
MS.271         	9.115          	8.073
MS.272         	9.097          	8.018
MS.273         	9.08           	8.039
MS.274         	9.062          	8.032
MS.275         	9.042          	8.032
MS.276         	9.025          	8.03
MS.277         	9.007          	8.036
MS.278         	8.99           	8.049
MS.279         	8.972          	8.061
MS.280         	8.952          	8.041
MS.281         	8.935          	8.061
MS.282         	8.917          	8.036
MS.283         	8.9            	8.039
MS.284         	8.882          	8.02
MS.285         	8.865          	8.047
MS.286         	8.847          	8.049
MS.287         	8.83           	8.053
MS.288         	8.812          	8.026
MS.289         	8.795          	8.028
MS.290         	8.775          	8.028
MS.291         	8.757          	8.026
MS.292         	8.74           	7.99
MS.293         	8.722          	8.049
MS.294         	8.707          	8.059
MS.295         	8.69           	7.986
MS.296         	8.672          	7.972
MS.297         	8.655          	7.916
MS.298         	8.637          	8.043
MS.299         	8.62           	7.94
MS.300         	8.602          	8.002
MS.301         	8.585          	7.964
MS.302         	8.568          	8.047
MS.303         	8.55           	8.067
MS.304         	8.535          	8.045
MS.305         	8.517          	7.978
MS.306         	8.5            	8.032
MS.307         	8.483          	7.896
MS.308         	8.465          	7.946
MS.309         	8.45           	7.97
MS.310         	8.432          	7.902
MS.311         	8.415          	7.847
MS.312         	8.398          	7.849
MS.313         	8.382          	7.861
MS.314         	8.365          	7.861
MS.315         	8.347          	7.863
MS.316         	8.332          	7.958
MS.317         	8.315          	7.896
MS.318         	8.297          	7.861
MS.319         	8.283          	7.946
MS.320         	8.265          	7.847
MS.321         	8.247          	7.889
MS.322         	8.233          	7.821
MS.323         	8.215          	7.823
MS.324         	8.2            	7.845
MS.325         	8.182          	7.829
MS.326         	8.167          	7.859
MS.327         	8.15           	7.797
MS.328         	8.135          	7.829
MS.329         	8.117          	7.863
MS.330         	8.102          	7.783
MS.331         	8.085          	7.803
MS.332         	8.07           	7.781
MS.333         	8.052          	7.819
MS.334         	8.037          	7.873
MS.335         	8.02           	7.771
MS.336         	8.005          	7.849
MS.337         	7.99           	7.755
MS.338         	7.972          	7.797
MS.339         	7.957          	7.829
MS.340         	7.94           	7.787
MS.341         	7.925          	7.775
MS.342         	7.91           	7.728
MS.343         	7.892          	7.742
MS.344         	7.878          	7.803
MS.345         	7.862          	7.797
MS.346         	7.847          	7.718
MS.347         	7.83           	7.628
MS.348         	7.815          	7.65
MS.349         	7.8            	7.646
MS.350         	7.785          	7.686
MS.351         	7.767          	7.609
MS.352         	7.753          	7.676
MS.353         	7.737          	7.682
MS.354         	7.722          	7.694
MS.355         	7.707          	7.654
MS.356         	7.69           	7.614
MS.357         	7.675          	7.648
MS.358         	7.66           	7.672
MS.359         	7.645          	7.601
MS.360         	7.63           	7.64
MS.361         	7.615          	7.541
MS.362         	7.6            	7.547
MS.363         	7.585          	7.519
MS.364         	7.57           	7.603
MS.365         	7.555          	7.607
MS.366         	7.537          	7.446
MS.367         	7.523          	7.471
MS.368         	7.507          	7.533
MS.369         	7.492          	7.497
MS.370         	7.477          	7.497
MS.371         	7.462          	7.452
MS.372         	7.447          	7.515
MS.373         	7.435          	7.424
MS.374         	7.42           	7.408
MS.375         	7.405          	7.279
MS.376         	7.39           	7.394
MS.377         	7.375          	7.271
MS.378         	7.36           	7.281
MS.379         	7.345          	7.372
MS.380         	7.33           	7.223
MS.381         	7.315          	7.303
MS.382         	7.302          	7.243
MS.383         	7.287          	7.178
MS.384         	7.273          	7.193
MS.385         	7.257          	7.126
MS.386         	7.242          	7.18
MS.387         	7.227          	7.046
MS.388         	7.215          	7.082
MS.389         	7.2            	7.207
MS.390         	7.185          	7.08
MS.391         	7.17           	6.892
MS.392         	7.157          	6.866
MS.393         	7.142          	6.919
MS.394         	7.128          	6.957
MS.395         	7.115          	6.814
MS.396         	7.1            	6.905
MS.397         	7.085          	6.794
MS.398         	7.072          	6.824
MS.399         	7.057          	6.78
MS.400         	7.043          	6.717
MS.401         	7.03           	6.81
MS.402         	7.015          	6.596
MS.403         	7              	6.695
MS.404         	6.987          	6.6
MS.405         	6.972          	6.58
MS.406         	6.96           	6.653
MS.407         	6.945          	6.54
MS.408         	6.932          	6.514
MS.409         	6.918          	6.53
MS.410         	6.902          	6.572
MS.411         	6.89           	6.564
MS.412         	6.875          	6.411
MS.413         	6.862          	6.413
MS.414         	6.847          	6.445
MS.415         	6.835          	6.322
MS.416         	6.822          	6.26
MS.417         	6.807          	6.256
MS.418         	6.795          	6.296
MS.419         	6.78           	6.3
MS.420         	6.767          	6.185
MS.421         	6.753          	6.343
MS.422         	6.74           	6.276
MS.423         	6.727          	6.208
MS.424         	6.712          	6.23
MS.425         	6.7            	5.988
MS.426         	6.685          	5.821
MS.427         	6.672          	6.032
MS.428         	6.66           	5.988
MS.429         	6.645          	5.972
MS.430         	6.632          	5.901
MS.431         	6.62           	5.845
MS.432         	6.608          	5.904
MS.433         	6.592          	5.714
MS.434         	6.58           	5.906
MS.435         	6.567          	5.821
MS.436         	6.555          	5.688
MS.437         	6.54           	5.539
MS.438         	6.527          	5.712
MS.439         	6.515          	5.662
MS.440         	6.503          	5.378
MS.441         	6.487          	5.678
MS.442         	6.475          	5.491
MS.443         	6.462          	5.472
MS.444         	6.45           	5.65
MS.445         	6.438          	5.442
MS.446         	6.425          	5.46
MS.447         	6.41           	5.317
MS.448         	6.398          	5.193
MS.449         	6.385          	5.229
MS.450         	6.372          	5.025
MS.451         	6.36           	4.935
MS.452         	6.347          	5.037
MS.453         	6.335          	5.1
MS.454         	6.322          	5.168
MS.455         	6.31           	5.007
MS.456         	6.297          	4.89
MS.457         	6.285          	4.919
MS.458         	6.273          	4.9
MS.459         	6.26           	4.618
MS.460         	6.247          	4.608
MS.461         	6.235          	4.778
MS.462         	6.222          	4.659
MS.463         	6.21           	4.792
MS.464         	6.197          	4.929
MS.465         	6.185          	4.479
MS.466         	6.172          	4.663
MS.467         	6.16           	4.268
MS.468         	6.148          	4.58
MS.469         	6.135          	4.252
MS.470         	6.122          	4.3
MS.471         	6.11           	4.216
MS.472         	6.097          	4.091
MS.473         	6.088          	4.343
MS.474         	6.075          	4.246
MS.475         	6.062          	4.127
MS.476         	6.05           	4.274
MS.477         	6.037          	4.193
MS.478         	6.025          	4.195
MS.479         	6.012          	4.046
MS.480         	6.003          	4.105
MS.481         	5.99           	3.901
MS.482         	5.977          	3.811
MS.483         	5.965          	3.813
MS.484         	5.955          	3.827
MS.485         	5.942          	3.793
MS.486         	5.93           	3.658
MS.487         	5.918          	3.891
MS.488         	5.907          	3.758
MS.489         	5.895          	3.628
MS.490         	5.882          	3.696
MS.491         	5.87           	3.529
MS.492         	5.86           	3.692
MS.493         	5.847          	3.66
MS.494         	5.835          	3.678
MS.495         	5.825          	3.625
MS.496         	5.812          	3.646
MS.497         	5.8            	3.563
MS.498         	5.79           	3.595
MS.499         	5.777          	3.607
MS.500         	5.767          	3.539
MS.501         	5.755          	3.515
