File:              	C:\Qtrac\Data\Daniel M Sørensen\MScan multicentre study\Data from centres\Roskilde\Folders with NC-examinations\ROS_N3a\MBC00304B.QZD
Name:              	DK.ROS.NC.3.1
Protocol:          	MSCAN-R2
Date:              	4/3/20
Start time:        	14:12:31
Age:               	22
Sex:               	f
Temperature:       	38.6
S/R sites:         	Ulnar Wr-ADM
NC/disease:        	NC
Operator:          	MB
Comments:
M-SCAN DATA (Repeat 2/2, 15.3-8.2m)
Scanpts: 257, 264, 731, 753
Stim. (mA)     	Amp. (mV)
MS.1           	30.5           	8.669
MS.2           	30.5           	8.643
MS.3           	30.5           	8.703
MS.4           	30.5           	8.701
MS.5           	30.5           	8.725
MS.6           	30.5           	8.772
MS.7           	30.5           	8.812
MS.8           	30.5           	8.826
MS.9           	30.5           	8.858
MS.10          	30.5           	8.87
MS.11          	30.5           	8.842
MS.12          	30.5           	8.876
MS.13          	30.5           	8.888
MS.14          	30.5           	8.874
MS.15          	30.5           	8.945
MS.16          	30.5           	8.891
MS.17          	30.5           	8.812
MS.18          	30.5           	8.844
MS.19          	30.5           	8.864
MS.20          	30.5           	8.858
MS.21          	30.5           	8.864
MS.22          	30.5           	8.901
MS.23          	30.5           	8.884
MS.24          	30.44          	8.739
MS.25          	30.377         	8.762
MS.26          	30.317         	8.784
MS.27          	30.257         	8.741
MS.28          	30.198         	8.731
MS.29          	30.135         	8.778
MS.30          	30.075         	8.816
MS.31          	30.015         	8.864
MS.32          	29.955         	8.8
MS.33          	29.895         	8.838
MS.34          	29.837         	8.893
MS.35          	29.778         	8.85
MS.36          	29.717         	8.828
MS.37          	29.657         	8.84
MS.38          	29.597         	8.816
MS.39          	29.54          	8.796
MS.40          	29.48          	8.723
MS.41          	29.422         	8.772
MS.42          	29.362         	8.84
MS.43          	29.305         	8.967
MS.44          	29.245         	8.905
MS.45          	29.188         	8.915
MS.46          	29.13          	8.967
MS.47          	29.07          	8.975
MS.48          	29.012         	8.931
MS.49          	28.955         	8.878
MS.50          	28.897         	8.907
MS.51          	28.84          	8.872
MS.52          	28.782         	8.897
MS.53          	28.725         	8.822
MS.54          	28.667         	8.842
MS.55          	28.61          	8.844
MS.56          	28.552         	8.876
MS.57          	28.495         	8.866
MS.58          	28.438         	8.848
MS.59          	28.38          	8.86
MS.60          	28.325         	8.828
MS.61          	28.267         	8.919
MS.62          	28.212         	8.933
MS.63          	28.155         	8.949
MS.64          	28.1           	8.945
MS.65          	28.042         	8.921
MS.66          	27.987         	8.989
MS.67          	27.93          	8.983
MS.68          	27.875         	8.981
MS.69          	27.82          	8.937
MS.70          	27.762         	8.919
MS.71          	27.707         	8.893
MS.72          	27.653         	8.77
MS.73          	27.597         	8.778
MS.74          	27.542         	8.776
MS.75          	27.487         	8.834
MS.76          	27.432         	8.868
MS.77          	27.377         	8.878
MS.78          	27.323         	8.868
MS.79          	27.267         	8.854
MS.80          	27.215         	8.856
MS.81          	27.16          	8.87
MS.82          	27.105         	8.876
MS.83          	27.05          	8.87
MS.84          	26.997         	8.862
MS.85          	26.942         	8.85
MS.86          	26.89          	8.858
MS.87          	26.835         	8.876
MS.88          	26.782         	8.895
MS.89          	26.727         	8.878
MS.90          	26.675         	8.876
MS.91          	26.622         	8.891
MS.92          	26.567         	8.903
MS.93          	26.515         	8.915
MS.94          	26.462         	8.927
MS.95          	26.41          	8.909
MS.96          	26.358         	8.931
MS.97          	26.305         	8.907
MS.98          	26.252         	8.977
MS.99          	26.2           	8.979
MS.100         	26.147         	8.979
MS.101         	26.095         	8.991
MS.102         	26.042         	8.985
MS.103         	25.99          	8.997
MS.104         	25.938         	9.013
MS.105         	25.887         	9.005
MS.106         	25.835         	8.983
MS.107         	25.782         	8.991
MS.108         	25.733         	8.989
MS.109         	25.68          	8.991
MS.110         	25.63          	8.995
MS.111         	25.577         	8.997
MS.112         	25.528         	8.967
MS.113         	25.475         	8.993
MS.114         	25.425         	9.009
MS.115         	25.375         	9.04
MS.116         	25.323         	8.995
MS.117         	25.272         	9.011
MS.118         	25.222         	9.007
MS.119         	25.172         	9.029
MS.120         	25.122         	9.052
MS.121         	25.073         	9.029
MS.122         	25.022         	9.044
MS.123         	24.972         	9.038
MS.124         	24.922         	9.027
MS.125         	24.872         	9.04
MS.126         	24.823         	9.048
MS.127         	24.772         	9.029
MS.128         	24.722         	9.021
MS.129         	24.672         	9.038
MS.130         	24.625         	9.05
MS.131         	24.575         	9.031
MS.132         	24.525         	9.058
MS.133         	24.477         	9.029
MS.134         	24.427         	9.025
MS.135         	24.38          	9.027
MS.136         	24.33          	9.036
MS.137         	24.282         	9.034
MS.138         	24.233         	9.025
MS.139         	24.185         	9.021
MS.140         	24.137         	9.021
MS.141         	24.087         	9.044
MS.142         	24.04          	9.036
MS.143         	23.993         	9.072
MS.144         	23.945         	9.052
MS.145         	23.897         	9.031
MS.146         	23.847         	9.021
MS.147         	23.8           	9.064
MS.148         	23.752         	9.058
MS.149         	23.705         	9.044
MS.150         	23.657         	9.05
MS.151         	23.612         	9.052
MS.152         	23.565         	9.05
MS.153         	23.517         	9.009
MS.154         	23.47          	9.025
MS.155         	23.422         	9.054
MS.156         	23.377         	9.06
MS.157         	23.33          	9.066
MS.158         	23.282         	9.066
MS.159         	23.237         	9.052
MS.160         	23.19          	9.082
MS.161         	23.145         	9.025
MS.162         	23.097         	9.072
MS.163         	23.052         	9.072
MS.164         	23.005         	9.062
MS.165         	22.96          	9.07
MS.166         	22.913         	9.062
MS.167         	22.868         	9.074
MS.168         	22.823         	9.062
MS.169         	22.778         	9.076
MS.170         	22.73          	9.07
MS.171         	22.685         	9.112
MS.172         	22.64          	9.076
MS.173         	22.595         	9.096
MS.174         	22.55          	9.092
MS.175         	22.505         	9.094
MS.176         	22.46          	9.09
MS.177         	22.415         	9.108
MS.178         	22.37          	9.102
MS.179         	22.325         	9.094
MS.180         	22.28          	9.104
MS.181         	22.237         	9.09
MS.182         	22.192         	9.106
MS.183         	22.147         	9.102
MS.184         	22.102         	9.114
MS.185         	22.06          	9.096
MS.186         	22.015         	9.076
MS.187         	21.97          	9.11
MS.188         	21.927         	9.112
MS.189         	21.882         	9.112
MS.190         	21.84          	9.098
MS.191         	21.795         	9.13
MS.192         	21.752         	9.16
MS.193         	21.71          	9.144
MS.194         	21.665         	9.174
MS.195         	21.622         	9.211
MS.196         	21.58          	9.273
MS.197         	21.535         	9.285
MS.198         	21.493         	9.315
MS.199         	21.45          	9.283
MS.200         	21.407         	9.315
MS.201         	21.365         	9.283
MS.202         	21.323         	9.261
MS.203         	21.28          	9.281
MS.204         	21.237         	9.297
MS.205         	21.195         	9.33
MS.206         	21.153         	9.305
MS.207         	21.11          	9.231
MS.208         	21.067         	9.221
MS.209         	21.025         	9.257
MS.210         	20.983         	9.221
MS.211         	20.942         	9.253
MS.212         	20.9           	9.263
MS.213         	20.858         	9.259
MS.214         	20.815         	9.245
MS.215         	20.775         	9.221
MS.216         	20.733         	9.223
MS.217         	20.692         	9.219
MS.218         	20.65          	9.215
MS.219         	20.61          	9.219
MS.220         	20.567         	9.233
MS.221         	20.528         	9.239
MS.222         	20.485         	9.223
MS.223         	20.445         	9.249
MS.224         	20.405         	9.251
MS.225         	20.362         	9.225
MS.226         	20.323         	9.237
MS.227         	20.282         	9.229
MS.228         	20.243         	9.253
MS.229         	20.2           	9.241
MS.230         	20.16          	9.255
MS.231         	20.12          	9.241
MS.232         	20.08          	9.251
MS.233         	20.04          	9.253
MS.234         	20             	9.295
MS.235         	19.96          	9.311
MS.236         	19.92          	9.352
MS.237         	19.88          	9.328
MS.238         	19.84          	9.307
MS.239         	19.8           	9.37
MS.240         	19.762         	9.376
MS.241         	19.722         	9.34
MS.242         	19.682         	9.326
MS.243         	19.642         	9.32
MS.244         	19.605         	9.289
MS.245         	19.565         	9.279
MS.246         	19.525         	9.318
MS.247         	19.487         	9.318
MS.248         	19.448         	9.291
MS.249         	19.41          	9.324
MS.250         	19.37          	9.36
MS.251         	19.333         	9.297
MS.252         	19.292         	9.366
MS.253         	19.255         	9.344
MS.254         	19.215         	9.334
MS.255         	19.177         	9.36
MS.256         	19.14          	9.33
MS.257         	19.1           	9.332
MS.258         	19.062         	9.344
MS.259         	19.025         	9.35
MS.260         	18.987         	9.34
MS.261         	18.948         	9.35
MS.262         	18.91          	9.348
MS.263         	18.872         	9.32
MS.264         	18.835         	9.32
MS.265         	18.797         	9.334
MS.266         	18.76          	9.38
MS.267         	18.722         	9.352
MS.268         	18.685         	9.354
MS.269         	18.647         	9.346
MS.270         	18.61          	9.348
MS.271         	18.573         	9.309
MS.272         	18.535         	9.299
MS.273         	18.5           	9.289
MS.274         	18.462         	9.277
MS.275         	18.425         	9.275
MS.276         	18.387         	9.275
MS.277         	18.352         	9.32
MS.278         	18.315         	9.289
MS.279         	18.278         	9.297
MS.280         	18.243         	9.251
MS.281         	18.205         	9.285
MS.282         	18.17          	9.287
MS.283         	18.132         	9.279
MS.284         	18.097         	9.275
MS.285         	18.06          	9.275
MS.286         	18.025         	9.247
MS.287         	17.987         	9.279
MS.288         	17.952         	9.279
MS.289         	17.917         	9.245
MS.290         	17.88          	9.255
MS.291         	17.845         	9.265
MS.292         	17.81          	9.225
MS.293         	17.775         	9.235
MS.294         	17.737         	9.249
MS.295         	17.702         	9.251
MS.296         	17.667         	9.271
MS.297         	17.632         	9.281
MS.298         	17.597         	9.209
MS.299         	17.562         	9.247
MS.300         	17.528         	9.263
MS.301         	17.493         	9.201
MS.302         	17.458         	9.223
MS.303         	17.422         	9.227
MS.304         	17.387         	9.172
MS.305         	17.352         	9.233
MS.306         	17.317         	9.243
MS.307         	17.282         	9.046
MS.308         	17.247         	9.209
MS.309         	17.215         	9.046
MS.310         	17.18          	8.872
MS.311         	17.145         	9.104
MS.312         	17.11          	9.138
MS.313         	17.077         	9.14
MS.314         	17.042         	8.905
MS.315         	17.007         	9.126
MS.316         	16.975         	8.895
MS.317         	16.94          	8.927
MS.318         	16.907         	8.927
MS.319         	16.872         	9.13
MS.320         	16.84          	8.888
MS.321         	16.805         	8.895
MS.322         	16.772         	8.854
MS.323         	16.74          	8.864
MS.324         	16.705         	8.915
MS.325         	16.672         	9.136
MS.326         	16.637         	8.909
MS.327         	16.605         	9.11
MS.328         	16.573         	8.909
MS.329         	16.54          	8.897
MS.330         	16.505         	8.891
MS.331         	16.472         	8.882
MS.332         	16.44          	9.114
MS.333         	16.407         	8.852
MS.334         	16.375         	8.854
MS.335         	16.342         	8.884
MS.336         	16.31          	8.941
MS.337         	16.278         	8.905
MS.338         	16.245         	8.882
MS.339         	16.212         	9.124
MS.340         	16.18          	8.891
MS.341         	16.147         	9.128
MS.342         	16.115         	8.917
MS.343         	16.083         	8.937
MS.344         	16.05          	8.909
MS.345         	16.017         	8.84
MS.346         	15.985         	9.062
MS.347         	15.955         	8.85
MS.348         	15.922         	8.864
MS.349         	15.89          	8.905
MS.350         	15.86          	8.88
MS.351         	15.827         	8.88
MS.352         	15.795         	8.901
MS.353         	15.765         	8.929
MS.354         	15.733         	8.957
MS.355         	15.7           	8.931
MS.356         	15.67          	8.826
MS.357         	15.637         	8.88
MS.358         	15.608         	8.943
MS.359         	15.575         	8.909
MS.360         	15.545         	8.844
MS.361         	15.515         	8.917
MS.362         	15.483         	8.911
MS.363         	15.452         	8.84
MS.364         	15.42          	8.83
MS.365         	15.39          	8.921
MS.366         	15.36          	8.893
MS.367         	15.327         	8.84
MS.368         	15.297         	8.893
MS.369         	15.267         	8.82
MS.370         	15.237         	8.878
MS.371         	15.207         	8.727
MS.372         	15.175         	8.752
MS.373         	15.145         	8.705
MS.374         	15.115         	8.766
MS.375         	15.085         	8.76
MS.376         	15.055         	8.8
MS.377         	15.025         	8.745
MS.378         	14.995         	8.717
MS.379         	14.965         	8.78
MS.380         	14.935         	8.695
MS.381         	14.905         	8.758
MS.382         	14.875         	8.731
MS.383         	14.845         	8.814
MS.384         	14.818         	8.709
MS.385         	14.787         	8.76
MS.386         	14.757         	8.719
MS.387         	14.727         	8.665
MS.388         	14.697         	8.719
MS.389         	14.67          	8.651
MS.390         	14.64          	8.617
MS.391         	14.61          	8.615
MS.392         	14.58          	8.653
MS.393         	14.552         	8.613
MS.394         	14.523         	8.635
MS.395         	14.495         	8.59
MS.396         	14.465         	8.629
MS.397         	14.435         	8.647
MS.398         	14.407         	8.635
MS.399         	14.377         	8.657
MS.400         	14.35          	8.633
MS.401         	14.32          	8.609
MS.402         	14.292         	8.633
MS.403         	14.265         	8.51
MS.404         	14.235         	8.631
MS.405         	14.207         	8.584
MS.406         	14.177         	8.661
MS.407         	14.15          	8.588
MS.408         	14.122         	8.564
MS.409         	14.092         	8.588
MS.410         	14.065         	8.574
MS.411         	14.037         	8.508
MS.412         	14.01          	8.528
MS.413         	13.983         	8.582
MS.414         	13.952         	8.542
MS.415         	13.925         	8.52
MS.416         	13.898         	8.443
MS.417         	13.87          	8.516
MS.418         	13.842         	8.484
MS.419         	13.815         	8.526
MS.420         	13.787         	8.417
MS.421         	13.76          	8.397
MS.422         	13.733         	8.425
MS.423         	13.705         	8.451
MS.424         	13.677         	8.417
MS.425         	13.65          	8.451
MS.426         	13.622         	8.369
MS.427         	13.595         	8.415
MS.428         	13.568         	8.379
MS.429         	13.54          	8.308
MS.430         	13.515         	8.302
MS.431         	13.487         	8.415
MS.432         	13.46          	8.359
MS.433         	13.432         	8.409
MS.434         	13.407         	8.351
MS.435         	13.38          	8.345
MS.436         	13.352         	8.304
MS.437         	13.325         	8.117
MS.438         	13.3           	8.091
MS.439         	13.273         	8.049
MS.440         	13.247         	7.992
MS.441         	13.22          	8.109
MS.442         	13.193         	8.085
MS.443         	13.167         	8.155
MS.444         	13.14          	7.904
MS.445         	13.115         	7.948
MS.446         	13.087         	8.049
MS.447         	13.062         	7.932
MS.448         	13.035         	7.96
MS.449         	13.01          	7.769
MS.450         	12.985         	7.823
MS.451         	12.957         	7.883
MS.452         	12.932         	7.853
MS.453         	12.907         	7.857
MS.454         	12.88          	7.724
MS.455         	12.855         	7.7
MS.456         	12.83          	7.67
MS.457         	12.802         	7.777
MS.458         	12.778         	7.71
MS.459         	12.752         	7.791
MS.460         	12.727         	7.807
MS.461         	12.702         	7.638
MS.462         	12.675         	7.7
MS.463         	12.65          	7.591
MS.464         	12.625         	7.702
MS.465         	12.6           	7.624
MS.466         	12.575         	7.539
MS.467         	12.55          	7.46
MS.468         	12.525         	7.267
MS.469         	12.5           	7.138
MS.470         	12.475         	7.527
MS.471         	12.45          	7.616
MS.472         	12.425         	7.62
MS.473         	12.4           	7.299
MS.474         	12.375         	7.386
MS.475         	12.35          	7.328
MS.476         	12.325         	7.291
MS.477         	12.302         	7.404
MS.478         	12.278         	7.364
MS.479         	12.252         	7.334
MS.480         	12.227         	7.213
MS.481         	12.202         	7.209
MS.482         	12.18          	7.096
MS.483         	12.155         	7.082
MS.484         	12.13          	6.957
MS.485         	12.108         	7.088
MS.486         	12.082         	6.898
MS.487         	12.057         	6.631
MS.488         	12.035         	6.778
MS.489         	12.01          	6.661
MS.490         	11.985         	6.502
MS.491         	11.962         	6.6
MS.492         	11.938         	6.308
MS.493         	11.915         	6.393
MS.494         	11.89          	6.169
MS.495         	11.867         	6.145
MS.496         	11.842         	6.179
MS.497         	11.82          	6.246
MS.498         	11.795         	5.976
MS.499         	11.773         	5.916
MS.500         	11.747         	5.956
