File:              	C:\Qtrac\Data\Daniel M Sørensen\MScan multicentre study\Data from centres\Roskilde\Folders with NC-examinations\ROS_N4b\MBC00408C.QZD
Name:              	DK.ROS.NC.4.2
Protocol:          	MSCAN-R2
Date:              	8/4/20
Start time:        	10:29:02
Age:               	41
Sex:               	f
Temperature:       	38.7
S/R sites:         	Per-TA
NC/disease:        	NC
Operator:          	MB
Comments:
M-SCAN DATA (9.9-1.2m)
Scanpts: 134, 139, 896, 918
Stim. (mA)     	Amp. (mV)
MS.1           	22.5           	5.184
MS.2           	22.5           	5.156
MS.3           	22.5           	5.156
MS.4           	22.5           	5.164
MS.5           	22.5           	5.184
MS.6           	22.5           	5.172
MS.7           	22.5           	5.15
MS.8           	22.5           	5.188
MS.9           	22.5           	5.172
MS.10          	22.5           	5.172
MS.11          	22.5           	5.18
MS.12          	22.5           	5.219
MS.13          	22.5           	5.18
MS.14          	22.5           	5.148
MS.15          	22.5           	5.199
MS.16          	22.5           	5.178
MS.17          	22.5           	5.197
MS.18          	22.5           	5.201
MS.19          	22.5           	5.217
MS.20          	22.5           	5.201
MS.21          	22.5           	5.243
MS.22          	22.5           	5.233
MS.23          	22.5           	5.233
MS.24          	22.41          	5.213
MS.25          	22.365         	5.251
MS.26          	22.32          	5.237
MS.27          	22.275         	5.247
MS.28          	22.233         	5.271
MS.29          	22.188         	5.245
MS.30          	22.142         	5.265
MS.31          	22.097         	5.275
MS.32          	22.055         	5.269
MS.33          	22.01          	5.251
MS.34          	21.967         	5.321
MS.35          	21.922         	5.305
MS.36          	21.877         	5.265
MS.37          	21.835         	5.281
MS.38          	21.792         	5.295
MS.39          	21.747         	5.271
MS.40          	21.705         	5.283
MS.41          	21.66          	5.271
MS.42          	21.618         	5.287
MS.43          	21.575         	5.333
MS.44          	21.532         	5.307
MS.45          	21.487         	5.265
MS.46          	21.445         	5.319
MS.47          	21.403         	5.329
MS.48          	21.36          	5.342
MS.49          	21.317         	5.333
MS.50          	21.275         	5.327
MS.51          	21.233         	5.323
MS.52          	21.19          	5.319
MS.53          	21.147         	5.34
MS.54          	21.105         	5.34
MS.55          	21.062         	5.37
MS.56          	21.02          	5.382
MS.57          	20.98          	5.378
MS.58          	20.938         	5.364
MS.59          	20.895         	5.402
MS.60          	20.852         	5.412
MS.61          	20.812         	5.39
MS.62          	20.77          	5.386
MS.63          	20.727         	5.39
MS.64          	20.688         	5.394
MS.65          	20.645         	5.42
MS.66          	20.605         	5.396
MS.67          	20.562         	5.42
MS.68          	20.522         	5.428
MS.69          	20.483         	5.42
MS.70          	20.44          	5.398
MS.71          	20.4           	5.432
MS.72          	20.36          	5.454
MS.73          	20.317         	5.464
MS.74          	20.278         	5.428
MS.75          	20.237         	5.432
MS.76          	20.198         	5.446
MS.77          	20.155         	5.42
MS.78          	20.115         	5.454
MS.79          	20.075         	5.452
MS.80          	20.035         	5.485
MS.81          	19.995         	5.521
MS.82          	19.955         	5.477
MS.83          	19.915         	5.505
MS.84          	19.875         	5.493
MS.85          	19.837         	5.499
MS.86          	19.797         	5.466
MS.87          	19.757         	5.477
MS.88          	19.717         	5.493
MS.89          	19.677         	5.525
MS.90          	19.64          	5.499
MS.91          	19.6           	5.489
MS.92          	19.56          	5.511
MS.93          	19.522         	5.531
MS.94          	19.483         	5.505
MS.95          	19.442         	5.521
MS.96          	19.405         	5.549
MS.97          	19.365         	5.545
MS.98          	19.327         	5.545
MS.99          	19.288         	5.537
MS.100         	19.25          	5.527
MS.101         	19.212         	5.545
MS.102         	19.172         	5.541
MS.103         	19.135         	5.541
MS.104         	19.097         	5.541
MS.105         	19.057         	5.575
MS.106         	19.02          	5.535
MS.107         	18.983         	5.559
MS.108         	18.945         	5.541
MS.109         	18.907         	5.575
MS.110         	18.87          	5.541
MS.111         	18.83          	5.587
MS.112         	18.792         	5.559
MS.113         	18.755         	5.565
MS.114         	18.717         	5.557
MS.115         	18.68          	5.581
MS.116         	18.645         	5.593
MS.117         	18.608         	5.537
MS.118         	18.57          	5.595
MS.119         	18.532         	5.571
MS.120         	18.495         	5.603
MS.121         	18.458         	5.569
MS.122         	18.422         	5.569
MS.123         	18.385         	5.607
MS.124         	18.347         	5.652
MS.125         	18.31          	5.587
MS.126         	18.275         	5.573
MS.127         	18.237         	5.66
MS.128         	18.202         	5.646
MS.129         	18.165         	5.581
MS.130         	18.13          	5.611
MS.131         	18.092         	5.632
MS.132         	18.057         	5.613
MS.133         	18.02          	5.63
MS.134         	17.985         	5.617
MS.135         	17.948         	5.678
MS.136         	17.913         	5.624
MS.137         	17.878         	5.591
MS.138         	17.84          	5.642
MS.139         	17.805         	5.64
MS.140         	17.77          	5.609
MS.141         	17.735         	5.666
MS.142         	17.7           	5.65
MS.143         	17.663         	5.652
MS.144         	17.628         	5.591
MS.145         	17.592         	5.64
MS.146         	17.557         	5.571
MS.147         	17.522         	5.702
MS.148         	17.487         	5.597
MS.149         	17.452         	5.668
MS.150         	17.417         	5.646
MS.151         	17.382         	5.628
MS.152         	17.347         	5.644
MS.153         	17.315         	5.611
MS.154         	17.28          	5.67
MS.155         	17.245         	5.615
MS.156         	17.21          	5.642
MS.157         	17.175         	5.549
MS.158         	17.142         	5.615
MS.159         	17.108         	5.593
MS.160         	17.073         	5.611
MS.161         	17.04          	5.555
MS.162         	17.005         	5.557
MS.163         	16.97          	5.567
MS.164         	16.938         	5.581
MS.165         	16.903         	5.543
MS.166         	16.87          	5.605
MS.167         	16.835         	5.535
MS.168         	16.802         	5.509
MS.169         	16.767         	5.589
MS.170         	16.735         	5.549
MS.171         	16.702         	5.527
MS.172         	16.667         	5.565
MS.173         	16.635         	5.565
MS.174         	16.602         	5.575
MS.175         	16.567         	5.525
MS.176         	16.535         	5.503
MS.177         	16.503         	5.505
MS.178         	16.47          	5.543
MS.179         	16.438         	5.535
MS.180         	16.405         	5.525
MS.181         	16.37          	5.489
MS.182         	16.337         	5.529
MS.183         	16.305         	5.537
MS.184         	16.272         	5.539
MS.185         	16.24          	5.515
MS.186         	16.208         	5.575
MS.187         	16.175         	5.569
MS.188         	16.142         	5.523
MS.189         	16.11          	5.517
MS.190         	16.08          	5.497
MS.191         	16.047         	5.495
MS.192         	16.015         	5.521
MS.193         	15.983         	5.519
MS.194         	15.95          	5.519
MS.195         	15.92          	5.531
MS.196         	15.887         	5.493
MS.197         	15.855         	5.547
MS.198         	15.822         	5.559
MS.199         	15.792         	5.541
MS.200         	15.76          	5.547
MS.201         	15.73          	5.573
MS.202         	15.697         	5.521
MS.203         	15.667         	5.519
MS.204         	15.635         	5.507
MS.205         	15.602         	5.487
MS.206         	15.572         	5.517
MS.207         	15.542         	5.559
MS.208         	15.51          	5.537
MS.209         	15.48          	5.483
MS.210         	15.447         	5.535
MS.211         	15.417         	5.559
MS.212         	15.387         	5.501
MS.213         	15.355         	5.499
MS.214         	15.325         	5.493
MS.215         	15.295         	5.521
MS.216         	15.265         	5.515
MS.217         	15.233         	5.503
MS.218         	15.202         	5.513
MS.219         	15.172         	5.497
MS.220         	15.142         	5.495
MS.221         	15.112         	5.523
MS.222         	15.082         	5.505
MS.223         	15.052         	5.44
MS.224         	15.023         	5.428
MS.225         	14.992         	5.499
MS.226         	14.962         	5.479
MS.227         	14.932         	5.497
MS.228         	14.902         	5.483
MS.229         	14.872         	5.523
MS.230         	14.842         	5.507
MS.231         	14.812         	5.438
MS.232         	14.782         	5.485
MS.233         	14.755         	5.489
MS.234         	14.725         	5.452
MS.235         	14.695         	5.481
MS.236         	14.665         	5.46
MS.237         	14.637         	5.521
MS.238         	14.608         	5.47
MS.239         	14.577         	5.501
MS.240         	14.55          	5.468
MS.241         	14.52          	5.491
MS.242         	14.49          	5.497
MS.243         	14.462         	5.464
MS.244         	14.432         	5.513
MS.245         	14.405         	5.452
MS.246         	14.375         	5.481
MS.247         	14.347         	5.491
MS.248         	14.318         	5.483
MS.249         	14.29          	5.46
MS.250         	14.26          	5.497
MS.251         	14.233         	5.509
MS.252         	14.205         	5.47
MS.253         	14.175         	5.487
MS.254         	14.148         	5.462
MS.255         	14.12          	5.499
MS.256         	14.09          	5.481
MS.257         	14.062         	5.479
MS.258         	14.035         	5.446
MS.259         	14.007         	5.41
MS.260         	13.977         	5.404
MS.261         	13.95          	5.4
MS.262         	13.922         	5.434
MS.263         	13.895         	5.474
MS.264         	13.867         	5.493
MS.265         	13.84          	5.479
MS.266         	13.812         	5.456
MS.267         	13.785         	5.517
MS.268         	13.757         	5.418
MS.269         	13.73          	5.519
MS.270         	13.702         	5.458
MS.271         	13.675         	5.456
MS.272         	13.648         	5.446
MS.273         	13.62          	5.42
MS.274         	13.592         	5.434
MS.275         	13.565         	5.45
MS.276         	13.537         	5.408
MS.277         	13.51          	5.444
MS.278         	13.485         	5.448
MS.279         	13.457         	5.408
MS.280         	13.43          	5.35
MS.281         	13.403         	5.325
MS.282         	13.377         	5.36
MS.283         	13.35          	5.362
MS.284         	13.322         	5.344
MS.285         	13.297         	5.366
MS.286         	13.27          	5.285
MS.287         	13.242         	5.436
MS.288         	13.217         	5.327
MS.289         	13.19          	5.303
MS.290         	13.165         	5.297
MS.291         	13.137         	5.283
MS.292         	13.112         	5.271
MS.293         	13.085         	5.213
MS.294         	13.06          	5.271
MS.295         	13.032         	5.291
MS.296         	13.007         	5.285
MS.297         	12.983         	5.239
MS.298         	12.955         	5.166
MS.299         	12.93          	5.301
MS.300         	12.903         	5.138
MS.301         	12.877         	5.203
MS.302         	12.852         	5.182
MS.303         	12.827         	5.12
MS.304         	12.8           	5.054
MS.305         	12.775         	5.12
MS.306         	12.75          	5.058
MS.307         	12.725         	5.088
MS.308         	12.7           	5.178
MS.309         	12.672         	5.128
MS.310         	12.648         	5.06
MS.311         	12.622         	5.094
MS.312         	12.597         	4.975
MS.313         	12.572         	5.07
MS.314         	12.547         	5.06
MS.315         	12.523         	5.064
MS.316         	12.497         	4.941
MS.317         	12.472         	5.049
MS.318         	12.447         	5.104
MS.319         	12.422         	5.138
MS.320         	12.398         	5.027
MS.321         	12.372         	4.985
MS.322         	12.347         	5.1
MS.323         	12.322         	5.003
MS.324         	12.3           	4.923
MS.325         	12.275         	5.052
MS.326         	12.25          	4.9
MS.327         	12.225         	5.084
MS.328         	12.2           	4.925
MS.329         	12.177         	5.009
MS.330         	12.153         	4.902
MS.331         	12.127         	4.911
MS.332         	12.102         	4.939
MS.333         	12.08          	4.852
MS.334         	12.055         	4.854
MS.335         	12.032         	4.759
MS.336         	12.007         	4.836
MS.337         	11.983         	4.888
MS.338         	11.96          	4.961
MS.339         	11.935         	4.778
MS.340         	11.912         	4.842
MS.341         	11.887         	4.812
MS.342         	11.865         	4.719
MS.343         	11.84          	4.751
MS.344         	11.818         	4.778
MS.345         	11.792         	4.61
MS.346         	11.77          	4.759
MS.347         	11.745         	4.568
MS.348         	11.722         	4.733
MS.349         	11.7           	4.649
MS.350         	11.675         	4.61
MS.351         	11.653         	4.657
MS.352         	11.63          	4.568
MS.353         	11.605         	4.498
MS.354         	11.582         	4.554
MS.355         	11.56          	4.616
MS.356         	11.537         	4.51
MS.357         	11.512         	4.608
MS.358         	11.49          	4.411
MS.359         	11.467         	4.568
MS.360         	11.445         	4.361
MS.361         	11.422         	4.353
MS.362         	11.4           	4.614
MS.363         	11.375         	4.218
MS.364         	11.352         	4.371
MS.365         	11.33          	4.339
MS.366         	11.307         	4.322
MS.367         	11.285         	4.391
MS.368         	11.262         	4.355
MS.369         	11.24          	4.27
MS.370         	11.217         	4.351
MS.371         	11.195         	4.347
MS.372         	11.172         	4.322
MS.373         	11.15          	4.32
MS.374         	11.127         	4.155
MS.375         	11.108         	4.151
MS.376         	11.085         	4.377
MS.377         	11.062         	4.161
MS.378         	11.04          	4.131
MS.379         	11.017         	4.224
MS.380         	10.995         	4.121
MS.381         	10.975         	4.163
MS.382         	10.952         	4.061
MS.383         	10.93          	4.057
MS.384         	10.907         	4.028
MS.385         	10.887         	4.004
MS.386         	10.865         	3.998
MS.387         	10.842         	3.936
MS.388         	10.82          	4.034
MS.389         	10.8           	3.918
MS.390         	10.778         	3.847
MS.391         	10.757         	3.924
MS.392         	10.735         	4.018
MS.393         	10.712         	3.76
MS.394         	10.693         	3.885
MS.395         	10.67          	3.732
MS.396         	10.65          	3.859
MS.397         	10.627         	3.809
MS.398         	10.608         	3.736
MS.399         	10.585         	3.557
MS.400         	10.565         	3.615
MS.401         	10.542         	3.682
MS.402         	10.523         	3.732
MS.403         	10.502         	3.587
MS.404         	10.48          	3.482
MS.405         	10.46          	3.454
MS.406         	10.438         	3.428
MS.407         	10.417         	3.63
MS.408         	10.398         	3.466
MS.409         	10.375         	3.577
MS.410         	10.355         	3.501
MS.411         	10.335         	3.611
MS.412         	10.315         	3.474
MS.413         	10.292         	3.368
MS.414         	10.273         	3.366
MS.415         	10.252         	3.354
MS.416         	10.233         	3.364
MS.417         	10.212         	3.295
MS.418         	10.19          	3.418
MS.419         	10.17          	3.221
MS.420         	10.15          	3.36
MS.421         	10.13          	3.237
MS.422         	10.11          	3.388
MS.423         	10.09          	3.213
MS.424         	10.07          	3.207
MS.425         	10.05          	3.305
MS.426         	10.03          	3.084
MS.427         	10.01          	3.124
MS.428         	9.99           	3.225
MS.429         	9.97           	3.172
MS.430         	9.95           	3.102
MS.431         	9.93           	3.045
MS.432         	9.91           	3.13
MS.433         	9.89           	3.033
MS.434         	9.87           	2.949
MS.435         	9.85           	2.943
MS.436         	9.83           	3.027
MS.437         	9.81           	2.933
MS.438         	9.792          	3.029
MS.439         	9.773          	2.894
MS.440         	9.752          	2.931
MS.441         	9.733          	2.868
MS.442         	9.712          	2.81
MS.443         	9.695          	2.898
MS.444         	9.675          	2.808
MS.445         	9.655          	2.83
MS.446         	9.635          	2.818
MS.447         	9.617          	2.725
MS.448         	9.597          	2.741
MS.449         	9.577          	2.689
MS.450         	9.56           	2.612
MS.451         	9.54           	2.701
MS.452         	9.52           	2.582
MS.453         	9.502          	2.695
MS.454         	9.483          	2.586
MS.455         	9.465          	2.498
MS.456         	9.445          	2.645
MS.457         	9.427          	2.649
MS.458         	9.407          	2.572
MS.459         	9.387          	2.429
MS.460         	9.37           	2.526
MS.461         	9.352          	2.568
MS.462         	9.332          	2.475
MS.463         	9.315          	2.439
MS.464         	9.295          	2.433
MS.465         	9.278          	2.433
MS.466         	9.257          	2.411
MS.467         	9.24           	2.411
MS.468         	9.222          	2.336
MS.469         	9.202          	2.365
MS.470         	9.185          	2.288
MS.471         	9.165          	2.31
MS.472         	9.148          	2.409
MS.473         	9.13           	2.351
MS.474         	9.113          	2.375
MS.475         	9.092          	2.413
MS.476         	9.075          	2.236
MS.477         	9.057          	2.24
MS.478         	9.037          	2.318
MS.479         	9.02           	2.284
MS.480         	9.002          	2.203
MS.481         	8.985          	2.117
MS.482         	8.967          	2.183
MS.483         	8.948          	2.097
MS.484         	8.93           	2.085
MS.485         	8.912          	1.992
MS.486         	8.895          	2.05
MS.487         	8.877          	2.143
MS.488         	8.86           	2.014
MS.489         	8.842          	2.087
MS.490         	8.825          	2.062
MS.491         	8.807          	1.839
MS.492         	8.79           	1.855
MS.493         	8.773          	1.887
MS.494         	8.755          	1.849
MS.495         	8.738          	1.795
MS.496         	8.72           	1.809
MS.497         	8.702          	1.93
MS.498         	8.685          	1.716
MS.499         	8.667          	1.694
MS.500         	8.65           	1.688
