File:              	C:\Qtrac\Data\Daniel M Sørensen\MScan multicentre study\Data from centres\Roskilde\Folders with NC-examinations\ROS_N10a\MBC00616A.QZD
Name:              	DK.ROS.NC.10.1
Protocol:          	MSCAN-R2
Date:              	16/6/20
Start time:        	18:08:42
Age:               	44
Sex:               	f
Temperature:       	36.1
S/R sites:         	Median Wr-APB
NC/disease:        	NC
Operator:          	MB
Comments:
M-SCAN DATA (6.5-1.2m)
Scanpts: 89, 93, 432, 442
Stim. (mA)     	Amp. (mV)
MS.1           	12             	7.789
MS.2           	12             	7.789
MS.3           	12             	7.781
MS.4           	12             	7.744
MS.5           	12             	7.724
MS.6           	12             	7.734
MS.7           	12             	7.755
MS.8           	12             	7.736
MS.9           	12             	7.746
MS.10          	12             	7.746
MS.11          	12             	7.74
MS.12          	12             	7.728
MS.13          	12             	7.724
MS.14          	12             	7.73
MS.15          	12             	7.714
MS.16          	12             	7.706
MS.17          	12             	7.706
MS.18          	12             	7.704
MS.19          	12             	7.694
MS.20          	12             	7.702
MS.21          	12             	7.694
MS.22          	12             	7.69
MS.23          	12             	7.674
MS.24          	11.952         	7.674
MS.25          	11.927         	7.666
MS.26          	11.905         	7.67
MS.27          	11.88          	7.678
MS.28          	11.858         	7.68
MS.29          	11.832         	7.67
MS.30          	11.81          	7.662
MS.31          	11.785         	7.678
MS.32          	11.762         	7.68
MS.33          	11.74          	7.658
MS.34          	11.715         	7.664
MS.35          	11.693         	7.662
MS.36          	11.667         	7.65
MS.37          	11.645         	7.658
MS.38          	11.622         	7.66
MS.39          	11.6           	7.656
MS.40          	11.575         	7.666
MS.41          	11.552         	7.676
MS.42          	11.53          	7.67
MS.43          	11.507         	7.656
MS.44          	11.483         	7.668
MS.45          	11.46          	7.678
MS.46          	11.438         	7.68
MS.47          	11.415         	7.672
MS.48          	11.392         	7.676
MS.49          	11.37          	7.662
MS.50          	11.347         	7.664
MS.51          	11.325         	7.65
MS.52          	11.3           	7.646
MS.53          	11.278         	7.646
MS.54          	11.255         	7.648
MS.55          	11.233         	7.644
MS.56          	11.21          	7.64
MS.57          	11.188         	7.65
MS.58          	11.167         	7.65
MS.59          	11.145         	7.654
MS.60          	11.122         	7.658
MS.61          	11.1           	7.654
MS.62          	11.077         	7.662
MS.63          	11.055         	7.654
MS.64          	11.032         	7.652
MS.65          	11.01          	7.65
MS.66          	10.99          	7.646
MS.67          	10.967         	7.636
MS.68          	10.945         	7.646
MS.69          	10.922         	7.656
MS.70          	10.903         	7.678
MS.71          	10.88          	7.67
MS.72          	10.858         	7.696
MS.73          	10.837         	7.718
MS.74          	10.815         	7.716
MS.75          	10.792         	7.71
MS.76          	10.773         	7.71
MS.77          	10.75          	7.7
MS.78          	10.727         	7.732
MS.79          	10.707         	7.736
MS.80          	10.685         	7.736
MS.81          	10.665         	7.73
MS.82          	10.642         	7.736
MS.83          	10.622         	7.716
MS.84          	10.6           	7.726
MS.85          	10.58          	7.686
MS.86          	10.557         	7.714
MS.87          	10.537         	7.718
MS.88          	10.515         	7.712
MS.89          	10.495         	7.702
MS.90          	10.475         	7.71
MS.91          	10.452         	7.692
MS.92          	10.432         	7.694
MS.93          	10.412         	7.706
MS.94          	10.39          	7.696
MS.95          	10.37          	7.71
MS.96          	10.35          	7.71
MS.97          	10.327         	7.513
MS.98          	10.307         	7.694
MS.99          	10.287         	7.718
MS.100         	10.267         	7.547
MS.101         	10.245         	7.567
MS.102         	10.225         	7.742
MS.103         	10.205         	7.698
MS.104         	10.185         	7.557
MS.105         	10.165         	7.72
MS.106         	10.145         	7.565
MS.107         	10.125         	7.573
MS.108         	10.102         	7.815
MS.109         	10.082         	7.626
MS.110         	10.062         	7.603
MS.111         	10.042         	7.767
MS.112         	10.023         	7.583
MS.113         	10.002         	7.628
MS.114         	9.983          	7.605
MS.115         	9.962          	7.618
MS.116         	9.943          	7.636
MS.117         	9.922          	7.636
MS.118         	9.903          	7.634
MS.119         	9.885          	7.668
MS.120         	9.865          	7.692
MS.121         	9.845          	7.668
MS.122         	9.825          	7.672
MS.123         	9.805          	7.726
MS.124         	9.785          	7.791
MS.125         	9.765          	7.702
MS.126         	9.747          	7.704
MS.127         	9.727          	7.71
MS.128         	9.707          	7.724
MS.129         	9.688          	7.738
MS.130         	9.67           	7.732
MS.131         	9.65           	7.664
MS.132         	9.63           	7.72
MS.133         	9.61           	7.714
MS.134         	9.592          	7.72
MS.135         	9.573          	7.654
MS.136         	9.552          	7.714
MS.137         	9.535          	7.726
MS.138         	9.515          	7.714
MS.139         	9.497          	7.668
MS.140         	9.477          	7.676
MS.141         	9.457          	7.69
MS.142         	9.44           	7.738
MS.143         	9.42           	7.694
MS.144         	9.403          	7.682
MS.145         	9.382          	7.688
MS.146         	9.365          	7.676
MS.147         	9.345          	7.674
MS.148         	9.327          	7.684
MS.149         	9.307          	7.662
MS.150         	9.29           	7.575
MS.151         	9.27           	7.567
MS.152         	9.252          	7.678
MS.153         	9.235          	7.559
MS.154         	9.215          	7.559
MS.155         	9.198          	7.646
MS.156         	9.18           	7.547
MS.157         	9.16           	7.547
MS.158         	9.142          	7.531
MS.159         	9.125          	7.539
MS.160         	9.105          	7.529
MS.161         	9.087          	7.525
MS.162         	9.07           	7.454
MS.163         	9.052          	7.354
MS.164         	9.033          	7.531
MS.165         	9.015          	7.257
MS.166         	8.997          	7.535
MS.167         	8.98           	7.35
MS.168         	8.96           	7.265
MS.169         	8.943          	7.458
MS.170         	8.925          	7.438
MS.171         	8.908          	7.444
MS.172         	8.89           	7.442
MS.173         	8.872          	7.251
MS.174         	8.855          	7.444
MS.175         	8.837          	7.249
MS.176         	8.82           	7.211
MS.177         	8.802          	7.452
MS.178         	8.783          	7.205
MS.179         	8.765          	7.207
MS.180         	8.747          	7.235
MS.181         	8.73           	7.283
MS.182         	8.715          	7.37
MS.183         	8.698          	7.366
MS.184         	8.68           	7.299
MS.185         	8.662          	7.291
MS.186         	8.645          	7.285
MS.187         	8.627          	7.33
MS.188         	8.61           	7.277
MS.189         	8.592          	7.259
MS.190         	8.575          	7.239
MS.191         	8.557          	7.241
MS.192         	8.54           	7.239
MS.193         	8.525          	7.416
MS.194         	8.507          	7.229
MS.195         	8.49           	7.154
MS.196         	8.472          	7.174
MS.197         	8.455          	7.114
MS.198         	8.44           	7.178
MS.199         	8.422          	7.144
MS.200         	8.405          	7.046
MS.201         	8.39           	6.991
MS.202         	8.372          	6.866
MS.203         	8.355          	7.046
MS.204         	8.337          	6.903
MS.205         	8.323          	7.092
MS.206         	8.305          	7.027
MS.207         	8.29           	6.862
MS.208         	8.273          	6.929
MS.209         	8.255          	7.029
MS.210         	8.24           	7.033
MS.211         	8.222          	6.903
MS.212         	8.207          	6.85
MS.213         	8.19           	6.693
MS.214         	8.172          	6.826
MS.215         	8.158          	6.711
MS.216         	8.14           	6.669
MS.217         	8.125          	6.685
MS.218         	8.108          	6.526
MS.219         	8.092          	6.562
MS.220         	8.075          	6.615
MS.221         	8.06           	6.675
MS.222         	8.045          	6.617
MS.223         	8.028          	6.592
MS.224         	8.012          	6.621
MS.225         	7.995          	6.731
MS.226         	7.98           	6.528
MS.227         	7.965          	6.617
MS.228         	7.947          	6.546
MS.229         	7.932          	6.52
MS.230         	7.915          	6.469
MS.231         	7.9            	6.258
MS.232         	7.885          	6.641
MS.233         	7.87           	6.421
MS.234         	7.852          	6.326
MS.235         	7.837          	6.3
MS.236         	7.822          	6.333
MS.237         	7.805          	6.351
MS.238         	7.79           	6.292
MS.239         	7.775          	6.252
MS.240         	7.76           	5.998
MS.241         	7.745          	6.254
MS.242         	7.727          	6.238
MS.243         	7.712          	5.988
MS.244         	7.697          	6.133
MS.245         	7.682          	6.192
MS.246         	7.668          	6.028
MS.247         	7.652          	6.115
MS.248         	7.635          	5.7
MS.249         	7.62           	5.934
MS.250         	7.605          	5.791
MS.251         	7.59           	5.519
MS.252         	7.575          	5.531
MS.253         	7.56           	5.853
MS.254         	7.545          	5.287
MS.255         	7.53           	5.182
MS.256         	7.515          	5.428
MS.257         	7.5            	5.277
MS.258         	7.485          	5.43
MS.259         	7.47           	4.866
MS.260         	7.455          	5.211
MS.261         	7.44           	5.134
MS.262         	7.425          	4.745
MS.263         	7.41           	5.426
MS.264         	7.395          	4.842
MS.265         	7.38           	4.683
MS.266         	7.365          	4.737
MS.267         	7.352          	4.824
MS.268         	7.337          	4.647
MS.269         	7.322          	4.576
MS.270         	7.307          	4.582
MS.271         	7.293          	4.498
MS.272         	7.277          	4.689
MS.273         	7.265          	4.262
MS.274         	7.25           	4.417
MS.275         	7.235          	4.538
MS.276         	7.22           	4
MS.277         	7.205          	4.032
MS.278         	7.192          	4.29
MS.279         	7.177          	4.063
MS.280         	7.162          	3.988
MS.281         	7.148          	3.67
MS.282         	7.135          	3.827
MS.283         	7.12           	3.331
MS.284         	7.105          	3.545
MS.285         	7.092          	4.141
MS.286         	7.077          	3.676
MS.287         	7.062          	3.448
MS.288         	7.05           	3.388
MS.289         	7.035          	3.491
MS.290         	7.02           	3.424
MS.291         	7.007          	3.46
MS.292         	6.992          	3.442
MS.293         	6.98           	3.337
MS.294         	6.965          	3.388
MS.295         	6.95           	3.245
MS.296         	6.938          	3.466
MS.297         	6.922          	3.06
MS.298         	6.91           	3.267
MS.299         	6.895          	3.227
MS.300         	6.882          	3.009
MS.301         	6.867          	3.279
MS.302         	6.855          	2.798
MS.303         	6.84           	2.733
MS.304         	6.827          	2.548
MS.305         	6.812          	2.614
MS.306         	6.8            	2.353
MS.307         	6.787          	2.59
MS.308         	6.773          	2.226
MS.309         	6.76           	2.578
MS.310         	6.745          	2.254
MS.311         	6.733          	2.197
MS.312         	6.72           	2.27
MS.313         	6.705          	2.044
MS.314         	6.692          	2.31
MS.315         	6.677          	2.179
MS.316         	6.665          	2.155
MS.317         	6.652          	2.079
MS.318         	6.637          	1.972
MS.319         	6.625          	2.093
MS.320         	6.612          	2.097
MS.321         	6.6            	2.056
MS.322         	6.585          	1.662
MS.323         	6.572          	1.746
MS.324         	6.56           	1.793
MS.325         	6.547          	1.676
MS.326         	6.532          	1.48
MS.327         	6.52           	1.833
MS.328         	6.507          	1.541
MS.329         	6.495          	1.611
MS.330         	6.48           	1.432
MS.331         	6.467          	1.315
MS.332         	6.455          	1.48
MS.333         	6.442          	1.19
MS.334         	6.43           	1.009
MS.335         	6.418          	1.186
MS.336         	6.405          	1.078
MS.337         	6.39           	1.356
MS.338         	6.378          	1.271
MS.339         	6.365          	1.1
MS.340         	6.352          	0.989
MS.341         	6.34           	0.892
MS.342         	6.327          	0.89
MS.343         	6.315          	0.88
MS.344         	6.302          	0.856
MS.345         	6.29           	0.858
MS.346         	6.277          	0.808
MS.347         	6.265          	0.61
MS.348         	6.253          	0.657
MS.349         	6.24           	0.794
MS.350         	6.227          	0.709
MS.351         	6.215          	0.705
MS.352         	6.202          	0.566
MS.353         	6.19           	0.55
MS.354         	6.177          	0.461
MS.355         	6.165          	0.622
MS.356         	6.152          	0.566
MS.357         	6.14           	0.6
MS.358         	6.128          	0.425
MS.359         	6.115          	0.447
MS.360         	6.102          	0.465
MS.361         	6.092          	0.552
MS.362         	6.08           	0.246
MS.363         	6.067          	0.405
MS.364         	6.055          	0.387
MS.365         	6.043          	0.457
MS.366         	6.03           	0.389
MS.367         	6.02           	0.189
MS.368         	6.007          	0.419
MS.369         	5.995          	0.389
MS.370         	5.983          	0.308
MS.371         	5.97           	0.22
MS.372         	5.96           	0.306
MS.373         	5.947          	0.179
MS.374         	5.935          	0.165
MS.375         	5.922          	0.258
MS.376         	5.912          	0.322
MS.377         	5.9            	0.147
MS.378         	5.887          	0.097
MS.379         	5.875          	0.189
MS.380         	5.865          	0.129
MS.381         	5.852          	0.216
MS.382         	5.84           	0.044
MS.383         	5.83           	0.177
MS.384         	5.817          	0.056
MS.385         	5.805          	0.068
MS.386         	5.795          	0.143
MS.387         	5.782          	0.099
MS.388         	5.773          	0.028
MS.389         	5.76           	0.042
MS.390         	5.747          	0.06
MS.391         	5.737          	0.075
MS.392         	5.725          	-0.002
MS.393         	5.715          	0.093
MS.394         	5.702          	0.103
MS.395         	5.69           	0.073
MS.396         	5.68           	0.028
MS.397         	5.668          	-0.004
MS.398         	5.657          	0.177
MS.399         	5.645          	0.012
MS.400         	5.635          	0.032
MS.401         	5.622          	0.068
MS.402         	5.612          	0.028
MS.403         	5.6            	0.006
MS.404         	5.59           	-0.014
MS.405         	5.577          	-0.016
MS.406         	5.567          	0.018
MS.407         	5.555          	0.032
MS.408         	5.545          	0.02
MS.409         	5.535          	-0.012
MS.410         	5.523          	-0.016
MS.411         	5.512          	-0.004
MS.412         	5.5            	-0.016
MS.413         	5.49           	-0.014
MS.414         	5.48           	0.024
MS.415         	5.467          	-0.018
MS.416         	5.457          	-0.014
MS.417         	5.445          	0.004
MS.418         	5.435          	-0.014
MS.419         	5.425          	-0.016
MS.420         	5.412          	-0.014
MS.421         	5.402          	-0.012
MS.422         	5.392          	-0.014
MS.423         	5.38           	-0.018
MS.424         	5.37           	-0.018
MS.425         	5.36           	-0.01
MS.426         	5.35           	-0.014
MS.427         	5.338          	-0.018
MS.428         	5.327          	-0.016
MS.429         	5.318          	-0.012
MS.430         	5.307          	-0.014
MS.431         	5.295          	-0.014
MS.432         	5.285          	-0.018
MS.433         	5.275          	-0.014
MS.434         	5.265          	-0.012
MS.435         	5.253          	-0.014
MS.436         	5.242          	-0.012
MS.437         	5.233          	-0.012
MS.438         	5.222          	-0.014
MS.439         	5.213          	-0.014
MS.440         	5.202          	-0.018
MS.441         	5.19           	-0.012
MS.442         	5.18           	-0.014
MS.443         	5.17           	-0.014
MS.444         	5.16           	-0.012
MS.445         	5.15           	-0.018
MS.446         	5.14           	-0.018
MS.447         	5.13           	-0.014
MS.448         	5.117          	-0.014
MS.449         	5.108          	-0.012
MS.450         	5.097          	-0.016
MS.451         	5.088          	-0.018
MS.452         	5.077          	-0.01
MS.453         	5.068          	-0.016
MS.454         	5.057          	-0.01
MS.455         	5.047          	-0.016
MS.456         	5.037          	-0.016
MS.457         	5.027          	-0.014
MS.458         	5.017          	-0.018
MS.459         	5.007          	-0.014
MS.460         	4.997          	-0.014
MS.461         	4.987          	-0.008
MS.462         	4.977          	-0.014
MS.463         	4.967          	-0.004
MS.464         	4.957          	-0.012
MS.465         	4.947          	-0.014
MS.466         	4.938          	-0.012
MS.467         	4.927          	-0.01
MS.468         	4.918          	-0.008
MS.469         	4.907          	-0.016
MS.470         	4.898          	-0.014
MS.471         	4.887          	-0.016
MS.472         	4.88           	-0.01
MS.473         	4.87           	-0.018
MS.474         	4.86           	-0.018
MS.475         	4.85           	-0.01
MS.476         	4.84           	-0.014
MS.477         	4.83           	-0.012
MS.478         	4.82           	-0.01
MS.479         	4.81           	0.01
MS.480         	4.802          	-0.014
MS.481         	4.793          	-0.014
MS.482         	4.782          	-0.012
MS.483         	4.773          	-0.018
MS.484         	4.762          	-0.014
MS.485         	4.753          	-0.012
MS.486         	4.745          	-0.014
MS.487         	4.735          	-0.01
MS.488         	4.725          	-0.006
MS.489         	4.715          	-0.012
MS.490         	4.707          	-0.008
MS.491         	4.697          	0.024
MS.492         	4.688          	-0.012
MS.493         	4.677          	-0.004
MS.494         	4.67           	-0.01
MS.495         	4.66           	0.004
MS.496         	4.65           	-0.004
MS.497         	4.64           	-0.002
MS.498         	4.632          	0.008
MS.499         	4.622          	0.01
