File:              	C:\Qtrac\Data\Daniel M Sørensen\MScan multicentre study\Data from centres\Roskilde\Folders with NC-examinations\ROS_N4b\MBC00408B.QZD
Name:              	DK.ROS.NC.4.2
Protocol:          	MSCAN-R2
Date:              	8/4/20
Start time:        	10:16:19
Age:               	41
Sex:               	1
Temperature:       	34.9
S/R sites:         	ulnar Wr-ADM
NC/disease:        	NC
Operator:          	MB
Comments:
M-SCAN DATA (6.9-1.3m)
Scanpts: 132, 140, 580, 601
Stim. (mA)     	Amp. (mV)
MS.1           	25.5           	10.695
MS.2           	25.5           	10.711
MS.3           	25.5           	10.735
MS.4           	25.5           	10.756
MS.5           	25.5           	10.756
MS.6           	25.5           	10.778
MS.7           	25.5           	10.802
MS.8           	25.5           	10.818
MS.9           	25.5           	10.798
MS.10          	25.5           	10.824
MS.11          	25.5           	10.852
MS.12          	25.5           	10.862
MS.13          	25.5           	10.856
MS.14          	25.5           	10.895
MS.15          	25.5           	10.901
MS.16          	25.5           	10.891
MS.17          	25.5           	10.927
MS.18          	25.5           	10.957
MS.19          	25.5           	10.965
MS.20          	25.5           	10.973
MS.21          	25.5           	10.963
MS.22          	25.5           	10.953
MS.23          	25.5           	10.969
MS.24          	25.397         	10.961
MS.25          	25.347         	10.957
MS.26          	25.297         	10.947
MS.27          	25.245         	10.965
MS.28          	25.195         	10.971
MS.29          	25.145         	10.953
MS.30          	25.095         	10.995
MS.31          	25.045         	10.983
MS.32          	24.995         	10.987
MS.33          	24.945         	11.005
MS.34          	24.895         	11.009
MS.35          	24.845         	11.003
MS.36          	24.795         	11.021
MS.37          	24.747         	11.038
MS.38          	24.698         	11.036
MS.39          	24.647         	11.042
MS.40          	24.597         	11.038
MS.41          	24.55          	11.04
MS.42          	24.5           	11.07
MS.43          	24.45          	11.036
MS.44          	24.403         	11.028
MS.45          	24.352         	11.06
MS.46          	24.305         	11.056
MS.47          	24.257         	11.058
MS.48          	24.207         	11.026
MS.49          	24.16          	11.084
MS.50          	24.11          	11.056
MS.51          	24.062         	11.1
MS.52          	24.015         	11.086
MS.53          	23.967         	11.098
MS.54          	23.92          	11.094
MS.55          	23.87          	11.116
MS.56          	23.823         	11.134
MS.57          	23.775         	11.128
MS.58          	23.727         	11.116
MS.59          	23.68          	11.136
MS.60          	23.632         	11.14
MS.61          	23.587         	11.144
MS.62          	23.54          	11.148
MS.63          	23.493         	11.15
MS.64          	23.445         	11.15
MS.65          	23.397         	11.136
MS.66          	23.352         	11.114
MS.67          	23.305         	11.134
MS.68          	23.257         	11.146
MS.69          	23.212         	11.13
MS.70          	23.165         	11.162
MS.71          	23.12          	11.134
MS.72          	23.073         	11.177
MS.73          	23.028         	11.171
MS.74          	22.98          	11.154
MS.75          	22.935         	11.158
MS.76          	22.89          	11.169
MS.77          	22.842         	11.162
MS.78          	22.797         	11.154
MS.79          	22.752         	11.181
MS.80          	22.707         	11.199
MS.81          	22.663         	11.203
MS.82          	22.618         	11.193
MS.83          	22.57          	11.207
MS.84          	22.525         	11.223
MS.85          	22.48          	11.197
MS.86          	22.435         	11.164
MS.87          	22.392         	11.169
MS.88          	22.347         	11.171
MS.89          	22.302         	11.183
MS.90          	22.257         	11.181
MS.91          	22.212         	11.205
MS.92          	22.167         	11.201
MS.93          	22.125         	11.173
MS.94          	22.08          	11.223
MS.95          	22.035         	11.225
MS.96          	21.993         	11.199
MS.97          	21.948         	11.215
MS.98          	21.905         	11.209
MS.99          	21.86          	11.199
MS.100         	21.817         	11.195
MS.101         	21.772         	11.239
MS.102         	21.73          	11.201
MS.103         	21.685         	11.205
MS.104         	21.642         	11.189
MS.105         	21.6           	11.152
MS.106         	21.557         	11.169
MS.107         	21.512         	11.209
MS.108         	21.47          	11.185
MS.109         	21.427         	11.183
MS.110         	21.385         	11.156
MS.111         	21.342         	11.239
MS.112         	21.3           	11.201
MS.113         	21.257         	11.213
MS.114         	21.215         	11.203
MS.115         	21.172         	11.241
MS.116         	21.13          	11.201
MS.117         	21.087         	11.245
MS.118         	21.045         	11.255
MS.119         	21.002         	11.233
MS.120         	20.96          	11.273
MS.121         	20.92          	11.227
MS.122         	20.877         	11.189
MS.123         	20.835         	11.221
MS.124         	20.795         	11.253
MS.125         	20.752         	11.217
MS.126         	20.71          	11.259
MS.127         	20.67          	11.225
MS.128         	20.627         	11.247
MS.129         	20.587         	11.271
MS.130         	20.545         	11.219
MS.131         	20.505         	11.211
MS.132         	20.465         	11.237
MS.133         	20.422         	11.205
MS.134         	20.382         	11.217
MS.135         	20.342         	11.215
MS.136         	20.3           	11.205
MS.137         	20.26          	11.223
MS.138         	20.22          	11.209
MS.139         	20.18          	11.247
MS.140         	20.14          	11.261
MS.141         	20.1           	11.211
MS.142         	20.06          	11.175
MS.143         	20.02          	11.203
MS.144         	19.98          	11.241
MS.145         	19.94          	11.243
MS.146         	19.9           	11.289
MS.147         	19.86          	11.187
MS.148         	19.82          	11.229
MS.149         	19.78          	11.289
MS.150         	19.74          	11.257
MS.151         	19.7           	11.271
MS.152         	19.663         	11.243
MS.153         	19.622         	11.346
MS.154         	19.583         	11.223
MS.155         	19.545         	11.289
MS.156         	19.505         	11.237
MS.157         	19.465         	11.307
MS.158         	19.427         	11.322
MS.159         	19.387         	11.187
MS.160         	19.35          	11.324
MS.161         	19.31          	11.312
MS.162         	19.272         	11.289
MS.163         	19.235         	11.307
MS.164         	19.195         	11.265
MS.165         	19.157         	11.334
MS.166         	19.12          	11.032
MS.167         	19.08          	11.126
MS.168         	19.042         	11.332
MS.169         	19.005         	11.243
MS.170         	18.967         	11.048
MS.171         	18.927         	11.352
MS.172         	18.89          	11.39
MS.173         	18.852         	11.062
MS.174         	18.815         	11.05
MS.175         	18.778         	11.052
MS.176         	18.74          	11.066
MS.177         	18.702         	11.092
MS.178         	18.665         	11.076
MS.179         	18.628         	11.078
MS.180         	18.59          	11.044
MS.181         	18.555         	11.066
MS.182         	18.517         	11.054
MS.183         	18.48          	11.058
MS.184         	18.442         	11.122
MS.185         	18.405         	11.106
MS.186         	18.37          	11.056
MS.187         	18.333         	11.015
MS.188         	18.295         	11.142
MS.189         	18.26          	11.062
MS.190         	18.222         	10.917
MS.191         	18.188         	11.001
MS.192         	18.15          	10.687
MS.193         	18.115         	11.064
MS.194         	18.077         	10.951
MS.195         	18.042         	10.729
MS.196         	18.005         	11.023
MS.197         	17.97          	10.977
MS.198         	17.932         	10.953
MS.199         	17.897         	10.923
MS.200         	17.862         	10.592
MS.201         	17.827         	10.887
MS.202         	17.79          	10.596
MS.203         	17.755         	10.677
MS.204         	17.72          	10.574
MS.205         	17.685         	10.665
MS.206         	17.65          	10.488
MS.207         	17.612         	10.508
MS.208         	17.577         	10.494
MS.209         	17.542         	10.431
MS.210         	17.507         	10.276
MS.211         	17.472         	10.252
MS.212         	17.438         	10.427
MS.213         	17.403         	10.456
MS.214         	17.37          	10.371
MS.215         	17.335         	10.02
MS.216         	17.3           	10.117
MS.217         	17.265         	9.998
MS.218         	17.23          	9.932
MS.219         	17.195         	10.202
MS.220         	17.163         	9.982
MS.221         	17.128         	9.98
MS.222         	17.092         	9.867
MS.223         	17.06          	9.829
MS.224         	17.025         	9.583
MS.225         	16.99          	9.805
MS.226         	16.958         	9.821
MS.227         	16.922         	9.461
MS.228         	16.89          	9.61
MS.229         	16.855         	9.581
MS.230         	16.823         	9.513
MS.231         	16.788         	9.593
MS.232         	16.755         	9.527
MS.233         	16.72          	9.483
MS.234         	16.688         	9.535
MS.235         	16.655         	9.299
MS.236         	16.62          	9.16
MS.237         	16.587         	9.509
MS.238         	16.555         	9.442
MS.239         	16.522         	9.201
MS.240         	16.487         	9.402
MS.241         	16.455         	9.358
MS.242         	16.422         	9.013
MS.243         	16.39          	8.965
MS.244         	16.358         	9.179
MS.245         	16.325         	8.971
MS.246         	16.292         	8.816
MS.247         	16.26          	8.756
MS.248         	16.227         	8.945
MS.249         	16.195         	8.955
MS.250         	16.163         	8.88
MS.251         	16.13          	8.329
MS.252         	16.097         	8.596
MS.253         	16.065         	8.443
MS.254         	16.032         	8.323
MS.255         	16.003         	8.389
MS.256         	15.97          	8.123
MS.257         	15.938         	8.304
MS.258         	15.905         	8.004
MS.259         	15.875         	8.059
MS.260         	15.842         	7.972
MS.261         	15.81          	7.628
MS.262         	15.78          	7.728
MS.263         	15.747         	7.918
MS.264         	15.715         	7.698
MS.265         	15.685         	7.712
MS.266         	15.652         	7.597
MS.267         	15.622         	7.656
MS.268         	15.59          	7.577
MS.269         	15.56          	7.499
MS.270         	15.527         	7.334
MS.271         	15.497         	7.527
MS.272         	15.467         	7.436
MS.273         	15.435         	7.197
MS.274         	15.405         	7.372
MS.275         	15.375         	7.215
MS.276         	15.342         	6.846
MS.277         	15.312         	6.927
MS.278         	15.282         	6.76
MS.279         	15.252         	6.848
MS.280         	15.22          	6.546
MS.281         	15.19          	6.8
MS.282         	15.16          	6.562
MS.283         	15.13          	6.488
MS.284         	15.1           	6.451
MS.285         	15.07          	6.564
MS.286         	15.04          	6.381
MS.287         	15.01          	6.451
MS.288         	14.98          	6.355
MS.289         	14.95          	6.139
MS.290         	14.92          	6.057
MS.291         	14.89          	5.889
MS.292         	14.86          	5.73
MS.293         	14.83          	6.099
MS.294         	14.8           	5.585
MS.295         	14.77          	5.801
MS.296         	14.742         	5.974
MS.297         	14.712         	5.724
MS.298         	14.682         	5.897
MS.299         	14.652         	5.507
MS.300         	14.625         	5.442
MS.301         	14.595         	5.589
MS.302         	14.565         	5.489
MS.303         	14.537         	5.378
MS.304         	14.507         	5.607
MS.305         	14.477         	5.315
MS.306         	14.45          	5.084
MS.307         	14.42          	4.743
MS.308         	14.392         	4.761
MS.309         	14.362         	4.904
MS.310         	14.335         	4.955
MS.311         	14.305         	4.717
MS.312         	14.278         	4.727
MS.313         	14.25          	4.574
MS.314         	14.22          	4.637
MS.315         	14.193         	4.604
MS.316         	14.162         	4.443
MS.317         	14.135         	4.498
MS.318         	14.108         	4.343
MS.319         	14.08          	4.065
MS.320         	14.05          	4.22
MS.321         	14.023         	4.145
MS.322         	13.995         	4.036
MS.323         	13.967         	4.034
MS.324         	13.94          	4.177
MS.325         	13.91          	3.966
MS.326         	13.882         	3.994
MS.327         	13.855         	3.827
MS.328         	13.827         	3.636
MS.329         	13.8           	3.521
MS.330         	13.773         	3.517
MS.331         	13.745         	3.503
MS.332         	13.717         	3.585
MS.333         	13.69          	2.939
MS.334         	13.662         	3.48
MS.335         	13.635         	3.517
MS.336         	13.608         	3.291
MS.337         	13.58          	3.162
MS.338         	13.555         	3.243
MS.339         	13.528         	2.888
MS.340         	13.5           	2.9
MS.341         	13.472         	2.518
MS.342         	13.445         	2.5
MS.343         	13.42          	2.401
MS.344         	13.392         	2.596
MS.345         	13.365         	2.695
MS.346         	13.34          	2.898
MS.347         	13.312         	2.741
MS.348         	13.285         	2.566
MS.349         	13.26          	2.739
MS.350         	13.233         	2.562
MS.351         	13.205         	2.536
MS.352         	13.18          	2.566
MS.353         	13.153         	2.091
MS.354         	13.127         	2.258
MS.355         	13.1           	2.304
MS.356         	13.075         	2.153
MS.357         	13.047         	2.139
MS.358         	13.023         	2.123
MS.359         	12.997         	2.129
MS.360         	12.97          	2.111
MS.361         	12.945         	1.968
MS.362         	12.917         	1.678
MS.363         	12.892         	2.028
MS.364         	12.867         	1.905
MS.365         	12.842         	1.829
MS.366         	12.815         	1.839
MS.367         	12.79          	1.922
MS.368         	12.765         	1.795
MS.369         	12.74          	1.615
MS.370         	12.712         	1.722
MS.371         	12.688         	1.654
MS.372         	12.662         	1.259
MS.373         	12.637         	1.543
MS.374         	12.613         	1.279
MS.375         	12.587         	1.458
MS.376         	12.562         	1.164
MS.377         	12.537         	1.045
MS.378         	12.512         	1.192
MS.379         	12.488         	1.412
MS.380         	12.462         	1.265
MS.381         	12.438         	1.374
MS.382         	12.412         	1.086
MS.383         	12.387         	0.933
MS.384         	12.363         	1.243
MS.385         	12.337         	0.981
MS.386         	12.312         	0.832
MS.387         	12.287         	0.979
MS.388         	12.265         	0.79
MS.389         	12.24          	0.773
MS.390         	12.215         	0.981
MS.391         	12.19          	1.076
MS.392         	12.167         	0.848
MS.393         	12.142         	0.836
MS.394         	12.117         	0.822
MS.395         	12.092         	0.755
MS.396         	12.07          	0.693
MS.397         	12.045         	0.679
MS.398         	12.02          	0.675
MS.399         	11.997         	0.802
MS.400         	11.972         	0.816
MS.401         	11.95          	0.626
MS.402         	11.925         	0.683
MS.403         	11.903         	0.691
MS.404         	11.877         	0.643
MS.405         	11.855         	0.657
MS.406         	11.83          	0.594
MS.407         	11.807         	0.598
MS.408         	11.782         	0.582
MS.409         	11.76          	0.612
MS.410         	11.735         	0.673
MS.411         	11.712         	0.552
MS.412         	11.69          	0.586
MS.413         	11.665         	0.574
MS.414         	11.642         	0.616
MS.415         	11.62          	0.584
MS.416         	11.595         	0.568
MS.417         	11.572         	0.387
MS.418         	11.55          	0.548
MS.419         	11.528         	0.616
MS.420         	11.505         	0.51
MS.421         	11.48          	0.526
MS.422         	11.457         	0.52
MS.423         	11.435         	0.518
MS.424         	11.412         	0.316
MS.425         	11.39          	0.546
MS.426         	11.367         	0.576
MS.427         	11.345         	0.518
MS.428         	11.32          	0.314
MS.429         	11.297         	0.304
MS.430         	11.275         	0.314
MS.431         	11.252         	0.33
MS.432         	11.23          	0.512
MS.433         	11.207         	0.292
MS.434         	11.185         	0.536
MS.435         	11.165         	0.254
MS.436         	11.142         	0.294
MS.437         	11.12          	0.252
MS.438         	11.097         	0.254
MS.439         	11.075         	0.22
MS.440         	11.052         	0.244
MS.441         	11.03          	0.252
MS.442         	11.007         	0.266
MS.443         	10.988         	0.203
MS.444         	10.965         	0.497
MS.445         	10.943         	0.25
MS.446         	10.92          	0.234
MS.447         	10.9           	0.216
MS.448         	10.877         	0.185
MS.449         	10.855         	0.173
MS.450         	10.835         	0.203
MS.451         	10.812         	0.121
MS.452         	10.79          	0.189
MS.453         	10.77          	0.157
MS.454         	10.747         	0.159
MS.455         	10.725         	0.141
MS.456         	10.705         	0.211
MS.457         	10.682         	0.145
MS.458         	10.662         	0.121
MS.459         	10.64          	0.091
MS.460         	10.62          	0.141
MS.461         	10.597         	0.159
MS.462         	10.577         	0.095
MS.463         	10.555         	0.095
MS.464         	10.535         	0.064
MS.465         	10.512         	0.149
MS.466         	10.492         	0.097
MS.467         	10.472         	0.066
MS.468         	10.45          	0.085
MS.469         	10.43          	0.073
MS.470         	10.41          	0.079
MS.471         	10.387         	0.046
MS.472         	10.367         	0.083
MS.473         	10.347         	0.093
MS.474         	10.325         	0.073
MS.475         	10.305         	0.062
MS.476         	10.285         	0.097
MS.477         	10.265         	0.064
MS.478         	10.245         	0.05
MS.479         	10.222         	0.091
MS.480         	10.202         	0.052
MS.481         	10.182         	0.062
MS.482         	10.162         	0.056
MS.483         	10.142         	0.054
MS.484         	10.122         	0.032
MS.485         	10.102         	0.079
MS.486         	10.08          	0.048
MS.487         	10.06          	0.05
MS.488         	10.04          	0.058
MS.489         	10.02          	0.064
MS.490         	10             	0.06
MS.491         	9.98           	0.042
MS.492         	9.96           	0.04
MS.493         	9.94           	0.048
MS.494         	9.92           	0.052
