File:              	C:\Qtrac\Data\Daniel M Sørensen\MScan multicentre study\Data from centres\Roskilde\Folders with NC-examinations\ROS_N2b\TRC00310A.QZD
Name:              	DK.ROS.NC.2.2
Protocol:          	MSCAN-R2
Date:              	10/3/20
Start time:        	12:48:21
Age:               	54
Sex:               	M
Temperature:       	38,5
S/R sites:         	Median Wr-APB
NC/disease:        	NC
Operator:          	tr
Comments:
M-SCAN DATA (11.4-2.8m)
Scanpts: 356, 364, 752, 775
Stim. (mA)     	Amp. (mV)
MS.1           	16.5           	10.927
MS.2           	16.5           	10.911
MS.3           	16.5           	10.919
MS.4           	16.5           	10.887
MS.5           	16.5           	10.864
MS.6           	16.5           	10.866
MS.7           	16.5           	10.868
MS.8           	16.5           	10.872
MS.9           	16.5           	10.868
MS.10          	16.5           	10.874
MS.11          	16.5           	10.866
MS.12          	16.5           	10.852
MS.13          	16.5           	10.887
MS.14          	16.5           	10.878
MS.15          	16.5           	10.874
MS.16          	16.5           	10.868
MS.17          	16.5           	10.87
MS.18          	16.5           	10.86
MS.19          	16.5           	10.87
MS.20          	16.5           	10.87
MS.21          	16.5           	10.87
MS.22          	16.5           	10.87
MS.23          	16.5           	10.86
MS.24          	16.435         	10.866
MS.25          	16.4           	10.842
MS.26          	16.368         	10.85
MS.27          	16.335         	10.86
MS.28          	16.302         	10.85
MS.29          	16.27          	10.866
MS.30          	16.237         	10.86
MS.31          	16.205         	10.864
MS.32          	16.172         	10.876
MS.33          	16.14          	10.87
MS.34          	16.108         	10.866
MS.35          	16.077         	10.856
MS.36          	16.045         	10.866
MS.37          	16.012         	10.854
MS.38          	15.98          	10.86
MS.39          	15.947         	10.868
MS.40          	15.917         	10.862
MS.41          	15.885         	10.868
MS.42          	15.852         	10.85
MS.43          	15.822         	10.856
MS.44          	15.79          	10.848
MS.45          	15.757         	10.852
MS.46          	15.727         	10.848
MS.47          	15.695         	10.848
MS.48          	15.665         	10.842
MS.49          	15.632         	10.86
MS.50          	15.602         	10.854
MS.51          	15.57          	10.868
MS.52          	15.54          	10.866
MS.53          	15.507         	10.876
MS.54          	15.477         	10.872
MS.55          	15.445         	10.876
MS.56          	15.415         	10.858
MS.57          	15.385         	10.858
MS.58          	15.352         	10.864
MS.59          	15.322         	10.868
MS.60          	15.292         	10.862
MS.61          	15.262         	10.874
MS.62          	15.233         	10.878
MS.63          	15.2           	10.862
MS.64          	15.17          	10.88
MS.65          	15.14          	10.887
MS.66          	15.11          	10.866
MS.67          	15.08          	10.88
MS.68          	15.05          	10.868
MS.69          	15.02          	10.874
MS.70          	14.99          	10.885
MS.71          	14.96          	10.872
MS.72          	14.93          	10.891
MS.73          	14.9           	10.874
MS.74          	14.87          	10.878
MS.75          	14.84          	10.874
MS.76          	14.81          	10.876
MS.77          	14.78          	10.878
MS.78          	14.752         	10.878
MS.79          	14.722         	10.88
MS.80          	14.693         	10.876
MS.81          	14.662         	10.872
MS.82          	14.635         	10.885
MS.83          	14.605         	10.87
MS.84          	14.575         	10.878
MS.85          	14.547         	10.88
MS.86          	14.517         	10.86
MS.87          	14.487         	10.878
MS.88          	14.46          	10.862
MS.89          	14.43          	10.874
MS.90          	14.403         	10.87
MS.91          	14.372         	10.864
MS.92          	14.345         	10.887
MS.93          	14.315         	10.878
MS.94          	14.287         	10.88
MS.95          	14.257         	10.885
MS.96          	14.23          	10.878
MS.97          	14.202         	10.897
MS.98          	14.172         	10.883
MS.99          	14.145         	10.905
MS.100         	14.117         	10.88
MS.101         	14.087         	10.878
MS.102         	14.06          	10.889
MS.103         	14.032         	10.885
MS.104         	14.005         	10.897
MS.105         	13.975         	10.88
MS.106         	13.947         	10.885
MS.107         	13.92          	10.889
MS.108         	13.892         	10.895
MS.109         	13.865         	10.897
MS.110         	13.837         	10.889
MS.111         	13.81          	10.891
MS.112         	13.782         	10.893
MS.113         	13.755         	10.897
MS.114         	13.727         	10.897
MS.115         	13.7           	10.897
MS.116         	13.672         	10.909
MS.117         	13.645         	10.909
MS.118         	13.617         	10.907
MS.119         	13.59          	10.897
MS.120         	13.562         	10.899
MS.121         	13.535         	10.895
MS.122         	13.51          	10.899
MS.123         	13.483         	10.911
MS.124         	13.455         	10.905
MS.125         	13.427         	10.901
MS.126         	13.403         	10.907
MS.127         	13.375         	10.907
MS.128         	13.347         	10.905
MS.129         	13.32          	10.899
MS.130         	13.295         	10.909
MS.131         	13.267         	10.909
MS.132         	13.242         	10.919
MS.133         	13.215         	10.905
MS.134         	13.188         	10.899
MS.135         	13.162         	10.921
MS.136         	13.135         	10.911
MS.137         	13.11          	10.919
MS.138         	13.082         	10.901
MS.139         	13.057         	10.929
MS.140         	13.032         	10.915
MS.141         	13.005         	10.923
MS.142         	12.98          	10.907
MS.143         	12.952         	10.909
MS.144         	12.927         	10.919
MS.145         	12.903         	10.915
MS.146         	12.875         	10.917
MS.147         	12.85          	10.917
MS.148         	12.825         	10.929
MS.149         	12.8           	10.923
MS.150         	12.773         	10.913
MS.151         	12.747         	10.921
MS.152         	12.722         	10.913
MS.153         	12.697         	10.921
MS.154         	12.672         	10.923
MS.155         	12.645         	10.915
MS.156         	12.62          	10.923
MS.157         	12.595         	10.921
MS.158         	12.57          	10.927
MS.159         	12.545         	10.917
MS.160         	12.52          	10.911
MS.161         	12.495         	10.925
MS.162         	12.47          	10.923
MS.163         	12.445         	10.917
MS.164         	12.42          	10.939
MS.165         	12.395         	10.921
MS.166         	12.37          	10.929
MS.167         	12.347         	10.925
MS.168         	12.322         	10.923
MS.169         	12.297         	10.953
MS.170         	12.273         	10.941
MS.171         	12.247         	10.939
MS.172         	12.222         	10.931
MS.173         	12.2           	10.933
MS.174         	12.175         	10.947
MS.175         	12.15          	10.927
MS.176         	12.125         	10.939
MS.177         	12.102         	10.963
MS.178         	12.077         	10.951
MS.179         	12.052         	10.943
MS.180         	12.03          	10.941
MS.181         	12.005         	10.955
MS.182         	11.983         	10.947
MS.183         	11.957         	10.953
MS.184         	11.932         	10.969
MS.185         	11.91          	10.961
MS.186         	11.885         	10.949
MS.187         	11.863         	10.959
MS.188         	11.837         	10.955
MS.189         	11.815         	10.953
MS.190         	11.79          	10.997
MS.191         	11.767         	10.987
MS.192         	11.745         	11.009
MS.193         	11.72          	10.997
MS.194         	11.697         	10.995
MS.195         	11.675         	10.993
MS.196         	11.65          	10.987
MS.197         	11.627         	10.981
MS.198         	11.605         	11.013
MS.199         	11.58          	11.001
MS.200         	11.557         	11.019
MS.201         	11.535         	11.032
MS.202         	11.512         	11.023
MS.203         	11.488         	11.05
MS.204         	11.465         	11.068
MS.205         	11.443         	11.076
MS.206         	11.42          	11.048
MS.207         	11.398         	11.056
MS.208         	11.375         	11.072
MS.209         	11.352         	11.06
MS.210         	11.33          	11.038
MS.211         	11.307         	11.064
MS.212         	11.282         	11.076
MS.213         	11.26          	11.076
MS.214         	11.238         	11.09
MS.215         	11.215         	11.072
MS.216         	11.195         	11.054
MS.217         	11.172         	11.096
MS.218         	11.15          	11.126
MS.219         	11.127         	11.074
MS.220         	11.105         	11.102
MS.221         	11.082         	11.098
MS.222         	11.06          	11.112
MS.223         	11.037         	11.124
MS.224         	11.015         	11.132
MS.225         	10.995         	11.132
MS.226         	10.972         	11.108
MS.227         	10.95          	11.146
MS.228         	10.927         	11.138
MS.229         	10.907         	11.146
MS.230         	10.885         	11.146
MS.231         	10.863         	11.154
MS.232         	10.84          	11.152
MS.233         	10.82          	11.15
MS.234         	10.797         	11.154
MS.235         	10.778         	11.158
MS.236         	10.755         	11.173
MS.237         	10.733         	11.158
MS.238         	10.712         	11.175
MS.239         	10.69          	11.162
MS.240         	10.67          	11.156
MS.241         	10.648         	11.162
MS.242         	10.627         	11.183
MS.243         	10.605         	11.173
MS.244         	10.585         	11.187
MS.245         	10.562         	11.189
MS.246         	10.542         	11.173
MS.247         	10.52          	11.191
MS.248         	10.5           	11.197
MS.249         	10.48          	11.203
MS.250         	10.457         	11.183
MS.251         	10.438         	11.195
MS.252         	10.415         	11.185
MS.253         	10.395         	11.195
MS.254         	10.375         	11.199
MS.255         	10.355         	11.201
MS.256         	10.332         	11.193
MS.257         	10.312         	11.205
MS.258         	10.292         	11.211
MS.259         	10.273         	11.215
MS.260         	10.25          	11.209
MS.261         	10.23          	11.201
MS.262         	10.21          	11.197
MS.263         	10.19          	11.201
MS.264         	10.17          	11.205
MS.265         	10.15          	11.193
MS.266         	10.127         	11.203
MS.267         	10.108         	11.201
MS.268         	10.087         	11.189
MS.269         	10.068         	11.215
MS.270         	10.047         	11.215
MS.271         	10.028         	11.201
MS.272         	10.007         	11.215
MS.273         	9.988          	11.237
MS.274         	9.967          	11.227
MS.275         	9.948          	11.213
MS.276         	9.927          	11.219
MS.277         	9.907          	11.203
MS.278         	9.887          	11.241
MS.279         	9.867          	11.219
MS.280         	9.85           	11.225
MS.281         	9.83           	11.233
MS.282         	9.81           	11.225
MS.283         	9.79           	11.239
MS.284         	9.77           	11.219
MS.285         	9.75           	11.215
MS.286         	9.733          	11.223
MS.287         	9.712          	11.213
MS.288         	9.693          	11.221
MS.289         	9.672          	11.213
MS.290         	9.655          	11.223
MS.291         	9.635          	11.223
MS.292         	9.615          	11.231
MS.293         	9.595          	11.215
MS.294         	9.577          	11.205
MS.295         	9.557          	11.223
MS.296         	9.537          	11.245
MS.297         	9.52           	11.235
MS.298         	9.5            	11.239
MS.299         	9.483          	11.229
MS.300         	9.462          	11.219
MS.301         	9.445          	11.231
MS.302         	9.425          	11.239
MS.303         	9.405          	11.245
MS.304         	9.387          	11.241
MS.305         	9.367          	11.233
MS.306         	9.35           	11.253
MS.307         	9.33           	11.229
MS.308         	9.312          	11.225
MS.309         	9.295          	11.241
MS.310         	9.275          	11.245
MS.311         	9.257          	11.243
MS.312         	9.238          	11.241
MS.313         	9.22           	11.245
MS.314         	9.202          	11.241
MS.315         	9.182          	11.249
MS.316         	9.165          	11.247
MS.317         	9.148          	11.253
MS.318         	9.127          	11.251
MS.319         	9.11           	11.245
MS.320         	9.092          	11.251
MS.321         	9.073          	11.257
MS.322         	9.055          	11.269
MS.323         	9.037          	11.235
MS.324         	9.02           	11.249
MS.325         	9              	11.239
MS.326         	8.983          	11.263
MS.327         	8.965          	11.275
MS.328         	8.948          	11.269
MS.329         	8.93           	11.245
MS.330         	8.912          	11.269
MS.331         	8.895          	11.291
MS.332         	8.875          	11.253
MS.333         	8.858          	11.257
MS.334         	8.84           	11.267
MS.335         	8.823          	11.269
MS.336         	8.805          	11.287
MS.337         	8.787          	11.259
MS.338         	8.77           	11.273
MS.339         	8.752          	11.281
MS.340         	8.735          	11.259
MS.341         	8.717          	11.267
MS.342         	8.7            	11.261
MS.343         	8.682          	11.281
MS.344         	8.665          	11.279
MS.345         	8.648          	11.279
MS.346         	8.63           	11.283
MS.347         	8.613          	11.265
MS.348         	8.597          	11.283
MS.349         	8.58           	11.279
MS.350         	8.562          	11.285
MS.351         	8.545          	11.269
MS.352         	8.528          	11.261
MS.353         	8.51           	11.265
MS.354         	8.495          	11.281
MS.355         	8.477          	11.287
MS.356         	8.46           	11.291
MS.357         	8.443          	11.287
MS.358         	8.427          	11.281
MS.359         	8.41           	11.283
MS.360         	8.392          	11.283
MS.361         	8.375          	11.291
MS.362         	8.36           	11.287
MS.363         	8.342          	11.279
MS.364         	8.325          	11.273
MS.365         	8.31           	11.283
MS.366         	8.292          	11.281
MS.367         	8.275          	11.279
MS.368         	8.26           	11.281
MS.369         	8.242          	11.285
MS.370         	8.227          	11.291
MS.371         	8.21           	11.293
MS.372         	8.193          	11.277
MS.373         	8.177          	11.225
MS.374         	8.16           	11.305
MS.375         	8.145          	11.299
MS.376         	8.127          	11.285
MS.377         	8.113          	11.279
MS.378         	8.095          	11.281
MS.379         	8.08           	11.301
MS.380         	8.062          	11.303
MS.381         	8.047          	11.235
MS.382         	8.033          	11.301
MS.383         	8.015          	11.312
MS.384         	8              	11.299
MS.385         	7.982          	11.316
MS.386         	7.967          	11.305
MS.387         	7.952          	11.239
MS.388         	7.935          	11.31
MS.389         	7.92           	11.249
MS.390         	7.905          	11.241
MS.391         	7.887          	11.303
MS.392         	7.872          	11.245
MS.393         	7.857          	11.243
MS.394         	7.84           	11.221
MS.395         	7.825          	11.305
MS.396         	7.81           	11.307
MS.397         	7.795          	11.247
MS.398         	7.777          	11.225
MS.399         	7.762          	11.307
MS.400         	7.747          	11.247
MS.401         	7.732          	10.838
MS.402         	7.717          	11.235
MS.403         	7.7            	11.251
MS.404         	7.685          	10.81
MS.405         	7.67           	10.82
MS.406         	7.655          	11.237
MS.407         	7.64           	11.245
MS.408         	7.625          	10.846
MS.409         	7.61           	11.221
MS.410         	7.595          	11.235
MS.411         	7.58           	11.267
MS.412         	7.562          	10.834
MS.413         	7.547          	10.852
MS.414         	7.532          	10.82
MS.415         	7.517          	11.243
MS.416         	7.503          	10.83
MS.417         	7.487          	10.846
MS.418         	7.472          	10.828
MS.419         	7.457          	11.307
MS.420         	7.442          	11.261
MS.421         	7.427          	10.208
MS.422         	7.415          	10.824
MS.423         	7.4            	10.838
MS.424         	7.385          	10.331
MS.425         	7.37           	10.772
MS.426         	7.355          	10.361
MS.427         	7.34           	10.846
MS.428         	7.325          	10.893
MS.429         	7.31           	10.812
MS.430         	7.295          	10.288
MS.431         	7.282          	10.84
MS.432         	7.267          	10.707
MS.433         	7.253          	10.772
MS.434         	7.237          	10.367
MS.435         	7.222          	10.292
MS.436         	7.21           	10.272
MS.437         	7.195          	10.266
MS.438         	7.18           	10.284
MS.439         	7.165          	10.272
MS.440         	7.152          	10.182
MS.441         	7.137          	10.742
MS.442         	7.122          	10.23
MS.443         	7.11           	10.157
MS.444         	7.095          	10.228
MS.445         	7.08           	10.182
MS.446         	7.067          	10.212
MS.447         	7.052          	10.226
MS.448         	7.037          	10.184
MS.449         	7.025          	10.143
MS.450         	7.01           	10.077
MS.451         	6.995          	10.153
MS.452         	6.983          	10.172
MS.453         	6.967          	10.129
MS.454         	6.955          	10.161
MS.455         	6.94           	10.097
MS.456         	6.927          	10.089
MS.457         	6.912          	10.107
MS.458         	6.9            	10.057
MS.459         	6.885          	10.055
MS.460         	6.872          	10.059
MS.461         	6.858          	10.002
MS.462         	6.845          	10.061
MS.463         	6.83           	10.099
MS.464         	6.817          	9.833
MS.465         	6.802          	10.006
MS.466         	6.79           	9.95
MS.467         	6.775          	9.374
MS.468         	6.762          	10.045
MS.469         	6.747          	9.892
MS.470         	6.735          	9.736
MS.471         	6.722          	9.698
MS.472         	6.707          	9.517
MS.473         	6.695          	9.346
MS.474         	6.682          	9.521
MS.475         	6.668          	9.751
MS.476         	6.655          	9.354
MS.477         	6.642          	9.354
MS.478         	6.628          	9.1
MS.479         	6.615          	9.152
MS.480         	6.602          	9.404
MS.481         	6.587          	8.923
MS.482         	6.575          	9.001
MS.483         	6.562          	8.822
MS.484         	6.55           	9.241
MS.485         	6.535          	9.066
MS.486         	6.523          	8.756
MS.487         	6.51           	9.029
MS.488         	6.497          	8.607
