File:              	C:\Qtrac\Data\Daniel M Sørensen\MScan multicentre study\Data from centres\Roskilde\Folders with NC-examinations\ROS_N2b\TRC00310B.QZD
Name:              	DK.ROS.NC.2.2
Protocol:          	MSCAN-R2
Date:              	10/3/20
Start time:        	13:05:49
Age:               	54
Sex:               	m
Temperature:       	38,9
S/R sites:         	uln wrist adm
NC/disease:        	NC
Operator:          	tr
Comments:
M-SCAN DATA (8-1.4m)
Scanpts: 266, 272, 619, 641
Stim. (mA)     	Amp. (mV)
MS.1           	15             	10.155
MS.2           	15             	10.139
MS.3           	15             	10.143
MS.4           	15             	10.133
MS.5           	15             	10.111
MS.6           	15             	10.131
MS.7           	15             	10.135
MS.8           	15             	10.135
MS.9           	15             	10.129
MS.10          	15             	10.123
MS.11          	15             	10.157
MS.12          	15             	10.143
MS.13          	15             	10.143
MS.14          	15             	10.163
MS.15          	15             	10.139
MS.16          	15             	10.153
MS.17          	15             	10.145
MS.18          	15             	10.159
MS.19          	15             	10.153
MS.20          	15             	10.163
MS.21          	15             	10.163
MS.22          	15             	10.159
MS.23          	15             	10.178
MS.24          	14.94          	10.172
MS.25          	14.91          	10.167
MS.26          	14.88          	10.165
MS.27          	14.85          	10.172
MS.28          	14.82          	10.163
MS.29          	14.792         	10.19
MS.30          	14.762         	10.172
MS.31          	14.733         	10.18
MS.32          	14.702         	10.169
MS.33          	14.672         	10.176
MS.34          	14.645         	10.186
MS.35          	14.615         	10.184
MS.36          	14.585         	10.178
MS.37          	14.557         	10.178
MS.38          	14.527         	10.188
MS.39          	14.497         	10.184
MS.40          	14.47          	10.186
MS.41          	14.44          	10.182
MS.42          	14.412         	10.19
MS.43          	14.382         	10.182
MS.44          	14.355         	10.19
MS.45          	14.325         	10.186
MS.46          	14.297         	10.19
MS.47          	14.267         	10.186
MS.48          	14.24          	10.172
MS.49          	14.212         	10.163
MS.50          	14.182         	10.18
MS.51          	14.155         	10.196
MS.52          	14.127         	10.192
MS.53          	14.097         	10.176
MS.54          	14.07          	10.208
MS.55          	14.042         	10.204
MS.56          	14.015         	10.206
MS.57          	13.985         	10.212
MS.58          	13.957         	10.22
MS.59          	13.93          	10.212
MS.60          	13.903         	10.176
MS.61          	13.875         	10.202
MS.62          	13.847         	10.194
MS.63          	13.82          	10.23
MS.64          	13.792         	10.23
MS.65          	13.765         	10.202
MS.66          	13.737         	10.198
MS.67          	13.71          	10.194
MS.68          	13.682         	10.2
MS.69          	13.655         	10.196
MS.70          	13.627         	10.21
MS.71          	13.6           	10.264
MS.72          	13.572         	10.21
MS.73          	13.545         	10.216
MS.74          	13.517         	10.214
MS.75          	13.492         	10.216
MS.76          	13.465         	10.228
MS.77          	13.438         	10.222
MS.78          	13.41          	10.22
MS.79          	13.385         	10.216
MS.80          	13.358         	10.23
MS.81          	13.33          	10.232
MS.82          	13.305         	10.246
MS.83          	13.278         	10.248
MS.84          	13.25          	10.254
MS.85          	13.225         	10.244
MS.86          	13.197         	10.238
MS.87          	13.172         	10.254
MS.88          	13.145         	10.244
MS.89          	13.12          	10.266
MS.90          	13.092         	10.244
MS.91          	13.068         	10.262
MS.92          	13.04          	10.264
MS.93          	13.015         	10.286
MS.94          	12.987         	10.272
MS.95          	12.962         	10.276
MS.96          	12.938         	10.27
MS.97          	12.91          	10.268
MS.98          	12.885         	10.26
MS.99          	12.86          	10.26
MS.100         	12.832         	10.282
MS.101         	12.807         	10.276
MS.102         	12.782         	10.284
MS.103         	12.757         	10.29
MS.104         	12.73          	10.286
MS.105         	12.705         	10.292
MS.106         	12.68          	10.3
MS.107         	12.655         	10.296
MS.108         	12.63          	10.306
MS.109         	12.605         	10.298
MS.110         	12.58          	10.331
MS.111         	12.555         	10.3
MS.112         	12.53          	10.319
MS.113         	12.505         	10.306
MS.114         	12.48          	10.321
MS.115         	12.455         	10.331
MS.116         	12.43          	10.333
MS.117         	12.405         	10.321
MS.118         	12.38          	10.317
MS.119         	12.355         	10.298
MS.120         	12.33          	10.333
MS.121         	12.305         	10.339
MS.122         	12.28          	10.306
MS.123         	12.257         	10.29
MS.124         	12.233         	10.331
MS.125         	12.207         	10.315
MS.126         	12.182         	10.367
MS.127         	12.157         	10.351
MS.128         	12.135         	10.353
MS.129         	12.11          	10.361
MS.130         	12.085         	10.397
MS.131         	12.062         	10.373
MS.132         	12.037         	10.351
MS.133         	12.012         	10.351
MS.134         	11.99          	10.341
MS.135         	11.965         	10.403
MS.136         	11.943         	10.385
MS.137         	11.917         	10.391
MS.138         	11.895         	10.391
MS.139         	11.87          	10.395
MS.140         	11.847         	10.383
MS.141         	11.822         	10.397
MS.142         	11.8           	10.393
MS.143         	11.775         	10.383
MS.144         	11.752         	10.403
MS.145         	11.73          	10.411
MS.146         	11.705         	10.439
MS.147         	11.682         	10.393
MS.148         	11.657         	10.431
MS.149         	11.635         	10.415
MS.150         	11.613         	10.415
MS.151         	11.59          	10.441
MS.152         	11.565         	10.409
MS.153         	11.542         	10.453
MS.154         	11.52          	10.381
MS.155         	11.497         	10.445
MS.156         	11.472         	10.399
MS.157         	11.45          	10.449
MS.158         	11.427         	10.447
MS.159         	11.405         	10.411
MS.160         	11.382         	10.456
MS.161         	11.36          	10.476
MS.162         	11.337         	10.431
MS.163         	11.315         	10.415
MS.164         	11.292         	10.441
MS.165         	11.27          	10.417
MS.166         	11.247         	10.472
MS.167         	11.225         	10.439
MS.168         	11.202         	10.417
MS.169         	11.18          	10.407
MS.170         	11.157         	10.399
MS.171         	11.135         	10.443
MS.172         	11.113         	10.433
MS.173         	11.09          	10.427
MS.174         	11.068         	10.46
MS.175         	11.045         	10.445
MS.176         	11.023         	10.443
MS.177         	11.002         	10.441
MS.178         	10.98          	10.405
MS.179         	10.957         	10.395
MS.180         	10.935         	10.433
MS.181         	10.915         	10.383
MS.182         	10.892         	10.447
MS.183         	10.87          	10.417
MS.184         	10.847         	10.449
MS.185         	10.827         	10.389
MS.186         	10.805         	10.417
MS.187         	10.785         	10.385
MS.188         	10.762         	10.443
MS.189         	10.74          	10.433
MS.190         	10.72          	10.441
MS.191         	10.698         	10.439
MS.192         	10.677         	10.399
MS.193         	10.655         	10.411
MS.194         	10.635         	10.431
MS.195         	10.613         	10.423
MS.196         	10.592         	10.427
MS.197         	10.57          	10.49
MS.198         	10.55          	10.456
MS.199         	10.528         	10.433
MS.200         	10.507         	10.456
MS.201         	10.485         	10.437
MS.202         	10.465         	10.468
MS.203         	10.445         	10.468
MS.204         	10.422         	10.468
MS.205         	10.403         	10.468
MS.206         	10.382         	10.46
MS.207         	10.36          	10.48
MS.208         	10.34          	10.48
MS.209         	10.32          	10.5
MS.210         	10.3           	10.498
MS.211         	10.278         	10.466
MS.212         	10.257         	10.51
MS.213         	10.238         	10.482
MS.214         	10.217         	10.54
MS.215         	10.198         	10.462
MS.216         	10.175         	10.54
MS.217         	10.155         	10.413
MS.218         	10.135         	10.502
MS.219         	10.115         	10.476
MS.220         	10.095         	10.528
MS.221         	10.075         	10.574
MS.222         	10.055         	10.536
MS.223         	10.035         	10.574
MS.224         	10.015         	10.516
MS.225         	9.995          	10.546
MS.226         	9.975          	10.542
MS.227         	9.955          	10.49
MS.228         	9.935          	10.596
MS.229         	9.915          	10.588
MS.230         	9.895          	10.611
MS.231         	9.875          	10.502
MS.232         	9.855          	10.592
MS.233         	9.835          	10.52
MS.234         	9.818          	10.516
MS.235         	9.797          	10.52
MS.236         	9.778          	10.522
MS.237         	9.757          	10.594
MS.238         	9.738          	10.52
MS.239         	9.717          	10.548
MS.240         	9.7            	10.512
MS.241         	9.68           	10.526
MS.242         	9.66           	10.486
MS.243         	9.64           	10.619
MS.244         	9.622          	10.554
MS.245         	9.602          	10.534
MS.246         	9.582          	10.55
MS.247         	9.565          	10.558
MS.248         	9.545          	10.637
MS.249         	9.525          	10.603
MS.250         	9.507          	10.556
MS.251         	9.488          	10.55
MS.252         	9.47           	10.552
MS.253         	9.45           	10.54
MS.254         	9.432          	10.564
MS.255         	9.412          	10.617
MS.256         	9.395          	10.554
MS.257         	9.375          	10.55
MS.258         	9.358          	10.554
MS.259         	9.337          	10.498
MS.260         	9.32           	10.56
MS.261         	9.3            	10.52
MS.262         	9.283          	10.552
MS.263         	9.262          	10.528
MS.264         	9.245          	10.54
MS.265         	9.225          	10.532
MS.266         	9.207          	10.52
MS.267         	9.19           	10.54
MS.268         	9.17           	10.538
MS.269         	9.153          	10.538
MS.270         	9.135          	10.532
MS.271         	9.115          	10.506
MS.272         	9.097          	10.542
MS.273         	9.08           	10.518
MS.274         	9.062          	10.518
MS.275         	9.042          	10.572
MS.276         	9.025          	10.582
MS.277         	9.007          	10.578
MS.278         	8.99           	10.518
MS.279         	8.972          	10.476
MS.280         	8.952          	10.524
MS.281         	8.935          	10.435
MS.282         	8.917          	10.476
MS.283         	8.9            	10.474
MS.284         	8.882          	10.476
MS.285         	8.865          	10.51
MS.286         	8.847          	10.419
MS.287         	8.83           	10.476
MS.288         	8.812          	10.48
MS.289         	8.795          	10.516
MS.290         	8.775          	10.458
MS.291         	8.757          	10.435
MS.292         	8.74           	10.512
MS.293         	8.722          	10.381
MS.294         	8.707          	10.341
MS.295         	8.69           	10.451
MS.296         	8.672          	10.345
MS.297         	8.655          	10.357
MS.298         	8.637          	10.419
MS.299         	8.62           	10.407
MS.300         	8.602          	10.276
MS.301         	8.585          	10.415
MS.302         	8.568          	10.315
MS.303         	8.55           	10.284
MS.304         	8.535          	10.264
MS.305         	8.517          	10.276
MS.306         	8.5            	10.357
MS.307         	8.483          	10.335
MS.308         	8.465          	10.208
MS.309         	8.45           	10.184
MS.310         	8.432          	9.952
MS.311         	8.415          	10.26
MS.312         	8.398          	10.224
MS.313         	8.382          	10.244
MS.314         	8.365          	10.151
MS.315         	8.347          	10.196
MS.316         	8.332          	10.188
MS.317         	8.315          	10.145
MS.318         	8.297          	9.833
MS.319         	8.283          	10.107
MS.320         	8.265          	10.089
MS.321         	8.247          	9.892
MS.322         	8.233          	9.851
MS.323         	8.215          	10.031
MS.324         	8.2            	9.817
MS.325         	8.182          	9.781
MS.326         	8.167          	9.682
MS.327         	8.15           	9.714
MS.328         	8.135          	9.704
MS.329         	8.117          	9.964
MS.330         	8.102          	9.714
MS.331         	8.085          	9.577
MS.332         	8.07           	9.63
MS.333         	8.052          	9.487
MS.334         	8.037          	9.533
MS.335         	8.02           	9.463
MS.336         	8.005          	9.616
MS.337         	7.99           	9.384
MS.338         	7.972          	9.386
MS.339         	7.957          	9.465
MS.340         	7.94           	9.45
MS.341         	7.925          	9.044
MS.342         	7.91           	9.08
MS.343         	7.892          	9.42
MS.344         	7.878          	8.868
MS.345         	7.862          	9.332
MS.346         	7.847          	9.102
MS.347         	7.83           	8.808
MS.348         	7.815          	9.001
MS.349         	7.8            	9.036
MS.350         	7.785          	9.048
MS.351         	7.767          	8.796
MS.352         	7.753          	9.126
MS.353         	7.737          	8.739
MS.354         	7.722          	9.042
MS.355         	7.707          	8.594
MS.356         	7.69           	8.536
MS.357         	7.675          	8.663
MS.358         	7.66           	8.635
MS.359         	7.645          	8.754
MS.360         	7.63           	8.802
MS.361         	7.615          	8.814
MS.362         	7.6            	8.157
MS.363         	7.585          	8.637
MS.364         	7.57           	8.097
MS.365         	7.555          	8.498
MS.366         	7.537          	8.443
MS.367         	7.523          	8.59
MS.368         	7.507          	8.075
MS.369         	7.492          	8.028
MS.370         	7.477          	7.942
MS.371         	7.462          	7.859
MS.372         	7.447          	8.061
MS.373         	7.435          	8.073
MS.374         	7.42           	8.425
MS.375         	7.405          	7.869
MS.376         	7.39           	7.863
MS.377         	7.375          	7.849
MS.378         	7.36           	7.771
MS.379         	7.345          	7.811
MS.380         	7.33           	7.99
MS.381         	7.315          	7.871
MS.382         	7.302          	7.7
MS.383         	7.287          	7.765
MS.384         	7.273          	7.829
MS.385         	7.257          	7.769
MS.386         	7.242          	7.684
MS.387         	7.227          	7.765
MS.388         	7.215          	7.732
MS.389         	7.2            	7.692
MS.390         	7.185          	7.696
MS.391         	7.17           	7.734
MS.392         	7.157          	7.277
MS.393         	7.142          	7.636
MS.394         	7.128          	7.644
MS.395         	7.115          	7.493
MS.396         	7.1            	7.311
MS.397         	7.085          	7.36
MS.398         	7.072          	7.319
MS.399         	7.057          	6.685
MS.400         	7.043          	7.039
MS.401         	7.03           	7.368
MS.402         	7.015          	7.255
MS.403         	7              	7.124
MS.404         	6.987          	7.41
MS.405         	6.972          	6.961
MS.406         	6.96           	6.834
MS.407         	6.945          	7.14
MS.408         	6.932          	6.222
MS.409         	6.918          	7.086
MS.410         	6.902          	6.564
MS.411         	6.89           	6.151
MS.412         	6.875          	5.998
MS.413         	6.862          	6.502
MS.414         	6.847          	5.974
MS.415         	6.835          	6.034
MS.416         	6.822          	6.099
MS.417         	6.807          	5.394
MS.418         	6.795          	5.642
MS.419         	6.78           	5.595
MS.420         	6.767          	6.137
MS.421         	6.753          	5.025
MS.422         	6.74           	5.178
MS.423         	6.727          	5.472
MS.424         	6.712          	5.662
MS.425         	6.7            	4.798
MS.426         	6.685          	5.539
MS.427         	6.672          	4.691
MS.428         	6.66           	5.309
MS.429         	6.645          	4.512
MS.430         	6.632          	4.723
MS.431         	6.62           	4.334
MS.432         	6.608          	4.407
MS.433         	6.592          	4.572
MS.434         	6.58           	4.002
MS.435         	6.567          	4.562
MS.436         	6.555          	4.496
MS.437         	6.54           	4.445
MS.438         	6.527          	4.284
MS.439         	6.515          	4.147
MS.440         	6.503          	4.367
MS.441         	6.487          	4.103
MS.442         	6.475          	3.603
MS.443         	6.462          	3.863
MS.444         	6.45           	3.958
MS.445         	6.438          	3.853
MS.446         	6.425          	3.39
MS.447         	6.41           	3.748
MS.448         	6.398          	3.418
MS.449         	6.385          	3.136
MS.450         	6.372          	3.628
MS.451         	6.36           	3.122
MS.452         	6.347          	3.051
MS.453         	6.335          	3.019
MS.454         	6.322          	3.213
MS.455         	6.31           	3.712
MS.456         	6.297          	2.935
MS.457         	6.285          	2.878
MS.458         	6.273          	2.826
MS.459         	6.26           	3.223
MS.460         	6.247          	2.854
MS.461         	6.235          	2.864
MS.462         	6.222          	2.63
MS.463         	6.21           	2.679
MS.464         	6.197          	2.407
MS.465         	6.185          	2.782
MS.466         	6.172          	2.419
MS.467         	6.16           	2.496
MS.468         	6.148          	2.596
MS.469         	6.135          	2.256
MS.470         	6.122          	2.191
MS.471         	6.11           	2.485
MS.472         	6.097          	2.226
MS.473         	6.088          	2.332
MS.474         	6.075          	2.077
MS.475         	6.062          	2.262
MS.476         	6.05           	1.992
MS.477         	6.037          	2.01
MS.478         	6.025          	2.135
MS.479         	6.012          	1.978
MS.480         	6.003          	1.855
MS.481         	5.99           	1.932
MS.482         	5.977          	1.573
MS.483         	5.965          	1.934
MS.484         	5.955          	1.714
MS.485         	5.942          	1.772
MS.486         	5.93           	1.76
MS.487         	5.918          	1.555
MS.488         	5.907          	1.456
MS.489         	5.895          	1.398
MS.490         	5.882          	1.398
MS.491         	5.87           	1.349
MS.492         	5.86           	1.72
