File:              	C:\Qtrac\Data\Daniel M Sørensen\MScan multicentre study\Data from centres\Roskilde\Folders with NC-examinations\ROS_N2a\TRC00227B.QZD
Name:              	DK.ROS.NC.2.1
Protocol:          	MSCAN-R2
Date:              	27/2/20
Start time:        	15:52:50
Age:               	54
Sex:               	M
Temperature:       	36,6
S/R sites:         	Ulnaris wr_ADM
NC/disease:        	NC
Operator:          	tr
Comments:
M-SCAN DATA (8.3-1.4m)
Scanpts: 173, 180, 714, 736
Stim. (mA)     	Amp. (mV)
MS.1           	13.5           	8.798
MS.2           	13.5           	8.804
MS.3           	13.5           	8.784
MS.4           	13.5           	8.764
MS.5           	13.5           	8.786
MS.6           	13.5           	8.78
MS.7           	13.5           	8.792
MS.8           	13.5           	8.788
MS.9           	13.5           	8.788
MS.10          	13.5           	8.79
MS.11          	13.5           	8.79
MS.12          	13.5           	8.792
MS.13          	13.5           	8.774
MS.14          	13.5           	8.79
MS.15          	13.5           	8.812
MS.16          	13.5           	8.802
MS.17          	13.5           	8.792
MS.18          	13.5           	8.798
MS.19          	13.5           	8.794
MS.20          	13.5           	8.808
MS.21          	13.5           	8.8
MS.22          	13.5           	8.798
MS.23          	13.5           	8.814
MS.24          	13.445         	8.812
MS.25          	13.42          	8.808
MS.26          	13.392         	8.802
MS.27          	13.365         	8.816
MS.28          	13.34          	8.862
MS.29          	13.312         	8.838
MS.30          	13.285         	8.826
MS.31          	13.26          	8.82
MS.32          	13.233         	8.83
MS.33          	13.205         	8.824
MS.34          	13.18          	8.812
MS.35          	13.153         	8.816
MS.36          	13.127         	8.828
MS.37          	13.1           	8.826
MS.38          	13.075         	8.818
MS.39          	13.047         	8.822
MS.40          	13.023         	8.816
MS.41          	12.997         	8.826
MS.42          	12.97          	8.828
MS.43          	12.945         	8.836
MS.44          	12.92          	8.834
MS.45          	12.892         	8.834
MS.46          	12.867         	8.826
MS.47          	12.842         	8.828
MS.48          	12.815         	8.842
MS.49          	12.79          	8.826
MS.50          	12.765         	8.83
MS.51          	12.74          	8.828
MS.52          	12.715         	8.838
MS.53          	12.688         	8.828
MS.54          	12.662         	8.838
MS.55          	12.637         	8.834
MS.56          	12.613         	8.838
MS.57          	12.587         	8.737
MS.58          	12.562         	8.836
MS.59          	12.537         	8.836
MS.60          	12.512         	8.832
MS.61          	12.488         	8.846
MS.62          	12.462         	8.842
MS.63          	12.438         	8.804
MS.64          	12.412         	8.862
MS.65          	12.387         	8.824
MS.66          	12.363         	8.818
MS.67          	12.337         	8.812
MS.68          	12.312         	8.832
MS.69          	12.29          	8.824
MS.70          	12.265         	8.852
MS.71          	12.24          	8.86
MS.72          	12.215         	8.842
MS.73          	12.19          	8.836
MS.74          	12.167         	8.828
MS.75          	12.142         	8.84
MS.76          	12.117         	8.852
MS.77          	12.092         	8.818
MS.78          	12.07          	8.83
MS.79          	12.045         	8.858
MS.80          	12.023         	8.842
MS.81          	11.997         	8.83
MS.82          	11.972         	8.862
MS.83          	11.95          	8.862
MS.84          	11.925         	8.858
MS.85          	11.903         	8.836
MS.86          	11.877         	8.83
MS.87          	11.855         	8.838
MS.88          	11.83          	8.836
MS.89          	11.807         	8.854
MS.90          	11.782         	8.816
MS.91          	11.76          	8.83
MS.92          	11.738         	8.842
MS.93          	11.712         	8.842
MS.94          	11.69          	8.834
MS.95          	11.665         	8.85
MS.96          	11.642         	8.85
MS.97          	11.62          	8.848
MS.98          	11.597         	8.844
MS.99          	11.572         	8.85
MS.100         	11.55          	8.866
MS.101         	11.528         	8.844
MS.102         	11.505         	8.85
MS.103         	11.48          	8.874
MS.104         	11.457         	8.858
MS.105         	11.435         	8.864
MS.106         	11.412         	8.87
MS.107         	11.39          	8.868
MS.108         	11.367         	8.901
MS.109         	11.345         	8.87
MS.110         	11.322         	8.88
MS.111         	11.297         	8.886
MS.112         	11.275         	8.862
MS.113         	11.252         	8.87
MS.114         	11.23          	8.886
MS.115         	11.207         	8.886
MS.116         	11.188         	8.907
MS.117         	11.165         	8.891
MS.118         	11.142         	8.886
MS.119         	11.12          	8.907
MS.120         	11.097         	8.905
MS.121         	11.075         	8.891
MS.122         	11.052         	8.897
MS.123         	11.03          	8.921
MS.124         	11.007         	8.903
MS.125         	10.988         	8.963
MS.126         	10.965         	8.925
MS.127         	10.943         	8.925
MS.128         	10.92          	8.919
MS.129         	10.9           	8.921
MS.130         	10.877         	8.965
MS.131         	10.855         	9.036
MS.132         	10.835         	9.011
MS.133         	10.812         	9.1
MS.134         	10.79          	9.74
MS.135         	10.77          	9.799
MS.136         	10.747         	9.722
MS.137         	10.725         	9.809
MS.138         	10.705         	9.863
MS.139         	10.682         	9.964
MS.140         	10.662         	9.91
MS.141         	10.64          	9.938
MS.142         	10.62          	9.984
MS.143         	10.597         	9.974
MS.144         	10.577         	10
MS.145         	10.555         	9.962
MS.146         	10.535         	10.055
MS.147         	10.515         	10.01
MS.148         	10.492         	10.055
MS.149         	10.472         	10.035
MS.150         	10.45          	10.059
MS.151         	10.43          	10.069
MS.152         	10.41          	10.085
MS.153         	10.387         	10.101
MS.154         	10.367         	10.091
MS.155         	10.347         	10.099
MS.156         	10.325         	10.107
MS.157         	10.305         	10.099
MS.158         	10.285         	10.117
MS.159         	10.265         	10.137
MS.160         	10.245         	10.153
MS.161         	10.222         	10.129
MS.162         	10.202         	10.115
MS.163         	10.182         	10.161
MS.164         	10.162         	10.169
MS.165         	10.142         	10.147
MS.166         	10.122         	10.133
MS.167         	10.102         	10.165
MS.168         	10.082         	10.208
MS.169         	10.06          	10.161
MS.170         	10.04          	10.196
MS.171         	10.02          	10.206
MS.172         	10             	10.192
MS.173         	9.98           	10.216
MS.174         	9.96           	10.224
MS.175         	9.94           	10.169
MS.176         	9.922          	10.206
MS.177         	9.903          	10.184
MS.178         	9.882          	10.204
MS.179         	9.863          	10.226
MS.180         	9.842          	10.218
MS.181         	9.823          	10.216
MS.182         	9.802          	10.188
MS.183         	9.782          	10.222
MS.184         	9.765          	10.159
MS.185         	9.745          	10.169
MS.186         	9.725          	10.19
MS.187         	9.705          	10.192
MS.188         	9.685          	10.178
MS.189         	9.667          	10.161
MS.190         	9.648          	10.188
MS.191         	9.627          	10.161
MS.192         	9.61           	10.19
MS.193         	9.59           	10.165
MS.194         	9.57           	10.165
MS.195         	9.552          	10.172
MS.196         	9.532          	10.155
MS.197         	9.512          	10.157
MS.198         	9.495          	10.186
MS.199         	9.475          	10.157
MS.200         	9.457          	10.151
MS.201         	9.438          	10.186
MS.202         	9.417          	10.178
MS.203         	9.4            	10.147
MS.204         	9.38           	10.196
MS.205         	9.363          	10.18
MS.206         	9.342          	10.165
MS.207         	9.325          	10.202
MS.208         	9.305          	10.149
MS.209         	9.287          	10.176
MS.210         	9.27           	10.167
MS.211         	9.25           	10.218
MS.212         	9.233          	10.137
MS.213         	9.212          	10.141
MS.214         	9.195          	10.172
MS.215         	9.177          	10.119
MS.216         	9.158          	10.095
MS.217         	9.14           	10.103
MS.218         	9.122          	10.127
MS.219         	9.102          	10.133
MS.220         	9.085          	10.121
MS.221         	9.068          	10.125
MS.222         	9.05           	10.051
MS.223         	9.03           	10.051
MS.224         	9.012          	10.069
MS.225         	8.995          	10.071
MS.226         	8.977          	10.135
MS.227         	8.96           	9.978
MS.228         	8.943          	10.061
MS.229         	8.922          	10.016
MS.230         	8.905          	10.018
MS.231         	8.887          	10.059
MS.232         	8.87           	10.022
MS.233         	8.852          	9.972
MS.234         	8.835          	9.912
MS.235         	8.818          	9.984
MS.236         	8.8            	9.9
MS.237         	8.783          	9.97
MS.238         	8.765          	9.992
MS.239         	8.747          	9.875
MS.240         	8.73           	9.896
MS.241         	8.712          	9.885
MS.242         	8.695          	9.944
MS.243         	8.677          	9.912
MS.244         	8.66           	9.783
MS.245         	8.642          	9.904
MS.246         	8.625          	9.857
MS.247         	8.608          	9.89
MS.248         	8.59           	9.835
MS.249         	8.573          	9.763
MS.250         	8.557          	9.807
MS.251         	8.54           	9.72
MS.252         	8.523          	9.777
MS.253         	8.505          	9.847
MS.254         	8.488          	9.773
MS.255         	8.472          	9.656
MS.256         	8.455          	9.702
MS.257         	8.438          	9.62
MS.258         	8.42           	9.678
MS.259         	8.405          	9.724
MS.260         	8.387          	9.591
MS.261         	8.37           	9.626
MS.262         	8.352          	9.642
MS.263         	8.337          	9.624
MS.264         	8.32           	9.557
MS.265         	8.302          	9.509
MS.266         	8.287          	9.493
MS.267         	8.27           	9.517
MS.268         	8.255          	9.521
MS.269         	8.238          	9.467
MS.270         	8.22           	9.465
MS.271         	8.205          	9.521
MS.272         	8.188          	9.467
MS.273         	8.172          	9.485
MS.274         	8.155          	9.499
MS.275         	8.14           	9.509
MS.276         	8.122          	9.44
MS.277         	8.108          	9.366
MS.278         	8.09           	9.356
MS.279         	8.075          	9.404
MS.280         	8.057          	9.311
MS.281         	8.042          	9.267
MS.282         	8.025          	9.301
MS.283         	8.01           	9.36
MS.284         	7.995          	9.313
MS.285         	7.977          	9.265
MS.286         	7.962          	9.279
MS.287         	7.945          	9.273
MS.288         	7.93           	9.309
MS.289         	7.915          	9.309
MS.290         	7.898          	9.001
MS.291         	7.882          	9.277
MS.292         	7.867          	9.305
MS.293         	7.852          	9.289
MS.294         	7.835          	8.846
MS.295         	7.82           	8.997
MS.296         	7.805          	9.223
MS.297         	7.79           	9.285
MS.298         	7.773          	8.959
MS.299         	7.757          	8.842
MS.300         	7.742          	9.013
MS.301         	7.727          	9.259
MS.302         	7.712          	8.588
MS.303         	7.695          	8.49
MS.304         	7.68           	8.782
MS.305         	7.665          	8.584
MS.306         	7.65           	8.895
MS.307         	7.635          	8.566
MS.308         	7.62           	8.443
MS.309         	7.605          	8.484
MS.310         	7.59           	8.846
MS.311         	7.572          	8.574
MS.312         	7.557          	8.518
MS.313         	7.543          	8.441
MS.314         	7.527          	8.532
MS.315         	7.512          	8.514
MS.316         	7.497          	8.54
MS.317         	7.482          	8.415
MS.318         	7.467          	8.391
MS.319         	7.452          	8.457
MS.320         	7.438          	8.282
MS.321         	7.425          	8.365
MS.322         	7.41           	8.373
MS.323         	7.395          	8.373
MS.324         	7.38           	8.433
MS.325         	7.365          	8.31
MS.326         	7.35           	8.222
MS.327         	7.335          	8.034
MS.328         	7.32           	8.212
MS.329         	7.305          	8.318
MS.330         	7.293          	8.073
MS.331         	7.277          	8.274
MS.332         	7.262          	8.242
MS.333         	7.247          	8.264
MS.334         	7.233          	8.081
MS.335         	7.22           	8.055
MS.336         	7.205          	7.926
MS.337         	7.19           	8.006
MS.338         	7.175          	7.942
MS.339         	7.162          	7.996
MS.340         	7.148          	7.964
MS.341         	7.132          	7.99
MS.342         	7.117          	8.039
MS.343         	7.105          	7.734
MS.344         	7.09           	8.026
MS.345         	7.075          	7.765
MS.346         	7.062          	7.609
MS.347         	7.047          	7.75
MS.348         	7.032          	7.775
MS.349         	7.02           	7.803
MS.350         	7.005          	7.769
MS.351         	6.992          	7.809
MS.352         	6.977          	7.662
MS.353         	6.962          	7.458
MS.354         	6.95           	7.519
MS.355         	6.935          	7.428
MS.356         	6.922          	7.843
MS.357         	6.907          	7.414
MS.358         	6.895          	7.509
MS.359         	6.88           	7.503
MS.360         	6.867          	7.642
MS.361         	6.852          	7.612
MS.362         	6.84           	7.382
MS.363         	6.825          	7.456
MS.364         	6.812          	7.001
MS.365         	6.797          	7.042
MS.366         	6.785          	7.086
MS.367         	6.773          	7.44
MS.368         	6.757          	7.422
MS.369         	6.745          	6.901
MS.370         	6.73           	6.349
MS.371         	6.717          	6.661
MS.372         	6.705          	6.625
MS.373         	6.69           	6.516
MS.374         	6.677          	6.19
MS.375         	6.665          	6.328
MS.376         	6.65           	6.006
MS.377         	6.637          	6.159
MS.378         	6.625          	6.602
MS.379         	6.61           	6.238
MS.380         	6.597          	6.177
MS.381         	6.585          	5.984
MS.382         	6.57           	6.443
MS.383         	6.557          	6.194
MS.384         	6.545          	5.883
MS.385         	6.532          	6.125
MS.386         	6.52           	5.744
MS.387         	6.505          	5.948
MS.388         	6.492          	6.008
MS.389         	6.48           	5.978
MS.390         	6.467          	5.801
MS.391         	6.455          	6.391
MS.392         	6.44           	5.501
MS.393         	6.427          	5.611
MS.394         	6.415          	5.881
MS.395         	6.402          	5.686
MS.396         	6.39           	5.664
MS.397         	6.378          	5.422
MS.398         	6.365          	5.656
MS.399         	6.352          	5.424
MS.400         	6.34           	5.541
MS.401         	6.325          	5.368
MS.402         	6.312          	5.219
MS.403         	6.3            	5.257
MS.404         	6.287          	4.622
MS.405         	6.275          	5.364
MS.406         	6.262          	4.862
MS.407         	6.25           	4.882
MS.408         	6.237          	4.78
MS.409         	6.225          	4.304
MS.410         	6.213          	4.463
MS.411         	6.2            	4.324
MS.412         	6.188          	4.508
MS.413         	6.175          	4.471
MS.414         	6.165          	4.465
MS.415         	6.152          	4.798
MS.416         	6.14           	4.496
MS.417         	6.128          	4.371
MS.418         	6.115          	4.647
MS.419         	6.102          	4.56
MS.420         	6.09           	4.528
MS.421         	6.077          	4.278
MS.422         	6.065          	4
MS.423         	6.055          	4.181
MS.424         	6.043          	4.363
MS.425         	6.03           	4.304
MS.426         	6.017          	4.272
MS.427         	6.005          	4.272
MS.428         	5.992          	4.139
MS.429         	5.983          	3.938
MS.430         	5.97           	3.853
MS.431         	5.957          	4.099
MS.432         	5.945          	3.918
MS.433         	5.935          	3.893
MS.434         	5.922          	3.811
MS.435         	5.91           	3.899
MS.436         	5.898          	4.046
MS.437         	5.887          	3.48
MS.438         	5.875          	3.487
MS.439         	5.862          	3.364
MS.440         	5.852          	3.16
MS.441         	5.84           	3.791
MS.442         	5.827          	3.249
MS.443         	5.817          	3.223
MS.444         	5.805          	3.128
MS.445         	5.793          	3.221
MS.446         	5.782          	2.902
MS.447         	5.77           	3.116
MS.448         	5.757          	2.997
MS.449         	5.747          	3.001
MS.450         	5.735          	2.999
MS.451         	5.725          	3.045
MS.452         	5.713          	3.013
MS.453         	5.702          	2.761
MS.454         	5.69           	2.844
MS.455         	5.677          	2.598
MS.456         	5.668          	2.635
MS.457         	5.655          	2.618
MS.458         	5.645          	2.328
MS.459         	5.632          	2.546
MS.460         	5.622          	2.306
MS.461         	5.61           	2.584
MS.462         	5.6            	2.375
MS.463         	5.588          	2.139
MS.464         	5.577          	2.421
MS.465         	5.565          	2.159
MS.466         	5.555          	2.197
MS.467         	5.545          	2.425
MS.468         	5.532          	2.437
MS.469         	5.523          	2.52
MS.470         	5.51           	2.355
MS.471         	5.5            	2.149
MS.472         	5.487          	2.157
MS.473         	5.477          	2.214
MS.474         	5.467          	2.286
MS.475         	5.455          	2.169
MS.476         	5.445          	2.159
MS.477         	5.435          	2.042
MS.478         	5.422          	1.781
MS.479         	5.412          	1.533
MS.480         	5.402          	1.76
MS.481         	5.39           	1.774
MS.482         	5.38           	2.014
MS.483         	5.37           	2.042
MS.484         	5.358          	1.672
MS.485         	5.347          	1.593
MS.486         	5.338          	1.633
MS.487         	5.327          	1.523
MS.488         	5.315          	1.49
MS.489         	5.305          	1.525
MS.490         	5.295          	1.315
MS.491         	5.285          	1.293
MS.492         	5.273          	1.19
MS.493         	5.262          	1.09
MS.494         	5.253          	1.206
MS.495         	5.242          	1.206
MS.496         	5.233          	1.126
MS.497         	5.22           	1.37
MS.498         	5.21           	0.951
